Run Name,Run 6
Run Date,10:00:37 AM   04-13-15
Method Name,50% CRL group 3 April 8 2014.1
Export Format Version, 1.00
Method ID, 2499
Points/Second, 5.00
Number of Records,   2820
Offset from Run Start Time,00:00:00
Run End Time,00:09:23
Time,Second
QuadTec 1, (280.0 nm), AU
QuadTec 2, (260.0 nm), AU
Gradient Pump,<Not Selected>
QuadTec 3, (214.0 nm), AU
QuadTec 4, (405.0 nm), AU
Conductivity,mS/cm
Trace 6,<Not Available>
GP Pressure,<Not Selected>
Volume,<Not Selected>
Fraction,<Not Available>
Time,QuadTec 1,QuadTec 2,QuadTec 3,QuadTec 4,Conductivity
     0.0,0.006104,0.004494,-0.006497,0.003200,  38.260
     0.2,0.006119,0.004494,-0.006497,0.003176,  38.250
     0.4,0.006212,0.004494,-0.006497,0.003162,  38.244
     0.6,0.006410,0.004497,-0.006497,0.003200,  38.247
     0.8,0.000000,0.004500,-0.006497,0.003176,  38.241
     1.0,0.000000,0.004499,0.000000,0.003176,  38.238
     1.2,0.000000,0.004459,0.000000,0.003213,  38.238
     1.4,0.000000,0.004459,0.000000,0.003226,  38.235
     1.6,0.000000,0.004472,0.000000,0.003237,  38.230
     1.8,0.000000,0.004506,0.000000,0.003286,  38.233
     2.0,0.000000,0.004506,0.000000,0.002274,  38.232
     2.2,0.000000,0.000000,0.000000,0.000000,  38.228
     2.4,0.000000,0.000000,0.000000,0.000000,  38.230
     2.6,0.000000,0.000000,0.000000,0.000000,  38.234
     2.8,0.000000,0.000000,0.000000,0.000000,  38.232
     3.0,0.000000,0.000000,0.000000,0.000000,  38.232
     3.2,0.000000,0.000000,0.000000,0.000000,  38.231
     3.4,0.000000,0.000000,0.000000,0.000000,  38.228
     3.6,0.000000,0.000000,0.000000,0.000000,  38.228
     3.8,0.000000,0.000000,0.000000,0.000000,  38.229
     4.0,0.000000,0.000000,0.000000,0.000000,  38.228
     4.2,0.000000,0.000000,0.000000,0.000000,  38.231
     4.4,0.000000,0.000000,0.000000,0.000000,  38.227
     4.6,0.000000,0.000000,0.000000,0.000000,  38.229
     4.8,0.000029,0.000000,-0.003674,0.000000,  38.233
     5.0,0.000064,0.000000,-0.006140,0.000000,  38.233
     5.2,0.000094,0.000000,-0.007465,0.000000,  38.233
     5.4,0.000135,0.000000,-0.007624,0.000000,  38.233
     5.6,0.000168,0.000000,-0.006625,0.000000,  38.234
     5.8,0.000210,-0.000003,-0.004482,0.000000,  38.234
     6.0,0.000245,0.000077,-0.003769,0.000000,  38.238
     6.2,0.000275,0.000136,-0.003200,0.000000,  38.236
     6.4,0.000316,0.000187,-0.002798,0.000000,  38.234
     6.6,0.000355,0.000220,-0.002428,0.000000,  38.233
     6.8,0.000388,0.000242,-0.002139,0.000000,  38.236
     7.0,0.000432,0.000248,-0.001962,0.000000,  38.233
     7.2,0.000486,0.000243,-0.001672,0.000082,  38.230
     7.4,0.000510,0.000256,-0.001422,0.000122,  38.229
     7.6,0.000535,0.000280,-0.001148,0.000148,  38.230
     7.8,0.000561,0.000307,-0.001010,0.000175,  38.230
     8.0,0.000576,0.000337,-0.000970,0.000201,  38.227
     8.2,0.000602,0.000381,-0.000994,0.000190,  38.231
     8.4,0.000619,0.000426,-0.000986,0.000204,  38.224
     8.6,0.000624,0.000452,-0.001002,0.000244,  38.230
     8.8,0.000641,0.000490,-0.001043,0.000233,  38.228
     9.0,0.000641,0.000517,-0.001010,0.000310,  38.228
     9.2,0.000644,0.000536,-0.000946,0.000350,  38.230
     9.4,0.000642,0.000558,-0.000856,0.000339,  38.226
     9.6,0.000650,0.000570,-0.000848,0.000390,  38.226
     9.8,0.000647,0.000577,-0.000872,0.000416,  38.226
    10.0,0.000641,0.000594,-0.000905,0.000405,  38.227
    10.2,0.000639,0.000599,-0.000873,0.000456,  38.225
    10.4,0.000634,0.000598,-0.000849,0.000469,  38.228
    10.6,0.000615,0.000609,-0.000808,0.000432,  38.222
    10.8,0.000590,0.000611,-0.000727,0.000483,  38.221
    11.0,0.000563,0.000609,-0.000638,0.000496,  38.222
    11.2,0.000538,0.000610,-0.000517,0.000458,  38.221
    11.4,0.000503,0.000605,-0.000501,0.000496,  38.222
    11.6,0.000482,0.000588,-0.000541,0.000509,  38.221
    11.8,0.000460,0.000573,-0.000598,0.000472,  38.226
    12.0,0.000439,0.000546,-0.000614,0.000458,  38.221
    12.2,0.000424,0.000519,-0.000606,0.000445,  38.221
    12.4,0.000416,0.000498,-0.000622,0.000432,  38.217
    12.6,0.000398,0.000471,-0.000615,0.000405,  38.213
    12.8,0.000379,0.000452,-0.000606,0.000392,  38.211
    13.0,0.000383,0.000436,-0.000574,0.000365,  38.212
    13.2,0.000380,0.000425,-0.000542,0.000339,  38.205
    13.4,0.000379,0.000411,-0.000825,0.000326,  38.203
    13.6,0.000394,0.000391,-0.001245,0.000275,  38.204
    13.8,0.000413,0.000382,-0.001834,0.000261,  38.206
    14.0,0.000438,0.000378,-0.002317,0.000286,  38.204
    14.2,0.000457,0.000371,-0.002839,0.000272,  38.203
    14.4,0.000476,0.000367,-0.003409,0.000246,  38.201
    14.6,0.000496,0.000376,-0.003393,0.000233,  38.198
    14.8,0.000504,0.000396,-0.003136,0.000219,  38.201
    15.0,0.000519,0.000417,-0.002630,0.000219,  38.200
    15.2,0.000539,0.000426,-0.002428,0.000206,  38.198
    15.4,0.000544,0.000442,-0.002235,0.000206,  38.194
    15.6,0.000564,0.000459,-0.002074,0.000219,  38.193
    15.8,0.000592,0.000466,-0.001888,0.000246,  38.198
    16.0,0.000597,0.000476,-0.001663,0.000272,  38.194
    16.2,0.000609,0.000488,-0.001469,0.000299,  38.190
    16.4,0.000623,0.000494,-0.001355,0.000326,  38.190
    16.6,0.000622,0.000506,-0.001275,0.000339,  38.196
    16.8,0.000628,0.000515,-0.001258,0.000352,  38.191
    17.0,0.000636,0.000528,-0.001234,0.000365,  38.188
    17.2,0.000634,0.000537,-0.001210,0.000392,  38.191
    17.4,0.000642,0.000544,-0.001234,0.000405,  38.193
    17.6,0.000649,0.000549,-0.001250,0.000419,  38.193
    17.8,0.000657,0.000556,-0.001266,0.000445,  38.195
    18.0,0.000660,0.000559,-0.001291,0.000445,  38.192
    18.2,0.000665,0.000570,-0.001331,0.000458,  38.196
    18.4,0.000669,0.000575,-0.001396,0.000472,  38.197
    18.6,0.000666,0.000577,-0.001453,0.000485,  38.198
    18.8,0.000657,0.000576,-0.001388,0.000472,  38.197
    19.0,0.000633,0.000576,-0.001299,0.000472,  38.195
    19.2,0.000615,0.000585,-0.001153,0.000461,  38.195
    19.4,0.000593,0.000592,-0.001089,0.000461,  38.197
    19.6,0.000562,0.000586,-0.001008,0.000461,  38.200
    19.8,0.000540,0.000584,-0.000968,0.000436,  38.200
    20.0,0.000518,0.000578,-0.000928,0.000461,  38.196
    20.2,0.000490,0.000560,-0.000888,0.000461,  38.197
    20.4,0.000474,0.000548,-0.000872,0.000474,  38.188
    20.6,0.000459,0.000525,-0.000864,0.000498,  38.192
    20.8,0.000443,0.000506,-0.000848,0.000498,  38.189
    21.0,0.000430,0.000485,-0.000888,0.000485,  38.189
    21.2,0.000421,0.000473,-0.000912,0.000458,  38.178
    21.4,0.000405,0.000458,-0.000904,0.000445,  38.177
    21.6,0.000405,0.000441,-0.000872,0.000432,  38.180
    21.8,0.000412,0.000429,-0.000839,0.000405,  38.183
    22.0,0.000429,0.000417,-0.000863,0.000392,  38.176
    22.2,0.000447,0.000400,-0.000904,0.000354,  38.176
    22.4,0.000469,0.000397,-0.000984,0.000328,  38.174
    22.6,0.000502,0.000395,-0.001008,0.000352,  38.175
    22.8,0.000528,0.000389,-0.001016,0.000352,  38.174
    23.0,0.000544,0.000400,-0.001016,0.000326,  38.174
    23.2,0.000556,0.000412,-0.001218,0.000299,  38.176
    23.4,0.000582,0.000421,-0.001485,0.000299,  38.172
    23.6,0.000598,0.000443,-0.001856,0.000272,  38.174
    23.8,0.000611,0.000457,-0.001847,0.000272,  38.170
    24.0,0.000615,0.000470,-0.001686,0.000286,  38.171
    24.2,0.000635,0.000490,-0.001371,0.000299,  38.172
    24.4,0.000649,0.000499,-0.001298,0.000326,  38.169
    24.6,0.000651,0.000512,-0.001273,0.000352,  38.173
    24.8,0.000671,0.000515,-0.001282,0.000365,  38.168
    25.0,0.000677,0.000529,-0.001225,0.000392,  38.169
    25.2,0.000676,0.000538,-0.001144,0.000419,  38.170
    25.4,0.000690,0.000555,-0.001047,0.000432,  38.169
    25.6,0.000693,0.000572,-0.001039,0.000432,  38.169
    25.8,0.000689,0.000584,-0.001063,0.000458,  38.174
    26.0,0.000696,0.000592,-0.001104,0.000485,  38.176
    26.2,0.000699,0.000598,-0.001112,0.000498,  38.175
    26.4,0.000692,0.000608,-0.001153,0.000525,  38.179
    26.6,0.000699,0.000616,-0.001177,0.000538,  38.182
    26.8,0.000699,0.000619,-0.001145,0.000525,  38.183
    27.0,0.000696,0.000618,-0.001104,0.000538,  38.182
    27.2,0.000679,0.000623,-0.001056,0.000538,  38.188
    27.4,0.000677,0.000620,-0.001047,0.000538,  38.183
    27.6,0.000662,0.000622,-0.001015,0.000551,  38.182
    27.8,0.000639,0.000622,-0.000999,0.000551,  38.186
    28.0,0.000621,0.000624,-0.000967,0.000551,  38.182
    28.2,0.000601,0.000616,-0.000919,0.000565,  38.183
    28.4,0.000571,0.000614,-0.000870,0.000565,  38.188
    28.6,0.000560,0.000607,-0.000814,0.000565,  38.183
    28.8,0.000543,0.000592,-0.000757,0.000565,  38.181
    29.0,0.000524,0.000573,-0.000701,0.000565,  38.179
    29.2,0.000505,0.000547,-0.000652,0.000565,  38.175
    29.4,0.000494,0.000530,-0.000644,0.000565,  38.170
    29.6,0.000485,0.000516,-0.000612,0.000538,  38.168
    29.8,0.000472,0.000493,-0.000628,0.000512,  38.170
    30.0,0.000470,0.000473,-0.000895,0.000498,  38.171
    30.2,0.000480,0.000461,-0.001258,0.000472,  38.168
    30.4,0.000492,0.000450,-0.001727,0.000445,  38.167
    30.6,0.000522,0.000446,-0.001799,0.000432,  38.166
    30.8,0.000544,0.000441,-0.001735,0.000381,  38.165
    31.0,0.000562,0.000434,-0.001517,0.000368,  38.164
    31.2,0.000592,0.000440,-0.001460,0.000392,  38.167
    31.4,0.000610,0.000447,-0.001387,0.000341,  38.166
    31.6,0.000626,0.000454,-0.001315,0.000328,  38.166
    31.8,0.000638,0.000461,-0.001524,0.000328,  38.168
    32.0,0.000654,0.000481,-0.001871,0.000328,  38.163
    32.2,0.000670,0.000511,-0.002354,0.000290,  38.168
    32.4,0.000679,0.000526,-0.002298,0.000315,  38.166
    32.6,0.000699,0.000539,-0.002056,0.000328,  38.171
    32.8,0.000708,0.000544,-0.001628,0.000317,  38.171
    33.0,0.000718,0.000552,-0.001507,0.000381,  38.170
    33.2,0.000738,0.000558,-0.001467,0.000408,  38.173
    33.4,0.000741,0.000571,-0.001467,0.000383,  38.170
    33.6,0.000740,0.000587,-0.001371,0.000434,  38.172
    33.8,0.000746,0.000596,-0.001282,0.000461,  38.172
    34.0,0.000749,0.000603,-0.001184,0.000450,  38.179
    34.2,0.000760,0.000618,-0.001193,0.000487,  38.176
    34.4,0.000763,0.000627,-0.001257,0.000501,  38.180
    34.6,0.000766,0.000635,-0.001411,0.000476,  38.185
    34.8,0.000766,0.000645,-0.001387,0.000527,  38.190
    35.0,0.000766,0.000656,-0.001314,0.000540,  38.184
    35.2,0.000769,0.000659,-0.001200,0.000516,  38.187
    35.4,0.000770,0.000665,-0.001200,0.000554,  38.188
    35.6,0.000764,0.000667,-0.001217,0.000567,  38.188
    35.8,0.000744,0.000663,-0.001274,0.000543,  38.190
    36.0,0.000733,0.000664,-0.001233,0.000567,  38.190
    36.2,0.000708,0.000665,-0.001145,0.000567,  38.193
    36.4,0.000685,0.000665,-0.001032,0.000567,  38.192
    36.6,0.000671,0.000678,-0.000943,0.000591,  38.193
    36.8,0.000646,0.000676,-0.000821,0.000591,  38.191
    37.0,0.000622,0.000658,-0.000708,0.000605,  38.195
    37.2,0.000608,0.000644,-0.000692,0.000605,  38.189
    37.4,0.000586,0.000633,-0.000725,0.000605,  38.184
    37.6,0.000563,0.000611,-0.000798,0.000605,  38.183
    37.8,0.000555,0.000590,-0.000903,0.000591,  38.182
    38.0,0.000539,0.000571,-0.001040,0.000578,  38.182
    38.2,0.000526,0.000554,-0.001194,0.000565,  38.182
    38.4,0.000527,0.000534,-0.001404,0.000538,  38.185
    38.6,0.000524,0.000517,-0.001396,0.000525,  38.186
    38.8,0.000529,0.000502,-0.001331,0.000474,  38.188
    39.0,0.000558,0.000498,-0.001218,0.000474,  38.188
    39.2,0.000591,0.000488,-0.001129,0.000485,  38.186
    39.4,0.000602,0.000479,-0.001072,0.000485,  38.187
    39.6,0.000628,0.000467,-0.000999,0.000472,  38.186
    39.8,0.000651,0.000480,-0.000991,0.000445,  38.186
    40.0,0.000667,0.000492,-0.001023,0.000432,  38.188
    40.2,0.000683,0.000513,-0.001064,0.000419,  38.188
    40.4,0.000706,0.000535,-0.001056,0.000419,  38.188
    40.6,0.000718,0.000551,-0.001039,0.000432,  38.189
    40.8,0.000731,0.000570,-0.000999,0.000432,  38.194
    41.0,0.000751,0.000587,-0.000934,0.000432,  38.193
    41.2,0.000763,0.000599,-0.000877,0.000458,  38.193
    41.4,0.000773,0.000617,-0.000828,0.000485,  38.193
    41.6,0.000779,0.000632,-0.000828,0.000498,  38.195
    41.8,0.000788,0.000642,-0.000853,0.000525,  38.193
    42.0,0.000794,0.000655,-0.000926,0.000501,  38.196
    42.2,0.000808,0.000662,-0.000990,0.000501,  38.195
    42.4,0.000815,0.000669,-0.001063,0.000527,  38.196
    42.6,0.000813,0.000680,-0.001153,0.000503,  38.197
    42.8,0.000824,0.000692,-0.001201,0.000554,  38.196
    43.0,0.000830,0.000699,-0.001217,0.000567,  38.202
    43.2,0.000833,0.000709,-0.001217,0.000556,  38.203
    43.4,0.000847,0.000715,-0.001152,0.000580,  38.202
    43.6,0.000847,0.000717,-0.001047,0.000594,  38.205
    43.8,0.000847,0.000727,-0.000917,0.000569,  38.203
    44.0,0.000833,0.000729,-0.000853,0.000607,  38.204
    44.2,0.000838,0.000732,-0.000821,0.000620,  38.208
    44.4,0.000828,0.000745,-0.000829,0.000583,  38.207
    44.6,0.000813,0.000757,-0.000781,0.000620,  38.208
    44.8,0.000791,0.000758,-0.000732,0.000633,  38.206
    45.0,0.000783,0.000760,-0.000676,0.000620,  38.210
    45.2,0.000767,0.000754,-0.000660,0.000658,  38.203
    45.4,0.000742,0.000743,-0.000652,0.000671,  38.202
    45.6,0.000734,0.000739,-0.000677,0.000671,  38.204
    45.8,0.000725,0.000725,-0.000628,0.000671,  38.209
    46.0,0.000705,0.000707,-0.000580,0.000684,  38.207
    46.2,0.000695,0.000698,-0.000499,0.000633,  38.205
    46.4,0.000686,0.000684,-0.000409,0.000607,  38.205
    46.6,0.000684,0.000668,-0.000409,0.000607,  38.205
    46.8,0.000683,0.000660,-0.000442,0.000556,  38.205
    47.0,0.000700,0.000651,-0.000483,0.000567,  38.205
    47.2,0.000723,0.000638,-0.000515,0.000554,  38.206
    47.4,0.000734,0.000639,-0.000524,0.000540,  38.209
    47.6,0.000764,0.000639,-0.000524,0.000527,  38.220
    47.8,0.000796,0.000634,-0.000523,0.000514,  38.217
    48.0,0.000810,0.000642,-0.000499,0.000476,  38.219
    48.2,0.000826,0.000649,-0.000458,0.000501,  38.215
    48.4,0.000846,0.000663,-0.000483,0.000487,  38.214
    48.6,0.000854,0.000688,-0.000588,0.000501,  38.220
    48.8,0.000874,0.000724,-0.000709,0.000450,  38.217
    49.0,0.000894,0.000743,-0.000742,0.000474,  38.222
    49.2,0.000899,0.000754,-0.000766,0.000487,  38.223
    49.4,0.000916,0.000774,-0.000757,0.000463,  38.224
    49.6,0.000929,0.000786,-0.000765,0.000514,  38.222
    49.8,0.000930,0.000787,-0.000773,0.000540,  38.221
    50.0,0.000941,0.000805,-0.000789,0.000529,  38.221
    50.2,0.000941,0.000809,-0.000813,0.000580,  38.222
    50.4,0.000937,0.000824,-0.000813,0.000607,  38.226
    50.6,0.000950,0.000837,-0.000846,0.000596,  38.221
    50.8,0.000947,0.000847,-0.000829,0.000633,  38.227
    51.0,0.000947,0.000857,-0.000789,0.000660,  38.227
    51.2,0.000958,0.000862,-0.000740,0.000636,  38.229
    51.4,0.000962,0.000864,-0.000716,0.000673,  38.222
    51.6,0.000959,0.000872,-0.000708,0.000700,  38.228
    51.8,0.000967,0.000870,-0.000716,0.000676,  38.225
    52.0,0.000956,0.000868,-0.000684,0.000713,  38.227
    52.2,0.000956,0.000868,-0.000667,0.000727,  38.230
    52.4,0.000947,0.000868,-0.000651,0.000689,  38.224
    52.6,0.000934,0.000868,-0.000659,0.000727,  38.224
    52.8,0.000919,0.000860,-0.000684,0.000740,  38.231
    53.0,0.000900,0.000859,-0.000757,0.000702,  38.225
    53.2,0.000875,0.000857,-0.000773,0.000740,  38.228
    53.4,0.000844,0.000847,-0.000781,0.000753,  38.226
    53.6,0.000823,0.000845,-0.000789,0.000702,  38.226
    53.8,0.000803,0.000843,-0.000975,0.000740,  38.224
    54.0,0.000784,0.000826,-0.001226,0.000753,  38.222
    54.2,0.000765,0.000806,-0.001573,0.000702,  38.225
    54.4,0.000755,0.000788,-0.001525,0.000740,  38.221
    54.6,0.000755,0.000763,-0.001315,0.000740,  38.222
    54.8,0.000739,0.000747,-0.000959,0.000676,  38.219
    55.0,0.000723,0.000728,-0.000854,0.000687,  38.221
    55.2,0.000715,0.000709,-0.000806,0.000673,  38.218
    55.4,0.000710,0.000695,-0.000782,0.000609,  38.218
    55.6,0.000714,0.000686,-0.000822,0.000620,  38.217
    55.8,0.000723,0.000668,-0.000863,0.000569,  38.217
    56.0,0.000735,0.000654,-0.000959,0.000543,  38.219
    56.2,0.000754,0.000642,-0.001089,0.000516,  38.214
    56.4,0.000776,0.000637,-0.001097,0.000503,  38.216
    56.6,0.000788,0.000637,-0.001080,0.000465,  38.216
    56.8,0.000801,0.000645,-0.001016,0.000503,  38.213
    57.0,0.000818,0.000652,-0.001032,0.000490,  38.214
    57.2,0.000826,0.000662,-0.001088,0.000452,  38.209
    57.4,0.000838,0.000684,-0.001161,0.000452,  38.210
    57.6,0.000855,0.000696,-0.001120,0.000463,  38.216
    57.8,0.000857,0.000706,-0.001015,0.000452,  38.213
    58.0,0.000867,0.000715,-0.000869,0.000503,  38.212
    58.2,0.000880,0.000723,-0.000812,0.000516,  38.214
    58.4,0.000879,0.000727,-0.000788,0.000505,  38.212
    58.6,0.000885,0.000732,-0.000772,0.000569,  38.211
    58.8,0.000896,0.000746,-0.000796,0.000583,  38.213
    59.0,0.000891,0.000756,-0.000861,0.000572,  38.210
    59.2,0.000898,0.000763,-0.000974,0.000609,  38.212
    59.4,0.000908,0.000775,-0.001168,0.000623,  38.209
    59.6,0.000907,0.000784,-0.001410,0.000598,  38.207
    59.8,0.000921,0.000794,-0.001725,0.000649,  38.208
    60.0,0.000932,0.000799,-0.001773,0.000649,  38.209
    60.2,0.000924,0.000807,-0.001741,0.000625,  38.204
    60.4,0.000928,0.000807,-0.001637,0.000662,  38.201
    60.6,0.000930,0.000805,-0.001508,0.000676,  38.203
    60.8,0.000920,0.000812,-0.001338,0.000651,  38.203
    61.0,0.000917,0.000819,-0.001160,0.000689,  38.201
    61.2,0.000909,0.000825,-0.001055,0.000689,  38.205
    61.4,0.000897,0.000825,-0.000958,0.000665,  38.203
    61.6,0.000870,0.000826,-0.000910,0.000702,  38.201
    61.8,0.000845,0.000836,-0.000902,0.000702,  38.202
    62.0,0.000828,0.000833,-0.000918,0.000678,  38.198
    62.2,0.000809,0.000825,-0.000999,0.000716,  38.196
    62.4,0.000787,0.000812,-0.000926,0.000716,  38.199
    62.6,0.000779,0.000802,-0.000805,0.000691,  38.200
    62.8,0.000767,0.000785,-0.000618,0.000716,  38.200
    63.0,0.000744,0.000764,-0.000627,0.000702,  38.198
    63.2,0.000736,0.000742,-0.000732,0.000665,  38.196
    63.4,0.000723,0.000727,-0.000886,0.000676,  38.194
    63.6,0.000714,0.000714,-0.000870,0.000649,  38.198
    63.8,0.000709,0.000696,-0.000838,0.000598,  38.198
    64.0,0.000715,0.000684,-0.000749,0.000623,  38.199
    64.2,0.000728,0.000672,-0.000708,0.000596,  38.199
    64.4,0.000753,0.000662,-0.000659,0.000545,  38.199
    64.6,0.000771,0.000653,-0.000627,0.000569,  38.200
    64.8,0.000787,0.000638,-0.000610,0.000543,  38.202
    65.0,0.000807,0.000635,-0.000675,0.000529,  38.202
    65.2,0.000827,0.000645,-0.000788,0.000492,  38.201
    65.4,0.000844,0.000659,-0.000933,0.000529,  38.201
    65.6,0.000862,0.000668,-0.000974,0.000516,  38.201
    65.8,0.000875,0.000680,-0.001022,0.000479,  38.200
    66.0,0.000895,0.000700,-0.001030,0.000465,  38.199
    66.2,0.000903,0.000718,-0.001022,0.000503,  38.204
    66.4,0.000908,0.000728,-0.001014,0.000479,  38.209
    66.6,0.000922,0.000742,-0.000981,0.000543,  38.213
    66.8,0.000931,0.000751,-0.001135,0.000569,  38.213
    67.0,0.000933,0.000764,-0.001369,0.000545,  38.216
    67.2,0.000936,0.000771,-0.001700,0.000596,  38.213
    67.4,0.000939,0.000784,-0.001716,0.000609,  38.214
    67.6,0.000938,0.000781,-0.001595,0.000585,  38.211
    67.8,0.000944,0.000800,-0.001369,0.000649,  38.214
    68.0,0.000958,0.000800,-0.001272,0.000662,  38.214
    68.2,0.000953,0.000807,-0.001216,0.000651,  38.213
    68.4,0.000961,0.000812,-0.001167,0.000702,  38.214
    68.6,0.000979,0.000821,-0.001119,0.000702,  38.212
    68.8,0.000972,0.000832,-0.001119,0.000678,  38.211
    69.0,0.000973,0.000840,-0.001167,0.000716,  38.215
    69.2,0.000974,0.000845,-0.001135,0.000729,  38.215
    69.4,0.000972,0.000852,-0.001119,0.000705,  38.213
    69.6,0.000952,0.000849,-0.001103,0.000742,  38.212
    69.8,0.000947,0.000843,-0.001038,0.000742,  38.215
    70.0,0.000918,0.000842,-0.000941,0.000718,  38.216
    70.2,0.000892,0.000840,-0.000852,0.000769,  38.215
    70.4,0.000877,0.000843,-0.000819,0.000755,  38.214
    70.6,0.000849,0.000841,-0.000795,0.000718,  38.214
    70.8,0.000827,0.000830,-0.000803,0.000769,  38.215
    71.0,0.000809,0.000816,-0.000755,0.000755,  38.216
    71.2,0.000798,0.000805,-0.000698,0.000705,  38.214
    71.4,0.000782,0.000786,-0.000617,0.000742,  38.218
    71.6,0.000762,0.000766,-0.000642,0.000729,  38.215
    71.8,0.000763,0.000742,-0.000699,0.000678,  38.214
    72.0,0.000760,0.000725,-0.000820,0.000689,  38.211
    72.2,0.000746,0.000711,-0.000861,0.000676,  38.214
    72.4,0.000751,0.000693,-0.000861,0.000638,  38.211
    72.6,0.000763,0.000681,-0.000860,0.000662,  38.211
    72.8,0.000771,0.000675,-0.000820,0.000636,  38.217
    73.0,0.000801,0.000662,-0.000828,0.000585,  38.218
    73.2,0.000816,0.000650,-0.000836,0.000572,  38.208
    73.4,0.000824,0.000648,-0.000884,0.000545,  38.211
    73.6,0.000844,0.000652,-0.000908,0.000532,  38.213
    73.8,0.000860,0.000664,-0.000917,0.000532,  38.210
    74.0,0.000868,0.000692,-0.000949,0.000519,  38.214
    74.2,0.000888,0.000701,-0.000997,0.000519,  38.213
    74.4,0.000901,0.000716,-0.001062,0.000532,  38.213
    74.6,0.000916,0.000737,-0.001159,0.000532,  38.214
    74.8,0.000930,0.000749,-0.001175,0.000558,  38.213
    75.0,0.000939,0.000761,-0.001191,0.000547,  38.213
    75.2,0.000949,0.000782,-0.001175,0.000574,  38.210
    75.4,0.000962,0.000794,-0.001102,0.000625,  38.210
    75.6,0.000969,0.000800,-0.001045,0.000614,  38.211
    75.8,0.000967,0.000818,-0.000956,0.000627,  38.210
    76.0,0.000978,0.000825,-0.000940,0.000651,  38.213
    76.2,0.000984,0.000829,-0.000997,0.000627,  38.212
    76.4,0.000984,0.000839,-0.001070,0.000641,  38.209
    76.6,0.000992,0.000842,-0.001304,0.000691,  38.209
    76.8,0.001003,0.000847,-0.001659,0.000667,  38.214
    77.0,0.001006,0.000852,-0.002103,0.000680,  38.209
    77.2,0.001003,0.000854,-0.002151,0.000731,  38.210
    77.4,0.001004,0.000859,-0.002030,0.000720,  38.210
    77.6,0.001001,0.000858,-0.001772,0.000720,  38.211
    77.8,0.000981,0.000871,-0.001627,0.000758,  38.213
    78.0,0.000971,0.000876,-0.001465,0.000734,  38.207
    78.2,0.000956,0.000870,-0.001263,0.000720,  38.212
    78.4,0.000943,0.000873,-0.001199,0.000758,  38.214
    78.6,0.000929,0.000876,-0.001223,0.000734,  38.212
    78.8,0.000910,0.000865,-0.001289,0.000734,  38.214
    79.0,0.000892,0.000866,-0.001183,0.000771,  38.213
    79.2,0.000867,0.000859,-0.001038,0.000747,  38.212
    79.4,0.000840,0.000836,-0.000844,0.000747,  38.211
    79.6,0.000825,0.000823,-0.000755,0.000771,  38.209
    79.8,0.000813,0.000806,-0.000674,0.000734,  38.206
    80.0,0.000790,0.000786,-0.000625,0.000720,  38.206
    80.2,0.000778,0.000773,-0.000577,0.000731,  38.209
    80.4,0.000773,0.000753,-0.000528,0.000680,  38.204
    80.6,0.000765,0.000742,-0.000463,0.000667,  38.205
    80.8,0.000768,0.000729,-0.000472,0.000678,  38.207
    81.0,0.000789,0.000717,-0.000553,0.000627,  38.207
    81.2,0.000800,0.000701,-0.000674,0.000614,  38.203
    81.4,0.000822,0.000688,-0.000699,0.000625,  38.201
    81.6,0.000854,0.000683,-0.000714,0.000587,  38.200
    81.8,0.000865,0.000683,-0.000682,0.000574,  38.202
    82.0,0.000878,0.000687,-0.000649,0.000585,  38.200
    82.2,0.000895,0.000691,-0.000674,0.000572,  38.203
    82.4,0.000903,0.000710,-0.000746,0.000572,  38.202
    82.6,0.000921,0.000729,-0.000827,0.000572,  38.203
    82.8,0.000945,0.000740,-0.000860,0.000558,  38.206
    83.0,0.000950,0.000751,-0.000868,0.000572,  38.202
    83.2,0.000966,0.000766,-0.000876,0.000585,  38.200
    83.4,0.000983,0.000783,-0.000900,0.000598,  38.203
    83.6,0.000985,0.000797,-0.000924,0.000587,  38.201
    83.8,0.001002,0.000814,-0.000933,0.000614,  38.202
    84.0,0.001016,0.000831,-0.000924,0.000665,  38.198
    84.2,0.001025,0.000843,-0.000917,0.000654,  38.201
    84.4,0.001033,0.000852,-0.000900,0.000667,  38.201
    84.6,0.001052,0.000865,-0.000892,0.000718,  38.202
    84.8,0.001059,0.000870,-0.000900,0.000707,  38.202
    85.0,0.001050,0.000878,-0.000900,0.000720,  38.203
    85.2,0.001053,0.000879,-0.000917,0.000758,  38.203
    85.4,0.001056,0.000889,-0.000965,0.000734,  38.206
    85.6,0.001052,0.000896,-0.001014,0.000747,  38.207
    85.8,0.001059,0.000898,-0.000957,0.000760,  38.207
    86.0,0.001056,0.000900,-0.000900,0.000736,  38.211
    86.2,0.001047,0.000903,-0.000779,0.000773,  38.210
    86.4,0.001039,0.000911,-0.000820,0.000773,  38.208
    86.6,0.001026,0.000912,-0.000965,0.000749,  38.210
    86.8,0.001004,0.000920,-0.001160,0.000787,  38.213
    87.0,0.000979,0.000927,-0.001386,0.000787,  38.209
    87.2,0.000961,0.000922,-0.001653,0.000763,  38.209
    87.4,0.000941,0.000918,-0.001984,0.000813,  38.212
    87.6,0.000932,0.000909,-0.001879,0.000800,  38.211
    87.8,0.000920,0.000892,-0.001581,0.000763,  38.211
    88.0,0.000907,0.000879,-0.001104,0.000813,  38.212
    88.2,0.000892,0.000868,-0.000918,0.000800,  38.212
    88.4,0.000881,0.000854,-0.000796,0.000749,  38.210
    88.6,0.000868,0.000834,-0.000724,0.000787,  38.208
    88.8,0.000859,0.000822,-0.000748,0.000760,  38.211
    89.0,0.000860,0.000805,-0.000894,0.000709,  38.215
    89.2,0.000866,0.000791,-0.001120,0.000720,  38.212
    89.4,0.000882,0.000783,-0.001088,0.000718,  38.210
    89.6,0.000901,0.000773,-0.000999,0.000667,  38.210
    89.8,0.000919,0.000758,-0.000829,0.000654,  38.212
    90.0,0.000938,0.000759,-0.000764,0.000665,  38.211
    90.2,0.000954,0.000766,-0.000708,0.000627,  38.212
    90.4,0.000977,0.000764,-0.000675,0.000614,  38.212
    90.6,0.000989,0.000779,-0.000643,0.000651,  38.216
    90.8,0.000999,0.000790,-0.000635,0.000627,  38.213
    91.0,0.001019,0.000802,-0.000667,0.000614,  38.216
    91.2,0.001031,0.000818,-0.000699,0.000638,  38.213
    91.4,0.001036,0.000830,-0.000740,0.000651,  38.212
    91.6,0.001046,0.000843,-0.000813,0.000665,  38.214
    91.8,0.001055,0.000859,-0.000886,0.000691,  38.216
    92.0,0.001072,0.000871,-0.000853,0.000705,  38.218
    92.2,0.001074,0.000883,-0.000780,0.000731,  38.219
    92.4,0.001077,0.000893,-0.000650,0.000745,  38.219
    92.6,0.001088,0.000900,-0.000609,0.000758,  38.218
    92.8,0.001086,0.000911,-0.000601,0.000734,  38.225
    93.0,0.001089,0.000916,-0.000609,0.000747,  38.219
    93.2,0.001100,0.000927,-0.000577,0.000811,  38.217
    93.4,0.001096,0.000925,-0.000520,0.000787,  38.219
    93.6,0.001103,0.000939,-0.000472,0.000800,  38.220
    93.8,0.001111,0.000940,-0.000472,0.000838,  38.223
    94.0,0.001103,0.000942,-0.000480,0.000813,  38.227
    94.2,0.001111,0.000944,-0.000520,0.000840,  38.224
    94.4,0.001115,0.000944,-0.000545,0.000864,  38.222
    94.6,0.001095,0.000948,-0.000610,0.000840,  38.226
    94.8,0.001083,0.000947,-0.000658,0.000853,  38.227
    95.0,0.001071,0.000949,-0.000836,0.000891,  38.227
    95.2,0.001048,0.000948,-0.001103,0.000867,  38.229
    95.4,0.001030,0.000950,-0.001443,0.000867,  38.227
    95.6,0.001012,0.000958,-0.001548,0.000891,  38.229
    95.8,0.000997,0.000945,-0.001572,0.000867,  38.228
    96.0,0.000981,0.000939,-0.001517,0.000867,  38.228
    96.2,0.000973,0.000928,-0.001412,0.000891,  38.228
    96.4,0.000968,0.000913,-0.001210,0.000867,  38.231
    96.6,0.000955,0.000902,-0.000943,0.000867,  38.230
    96.8,0.000935,0.000886,-0.000797,0.000891,  38.232
    97.0,0.000927,0.000871,-0.000684,0.000853,  38.229
    97.2,0.000921,0.000857,-0.000571,0.000840,  38.232
    97.4,0.000904,0.000842,-0.000481,0.000838,  38.231
    97.6,0.000909,0.000830,-0.000432,0.000787,  38.234
    97.8,0.000918,0.000816,-0.000383,0.000773,  38.234
    98.0,0.000926,0.000807,-0.000318,0.000784,  38.233
    98.2,0.000955,0.000800,-0.000277,0.000734,  38.234
    98.4,0.000971,0.000787,-0.000253,0.000707,  38.236
    98.6,0.000976,0.000788,-0.000229,0.000731,  38.234
    98.8,0.000999,0.000793,-0.000261,0.000694,  38.237
    99.0,0.001015,0.000800,-0.000326,0.000680,  38.241
    99.2,0.001017,0.000815,-0.000415,0.000705,  38.238
    99.4,0.001033,0.000831,-0.000593,0.000705,  38.239
    99.6,0.001046,0.000839,-0.000844,0.000705,  38.245
    99.8,0.001055,0.000858,-0.001151,0.000705,  38.243
   100.0,0.001083,0.000873,-0.001183,0.000705,  38.240
   100.2,0.001095,0.000880,-0.001126,0.000718,  38.244
   100.4,0.001094,0.000894,-0.000965,0.000731,  38.247
   100.6,0.001111,0.000903,-0.000876,0.000771,  38.243
   100.8,0.001120,0.000920,-0.000786,0.000747,  38.246
   101.0,0.001124,0.000932,-0.000673,0.000760,  38.244
   101.2,0.001134,0.000939,-0.000625,0.000811,  38.252
   101.4,0.001145,0.000947,-0.000624,0.000787,  38.247
   101.6,0.001148,0.000955,-0.000624,0.000800,  38.253
   101.8,0.001145,0.000962,-0.000608,0.000851,  38.247
   102.0,0.001156,0.000958,-0.000591,0.000840,  38.251
   102.2,0.001162,0.000971,-0.000575,0.000853,  38.247
   102.4,0.001157,0.000967,-0.000551,0.000891,  38.247
   102.6,0.001161,0.000966,-0.000551,0.000867,  38.246
   102.8,0.001154,0.000968,-0.000527,0.000880,  38.249
   103.0,0.001148,0.000980,-0.000519,0.000917,  38.249
   103.2,0.001139,0.000980,-0.000544,0.000893,  38.251
   103.4,0.001117,0.000980,-0.000576,0.000893,  38.249
   103.6,0.001092,0.000986,-0.000527,0.000917,  38.247
   103.8,0.001073,0.000986,-0.000430,0.000893,  38.250
   104.0,0.001061,0.000988,-0.000284,0.000893,  38.251
   104.2,0.001037,0.000992,-0.000219,0.000880,  38.249
   104.4,0.001029,0.000981,-0.000163,0.000856,  38.254
   104.6,0.001014,0.000974,-0.000122,0.000893,  38.255
   104.8,0.000998,0.000954,-0.000074,0.000893,  38.256
   105.0,0.000979,0.000934,-0.000058,0.000856,  38.261
   105.2,0.000967,0.000923,-0.000074,0.000893,  38.257
   105.4,0.000951,0.000901,-0.000058,0.000880,  38.265
   105.6,0.000939,0.000885,-0.000074,0.000842,  38.274
   105.8,0.000933,0.000875,-0.000082,0.000829,  38.271
   106.0,0.000933,0.000865,-0.000333,0.000789,  38.274
   106.2,0.000936,0.000848,-0.000730,0.000738,  38.276
   106.4,0.000945,0.000840,-0.001240,0.000749,  38.280
   106.6,0.000964,0.000827,-0.001255,0.000747,  38.282
   106.8,0.000999,0.000811,-0.001069,0.000709,  38.282
   107.0,0.001008,0.000803,-0.000697,0.000734,  38.285
   107.2,0.001028,0.000802,-0.000608,0.000734,  38.285
   107.4,0.001044,0.000812,-0.000559,0.000696,  38.284
   107.6,0.001053,0.000826,-0.000559,0.000720,  38.285
   107.8,0.001069,0.000852,-0.000608,0.000694,  38.281
   108.0,0.001086,0.000869,-0.000616,0.000669,  38.287
   108.2,0.001091,0.000890,-0.000681,0.000720,  38.285
   108.4,0.001101,0.000904,-0.000778,0.000734,  38.288
   108.6,0.001118,0.000913,-0.000769,0.000747,  38.291
   108.8,0.001123,0.000919,-0.000713,0.000773,  38.288
   109.0,0.001136,0.000932,-0.000656,0.000749,  38.296
   109.2,0.001150,0.000947,-0.000680,0.000800,  38.288
   109.4,0.001152,0.000952,-0.000721,0.000776,  38.294
   109.6,0.001166,0.000963,-0.000802,0.000776,  38.297
   109.8,0.001169,0.000968,-0.000810,0.000789,  38.297
   110.0,0.001172,0.000975,-0.000818,0.000765,  38.296
   110.2,0.001178,0.000980,-0.000786,0.000791,  38.294
   110.4,0.001183,0.000979,-0.000746,0.000842,  38.290
   110.6,0.001186,0.000988,-0.000697,0.000831,  38.292
   110.8,0.001189,0.000998,-0.000632,0.000845,  38.290
   111.0,0.001197,0.001003,-0.000567,0.000882,  38.292
   111.2,0.001193,0.001011,-0.000502,0.000858,  38.288
   111.4,0.001180,0.001008,-0.000453,0.000871,  38.288
   111.6,0.001167,0.001015,-0.000437,0.000896,  38.288
   111.8,0.001147,0.001014,-0.000429,0.000858,  38.289
   112.0,0.001128,0.001016,-0.000429,0.000858,  38.290
   112.2,0.001103,0.001021,-0.000429,0.000896,  38.288
   112.4,0.001080,0.001012,-0.000414,0.000858,  38.289
   112.6,0.001069,0.001010,-0.000398,0.000858,  38.287
   112.8,0.001047,0.001010,-0.000406,0.000896,  38.291
   113.0,0.001035,0.001003,-0.000415,0.000858,  38.291
   113.2,0.001015,0.000984,-0.000447,0.000858,  38.291
   113.4,0.001013,0.000967,-0.000431,0.000896,  38.299
   113.6,0.001000,0.000956,-0.000407,0.000845,  38.302
   113.8,0.000991,0.000934,-0.000382,0.000831,  38.304
   114.0,0.000989,0.000913,-0.000358,0.000856,  38.308
   114.2,0.000980,0.000895,-0.000342,0.000805,  38.305
   114.4,0.000980,0.000885,-0.000302,0.000778,  38.302
   114.6,0.000986,0.000878,-0.000285,0.000802,  38.306
   114.8,0.001000,0.000872,-0.000269,0.000765,  38.303
   115.0,0.001015,0.000871,-0.000269,0.000738,  38.305
   115.2,0.001034,0.000868,-0.000261,0.000749,  38.307
   115.4,0.001059,0.000864,-0.000269,0.000698,  38.308
   115.6,0.001075,0.000864,-0.000261,0.000723,  38.308
   115.8,0.001092,0.000866,-0.000220,0.000747,  38.309
   116.0,0.001109,0.000872,-0.000155,0.000709,  38.309
   116.2,0.001124,0.000892,-0.000090,0.000734,  38.302
   116.4,0.001140,0.000910,-0.000163,0.000734,  38.310
   116.6,0.001155,0.000919,-0.000285,0.000723,  38.309
   116.8,0.001174,0.000937,-0.000471,0.000773,  38.311
   117.0,0.001187,0.000944,-0.000722,0.000787,  38.312
   117.2,0.001196,0.000955,-0.000690,0.000776,  38.311
   117.4,0.001208,0.000970,-0.000601,0.000827,  38.311
   117.6,0.001221,0.000984,-0.000440,0.000840,  38.311
   117.8,0.001227,0.000993,-0.000310,0.000853,  38.311
   118.0,0.001241,0.001005,-0.000140,0.000842,  38.309
   118.2,0.001250,0.001017,0.000038,0.000842,  38.307
   118.4,0.001254,0.001024,-0.000335,0.000842,  38.310
   118.6,0.001270,0.001036,-0.000950,0.000818,  38.310
   118.8,0.001274,0.001049,-0.001846,0.000856,  38.308
   119.0,0.001280,0.001054,-0.001959,0.000882,  38.307
   119.2,0.001282,0.001054,-0.001855,0.000858,  38.304
   119.4,0.001288,0.001065,-0.001476,0.000885,  38.299
   119.6,0.001299,0.001067,-0.001517,0.000909,  38.301
   119.8,0.001288,0.001072,-0.001662,0.000885,  38.304
   120.0,0.001292,0.001079,-0.001880,0.000885,  38.301
   120.2,0.001284,0.001084,-0.001630,0.000922,  38.297
   120.4,0.001264,0.001085,-0.001195,0.000898,  38.297
   120.6,0.001256,0.001093,-0.000532,0.000885,  38.300
   120.8,0.001234,0.001100,-0.000168,0.000922,  38.296
   121.0,0.001214,0.001100,0.000124,0.000898,  38.300
   121.2,0.001209,0.001095,0.000383,0.000898,  38.296
   121.4,0.001194,0.001096,0.000366,0.000949,  38.296
   121.6,0.001177,0.001084,0.000187,0.000925,  38.302
   121.8,0.001175,0.001067,-0.000154,0.000949,  38.305
   122.0,0.001162,0.001048,0.000008,0.000986,  38.310
   122.2,0.001146,0.001028,0.000308,0.000949,  38.308
   122.4,0.001147,0.001016,0.000779,0.000935,  38.311
   122.6,0.001148,0.001004,0.000941,0.000909,  38.310
   122.8,0.001159,0.000995,0.001013,0.000858,  38.309
   123.0,0.001164,0.000988,0.001028,0.000845,  38.308
   123.2,0.001190,0.000979,0.001190,0.000856,  38.305
   123.4,0.001215,0.000966,0.001369,0.000805,  38.307
   123.6,0.001240,0.000959,0.001571,0.000778,  38.308
   123.8,0.001268,0.000951,0.001725,0.000802,  38.304
   124.0,0.001299,0.000956,0.001896,0.000765,  38.308
   124.2,0.001317,0.000970,0.002025,0.000752,  38.306
   124.4,0.001346,0.000990,0.002196,0.000763,  38.307
   124.6,0.001365,0.001010,0.002399,0.000725,  38.307
   124.8,0.001385,0.001026,0.002593,0.000738,  38.306
   125.0,0.001418,0.001052,0.002845,0.000763,  38.307
   125.2,0.001446,0.001072,0.003121,0.000738,  38.309
   125.4,0.001470,0.001081,0.003414,0.000765,  38.303
   125.6,0.001506,0.001096,0.003666,0.000791,  38.308
   125.8,0.001534,0.001115,0.003919,0.000818,  38.306
   126.0,0.001554,0.001131,0.004147,0.000831,  38.304
   126.2,0.001584,0.001156,0.004334,0.000845,  38.300
   126.4,0.001606,0.001178,0.004531,0.000871,  38.303
   126.6,0.001627,0.001194,0.004686,0.000885,  38.302
   126.8,0.001646,0.001219,0.004817,0.000885,  38.299
   127.0,0.001666,0.001238,0.004989,0.000898,  38.298
   127.2,0.001685,0.001252,0.005177,0.000898,  38.298
   127.4,0.001707,0.001274,0.005365,0.000911,  38.295
   127.6,0.001730,0.001289,0.005627,0.000911,  38.296
   127.8,0.001752,0.001298,0.005938,0.000925,  38.293
   128.0,0.001780,0.001309,0.006315,0.000887,  38.296
   128.2,0.001808,0.001321,0.006676,0.000938,  38.293
   128.4,0.001821,0.001335,0.007045,0.000914,  38.293
   128.6,0.001831,0.001345,0.007415,0.000927,  38.292
   128.8,0.001839,0.001362,0.007710,0.000964,  38.294
   129.0,0.001842,0.001379,0.007981,0.000978,  38.292
   129.2,0.001839,0.001396,0.008194,0.000991,  38.292
   129.4,0.001830,0.001405,0.008407,0.000978,  38.296
   129.6,0.001837,0.001413,0.008603,0.000978,  38.290
   129.8,0.001840,0.001418,0.008741,0.000978,  38.295
   130.0,0.001845,0.001413,0.008997,0.000978,  38.295
   130.2,0.001848,0.001414,0.009302,0.000978,  38.296
   130.4,0.001857,0.001408,0.009625,0.000978,  38.297
   130.6,0.001863,0.001404,0.009907,0.000964,  38.301
   130.8,0.001865,0.001394,0.010179,0.000951,  38.297
   131.0,0.001875,0.001392,0.010427,0.000938,  38.297
   131.2,0.001892,0.001387,0.010783,0.000911,  38.301
   131.4,0.001917,0.001382,0.011173,0.000898,  38.297
   131.6,0.001951,0.001385,0.011570,0.000871,  38.295
   131.8,0.001992,0.001387,0.011583,0.000858,  38.299
   132.0,0.002039,0.001390,0.011411,0.000845,  38.297
   132.2,0.002081,0.001392,0.011055,0.000831,  38.296
   132.4,0.002131,0.001400,0.011517,0.000818,  38.302
   132.6,0.002191,0.001416,0.012298,0.000805,  38.301
   132.8,0.002247,0.001443,0.013415,0.000791,  38.302
   133.0,0.002311,0.001479,0.014232,0.000791,  38.299
   133.2,0.002378,0.001511,0.015050,0.000805,  38.299
   133.4,0.002442,0.001551,0.015861,0.000805,  38.300
   133.6,0.002522,0.001593,0.016927,0.000805,  38.302
   133.8,0.002597,0.001629,0.018131,0.000831,  38.301
   134.0,0.002668,0.001666,0.019441,0.000845,  38.302
   134.2,0.002750,0.001704,0.020329,0.000858,  38.299
   134.4,0.002826,0.001751,0.021099,0.000885,  38.298
   134.6,0.002884,0.001792,0.021724,0.000898,  38.298
   134.8,0.002948,0.001833,0.022311,0.000898,  38.301
   135.0,0.002998,0.001884,0.022788,0.000925,  38.303
   135.2,0.003044,0.001934,0.023214,0.000938,  38.299
   135.4,0.003098,0.001983,0.023505,0.000951,  38.299
   135.6,0.003147,0.002023,0.024017,0.000964,  38.302
   135.8,0.003202,0.002068,0.024553,0.000978,  38.298
   136.0,0.003269,0.002108,0.025133,0.000954,  38.300
   136.2,0.003342,0.002142,0.026006,0.000991,  38.299
   136.4,0.003410,0.002167,0.027027,0.000967,  38.298
   136.6,0.003493,0.002188,0.028204,0.000954,  38.297
   136.8,0.003572,0.002222,0.029152,0.001004,  38.298
   137.0,0.003628,0.002259,0.030042,0.001018,  38.296
   137.2,0.003669,0.002294,0.030908,0.001018,  38.293
   137.4,0.003705,0.002337,0.031767,0.001018,  38.295
   137.6,0.003739,0.002386,0.032568,0.001031,  38.294
   137.8,0.003766,0.002434,0.033363,0.001031,  38.293
   138.0,0.003799,0.002466,0.034041,0.001018,  38.290
   138.2,0.003830,0.002487,0.034631,0.001031,  38.292
   138.4,0.003857,0.002496,0.035125,0.001031,  38.291
   138.6,0.003899,0.002507,0.035808,0.001018,  38.295
   138.8,0.003937,0.002518,0.036570,0.001031,  38.289
   139.0,0.003978,0.002527,0.037335,0.001018,  38.293
   139.2,0.004037,0.002544,0.038076,0.001004,  38.293
   139.4,0.004094,0.002558,0.038808,0.000967,  38.290
   139.6,0.004143,0.002570,0.039542,0.000940,  38.290
   139.8,0.004213,0.002583,0.040560,0.000914,  38.289
   140.0,0.004285,0.002603,0.041698,0.000900,  38.288
   140.2,0.004367,0.002622,0.043004,0.000887,  38.291
   140.4,0.004452,0.002652,0.044261,0.000898,  38.286
   140.6,0.004543,0.002682,0.045539,0.000922,  38.290
   140.8,0.004650,0.002711,0.046865,0.000909,  38.285
   141.0,0.004774,0.002739,0.048423,0.000858,  38.285
   141.2,0.004900,0.002794,0.050117,0.000820,  38.278
   141.4,0.005029,0.002860,0.051929,0.000807,  38.283
   141.6,0.005165,0.002934,0.053816,0.000794,  38.282
   141.8,0.005306,0.003001,0.055801,0.000770,  38.286
   142.0,0.005464,0.003082,0.057903,0.000783,  38.283
   142.2,0.005628,0.003166,0.060095,0.000847,  38.286
   142.4,0.005801,0.003238,0.062351,0.000874,  38.281
   142.6,0.005959,0.003318,0.064731,0.000887,  38.280
   142.8,0.006114,0.003403,0.066412,0.000914,  38.286
   143.0,0.006259,0.003493,0.067779,0.000927,  38.285
   143.2,0.006389,0.003587,0.068829,0.000940,  38.288
   143.4,0.006505,0.003698,0.069570,0.000940,  38.288
   143.6,0.006610,0.003793,0.070814,0.000991,  38.285
   143.8,0.006731,0.003887,0.072035,0.000991,  38.286
   144.0,0.006835,0.003988,0.073248,0.001004,  38.288
   144.2,0.006940,0.004065,0.074603,0.001018,  38.287
   144.4,0.007087,0.004138,0.076016,0.001044,  38.286
   144.6,0.007238,0.004201,0.077499,0.001007,  38.288
   144.8,0.007403,0.004269,0.079027,0.001020,  38.287
   145.0,0.007544,0.004327,0.080637,0.000996,  38.287
   145.2,0.007693,0.004387,0.082256,0.001033,  38.290
   145.4,0.007850,0.004460,0.084240,0.001033,  38.293
   145.6,0.007963,0.004542,0.086415,0.001047,  38.288
   145.8,0.008061,0.004630,0.088796,0.001060,  38.284
   146.0,0.008150,0.004714,0.090712,0.001047,  38.288
   146.2,0.008245,0.004810,0.092462,0.001047,  38.286
   146.4,0.008334,0.004904,0.094086,0.001060,  38.287
   146.6,0.008416,0.004970,0.095708,0.001060,  38.288
   146.8,0.008508,0.005021,0.097244,0.001060,  38.286
   147.0,0.008597,0.005061,0.098712,0.001060,  38.288
   147.2,0.008686,0.005080,0.100332,0.001060,  38.287
   147.4,0.008785,0.005131,0.101991,0.001060,  38.284
   147.6,0.008883,0.005177,0.103693,0.001047,  38.284
   147.8,0.008989,0.005227,0.105112,0.001033,  38.286
   148.0,0.009112,0.005273,0.106387,0.001020,  38.286
   148.2,0.009263,0.005324,0.107559,0.001007,  38.285
   148.4,0.009426,0.005378,0.109810,0.000980,  38.284
   148.6,0.009572,0.005429,0.112521,0.000967,  38.286
   148.8,0.009718,0.005489,0.115740,0.000954,  38.286
   149.0,0.009878,0.005549,0.118084,0.000940,  38.283
   149.2,0.010037,0.005611,0.120217,0.000940,  38.287
   149.4,0.010228,0.005689,0.122130,0.000927,  38.285
   149.6,0.010436,0.005766,0.125187,0.000914,  38.288
   149.8,0.010659,0.005874,0.128739,0.000900,  38.286
   150.0,0.010887,0.005996,0.132792,0.000900,  38.287
   150.2,0.011138,0.006133,0.136757,0.000900,  38.286
   150.4,0.011390,0.006263,0.140901,0.000900,  38.285
   150.6,0.011654,0.006389,0.145244,0.000914,  38.286
   150.8,0.011950,0.006523,0.148980,0.000940,  38.282
   151.0,0.012258,0.006662,0.152519,0.000967,  38.284
   151.2,0.012507,0.006801,0.155818,0.000993,  38.282
   151.4,0.012750,0.006953,0.158969,0.001007,  38.283
   151.6,0.012989,0.007114,0.161909,0.001033,  38.282
   151.8,0.013196,0.007286,0.164681,0.001047,  38.286
   152.0,0.013396,0.007470,0.166990,0.001047,  38.284
   152.2,0.013580,0.007631,0.168938,0.001073,  38.282
   152.4,0.013772,0.007785,0.170552,0.001087,  38.282
   152.6,0.013975,0.007935,0.171780,0.001087,  38.285
   152.8,0.014175,0.008065,0.174586,0.001100,  38.287
   153.0,0.014419,0.008177,0.177831,0.001100,  38.286
   153.2,0.014694,0.008278,0.181542,0.001113,  38.286
   153.4,0.014991,0.008388,0.185113,0.001127,  38.287
   153.6,0.015230,0.008497,0.188854,0.001140,  38.287
   153.8,0.015449,0.008603,0.192760,0.001127,  38.285
   154.0,0.015659,0.008740,0.196002,0.001127,  38.285
   154.2,0.015849,0.008882,0.198945,0.001102,  38.291
   154.4,0.016017,0.009046,0.201633,0.001140,  38.290
   154.6,0.016166,0.009194,0.204389,0.001140,  38.288
   154.8,0.016324,0.009335,0.206981,0.001140,  38.289
   155.0,0.016479,0.009477,0.209465,0.001140,  38.284
   155.2,0.016621,0.009577,0.211956,0.001140,  38.287
   155.4,0.016777,0.009660,0.214356,0.001140,  38.286
   155.6,0.016929,0.009721,0.216704,0.001140,  38.284
   155.8,0.017084,0.009767,0.219237,0.001140,  38.285
   156.0,0.017246,0.009843,0.221777,0.001140,  38.286
   156.2,0.017405,0.009927,0.224402,0.001127,  38.284
   156.4,0.017571,0.010016,0.227260,0.001100,  38.282
   156.6,0.017795,0.010106,0.230239,0.001100,  38.281
   156.8,0.018044,0.010192,0.233329,0.001087,  38.287
   157.0,0.018330,0.010275,0.237241,0.001047,  38.281
   157.2,0.018571,0.010363,0.241547,0.001033,  38.283
   157.4,0.018803,0.010457,0.246343,0.001033,  38.277
   157.6,0.019034,0.010559,0.250855,0.001007,  38.284
   157.8,0.019270,0.010679,0.255423,0.001007,  38.286
   158.0,0.019552,0.010819,0.260085,0.000993,  38.282
   158.2,0.019861,0.010975,0.265070,0.000980,  38.283
   158.4,0.020201,0.011145,0.270286,0.000993,  38.284
   158.6,0.020547,0.011337,0.275695,0.000993,  38.282
   158.8,0.020908,0.011545,0.281490,0.000980,  38.286
   159.0,0.021298,0.011735,0.287558,0.001007,  38.286
   159.2,0.021684,0.011920,0.293949,0.001033,  38.285
   159.4,0.022077,0.012111,0.299366,0.001047,  38.284
   159.6,0.022487,0.012308,0.304435,0.001073,  38.282
   159.8,0.022832,0.012526,0.309118,0.001100,  38.285
   160.0,0.023150,0.012756,0.312924,0.001100,  38.285
   160.2,0.023446,0.012983,0.316045,0.001127,  38.285
   160.4,0.023739,0.013221,0.318509,0.001140,  38.285
   160.6,0.024005,0.013474,0.320270,0.001153,  38.281
   160.8,0.024255,0.013688,0.323555,0.001167,  38.284
   161.0,0.024549,0.013885,0.326968,0.001193,  38.288
   161.2,0.024846,0.014067,0.330581,0.001193,  38.288
   161.4,0.025146,0.014236,0.335053,0.001207,  38.287
   161.6,0.025478,0.014398,0.340081,0.001220,  38.286
   161.8,0.025842,0.014540,0.345634,0.001233,  38.286
   162.0,0.026230,0.014696,0.350481,0.001233,  38.288
   162.2,0.026523,0.014857,0.355254,0.001209,  38.284
   162.4,0.026802,0.015019,0.359886,0.001246,  38.288
   162.6,0.027037,0.015208,0.364083,0.001246,  38.290
   162.8,0.027265,0.015423,0.367981,0.001260,  38.288
   163.0,0.027495,0.015655,0.371506,0.001222,  38.282
   163.2,0.027701,0.015836,0.375158,0.001209,  38.288
   163.4,0.027899,0.016006,0.378648,0.001222,  38.287
   163.6,0.028102,0.016161,0.382011,0.001185,  38.282
   163.8,0.028299,0.016291,0.385447,0.001209,  38.287
   164.0,0.028497,0.016394,0.388808,0.001222,  38.288
   164.2,0.028717,0.016482,0.392083,0.001185,  38.281
   164.4,0.028935,0.016545,0.395552,0.001209,  38.278
   164.6,0.029137,0.016644,0.399081,0.001222,  38.282
   164.8,0.029357,0.016760,0.402689,0.001158,  38.280
   165.0,0.029564,0.016878,0.407026,0.001169,  38.281
   165.2,0.029869,0.016998,0.411749,0.001169,  38.280
   165.4,0.030247,0.017112,0.416910,0.001105,  38.280
   165.6,0.030668,0.017243,0.422451,0.001116,  38.276
   165.8,0.030999,0.017370,0.428454,0.001102,  38.278
   166.0,0.031302,0.017487,0.434812,0.001051,  38.275
   166.2,0.031593,0.017621,0.440783,0.001076,  38.277
   166.4,0.031872,0.017799,0.446747,0.001076,  38.275
   166.6,0.032236,0.017999,0.452726,0.001012,  38.275
   166.8,0.032639,0.018236,0.459112,0.001049,  38.277
   167.0,0.033062,0.018467,0.465617,0.001062,  38.273
   167.2,0.033492,0.018707,0.472371,0.001025,  38.275
   167.4,0.033950,0.018974,0.479710,0.001076,  38.276
   167.6,0.034415,0.019215,0.487456,0.001102,  38.275
   167.8,0.034855,0.019444,0.495581,0.001078,  38.272
   168.0,0.035312,0.019676,0.502241,0.001142,  38.277
   168.2,0.035757,0.019939,0.508240,0.001169,  38.275
   168.4,0.036139,0.020203,0.513630,0.001145,  38.277
   168.6,0.036508,0.020472,0.518707,0.001196,  38.276
   168.8,0.036844,0.020744,0.523267,0.001222,  38.275
   169.0,0.037176,0.021021,0.527269,0.001198,  38.280
   169.2,0.037491,0.021304,0.531144,0.001262,  38.280
   169.4,0.037801,0.021541,0.534777,0.001289,  38.282
   169.6,0.038154,0.021763,0.537955,0.001265,  38.280
   169.8,0.038524,0.021974,0.540757,0.001315,  38.289
   170.0,0.038916,0.022174,0.546227,0.001329,  38.287
   170.2,0.039298,0.022358,0.552573,0.001291,  38.291
   170.4,0.039690,0.022533,0.559891,0.001342,  38.290
   170.6,0.040093,0.022731,0.564902,0.001355,  38.291
   170.8,0.040411,0.022929,0.569222,0.001318,  38.294
   171.0,0.040687,0.023136,0.572666,0.001369,  38.292
   171.2,0.040940,0.023365,0.577393,0.001369,  38.295
   171.4,0.041190,0.023603,0.582302,0.001382,  38.290
   171.6,0.041426,0.023860,0.587479,0.001369,  38.296
   171.8,0.041653,0.024055,0.592137,0.001369,  38.292
   172.0,0.041890,0.024228,0.596583,0.001369,  38.292
   172.2,0.042106,0.024377,0.600827,0.001345,  38.293
   172.4,0.042315,0.024510,0.605187,0.001345,  38.289
   172.6,0.042553,0.024613,0.609533,0.001345,  38.289
   172.8,0.042786,0.024708,0.613733,0.001331,  38.287
   173.0,0.043016,0.024775,0.617931,0.001318,  38.284
   173.2,0.043277,0.024884,0.621991,0.001305,  38.284
   173.4,0.043548,0.025006,0.626028,0.001278,  38.281
   173.6,0.043838,0.025134,0.631642,0.001251,  38.285
   173.8,0.044223,0.025256,0.638093,0.001225,  38.285
   174.0,0.044658,0.025389,0.645339,0.001198,  38.280
   174.2,0.045155,0.025521,0.652289,0.001222,  38.280
   174.4,0.045525,0.025656,0.659501,0.001209,  38.283
   174.6,0.045863,0.025802,0.666918,0.001145,  38.283
   174.8,0.046172,0.025954,0.673947,0.001169,  38.279
   175.0,0.046445,0.026168,0.680782,0.001169,  38.288
   175.2,0.046847,0.026421,0.687490,0.001131,  38.287
   175.4,0.047288,0.026718,0.694926,0.001156,  38.286
   175.6,0.047753,0.026982,0.702745,0.001169,  38.286
   175.8,0.048208,0.027253,0.710866,0.001158,  38.291
   176.0,0.048685,0.027532,0.718558,0.001209,  38.289
   176.2,0.049173,0.027794,0.726147,0.001249,  38.291
   176.4,0.049612,0.028050,0.733712,0.001238,  38.292
   176.6,0.050049,0.028302,0.740231,0.001315,  38.294
   176.8,0.050472,0.028574,0.746211,0.001355,  38.295
   177.0,0.050846,0.028849,0.751470,0.001331,  38.295
   177.2,0.051203,0.029134,0.756609,0.001369,  38.298
   177.4,0.051525,0.029406,0.761521,0.001395,  38.301
   177.6,0.051858,0.029672,0.765838,0.001384,  38.303
   177.8,0.052195,0.029932,0.770199,0.001435,  38.313
   178.0,0.052515,0.030164,0.774219,0.001462,  38.323
   178.2,0.052876,0.030373,0.778091,0.001438,  38.328
   178.4,0.053267,0.030561,0.781509,0.001489,  38.329
   178.6,0.053668,0.030752,0.786661,0.001515,  38.332
   178.8,0.054020,0.030939,0.792181,0.001491,  38.334
   179.0,0.054369,0.031112,0.798301,0.001529,  38.340
   179.2,0.054697,0.031307,0.803693,0.001542,  38.340
   179.4,0.054969,0.031516,0.808930,0.001504,  38.340
   179.6,0.055213,0.031735,0.813974,0.001542,  38.345
   179.8,0.055426,0.031945,0.818511,0.001529,  38.348
   180.0,0.055638,0.032151,0.822691,0.001542,  38.347
   180.2,0.055836,0.032375,0.826502,0.001542,  38.344
   180.4,0.056024,0.032541,0.830719,0.001542,  38.348
   180.6,0.056226,0.032675,0.834979,0.001555,  38.348
   180.8,0.056417,0.032797,0.839266,0.001518,  38.346
   181.0,0.056608,0.032920,0.843386,0.001542,  38.344
   181.2,0.056821,0.033021,0.847676,0.001542,  38.343
   181.4,0.057045,0.033112,0.851787,0.001491,  38.341
   181.6,0.057279,0.033201,0.856170,0.001489,  38.346
   181.8,0.057567,0.033276,0.860604,0.001462,  38.344
   182.0,0.057876,0.033341,0.865085,0.001411,  38.349
   182.2,0.058232,0.033403,0.869945,0.001395,  38.353
   182.4,0.058641,0.033507,0.874904,0.001369,  38.355
   182.6,0.059083,0.033619,0.880095,0.001305,  38.354
   182.8,0.059582,0.033748,0.886411,0.001302,  38.356
   183.0,0.059939,0.033891,0.893410,0.001289,  38.360
   183.2,0.060239,0.034058,0.901231,0.001238,  38.367
   183.4,0.060504,0.034235,0.908422,0.001211,  38.371
   183.6,0.060715,0.034464,0.915603,0.001198,  38.377
   183.8,0.061073,0.034740,0.922749,0.001198,  38.384
   184.0,0.061467,0.035042,0.929911,0.001209,  38.385
   184.2,0.061898,0.035297,0.937071,0.001236,  38.389
   184.4,0.062296,0.035556,0.944076,0.001238,  38.397
   184.6,0.062684,0.035804,0.950917,0.001342,  38.412
   184.8,0.063080,0.036036,0.957144,0.001395,  38.417
   185.0,0.063447,0.036274,0.963173,0.001398,  38.427
   185.2,0.063789,0.036494,0.968821,0.001475,  38.433
   185.4,0.064128,0.036716,0.973927,0.001515,  38.443
   185.6,0.064442,0.036952,0.978480,0.001504,  38.452
   185.8,0.064727,0.037180,0.983106,0.001555,  38.460
   186.0,0.065009,0.037389,0.987326,0.001595,  38.467
   186.2,0.065295,0.037599,0.991137,0.001571,  38.479
   186.4,0.065573,0.037804,0.994942,0.001649,  38.488
   186.6,0.065852,0.037982,0.998619,0.001675,  38.499
   186.8,0.066153,0.038155,1.002003,0.001651,  38.508
   187.0,0.066450,0.038316,1.005243,0.001702,  38.509
   187.2,0.066751,0.038473,1.009497,0.001753,  38.512
   187.4,0.067002,0.038626,1.013967,0.001715,  38.517
   187.6,0.067213,0.038773,1.018829,0.001766,  38.521
   187.8,0.067394,0.038933,1.022407,0.001753,  38.529
   188.0,0.067539,0.039099,1.025362,0.001766,  38.531
   188.2,0.067667,0.039276,1.027662,0.001817,  38.538
   188.4,0.067762,0.039421,1.030935,0.001793,  38.541
   188.6,0.067860,0.039560,1.034225,0.001806,  38.555
   188.8,0.067973,0.039690,1.037508,0.001820,  38.555
   189.0,0.068067,0.039771,1.040679,0.001820,  38.558
   189.2,0.068173,0.039829,1.043533,0.001833,  38.560
   189.4,0.068297,0.039858,1.046413,0.001795,  38.566
   189.6,0.068417,0.039895,1.049642,0.001782,  38.567
   189.8,0.068544,0.039924,1.052880,0.001769,  38.576
   190.0,0.068701,0.039943,1.056143,0.001691,  38.577
   190.2,0.068854,0.039969,1.059301,0.001662,  38.590
   190.4,0.069091,0.039995,1.062513,0.001622,  38.599
   190.6,0.069398,0.040024,1.065592,0.001531,  38.603
   190.8,0.069741,0.040054,1.070491,0.001489,  38.609
   191.0,0.070070,0.040106,1.075800,0.001435,  38.618
   191.2,0.070436,0.040170,1.082125,0.001358,  38.625
   191.4,0.070809,0.040244,1.087005,0.001342,  38.640
   191.6,0.071084,0.040357,1.091358,0.001302,  38.654
   191.8,0.071329,0.040509,1.095159,0.001251,  38.669
   192.0,0.071531,0.040694,1.099385,0.001276,  38.679
   192.2,0.071758,0.040897,1.103029,0.001276,  38.694
   192.4,0.071994,0.041127,1.106507,0.001251,  38.707
   192.6,0.072214,0.041395,1.110013,0.001276,  38.728
   192.8,0.072398,0.041582,1.113563,0.001329,  38.741
   193.0,0.072563,0.041744,1.116509,0.001371,  38.757
   193.2,0.072688,0.041882,1.119483,0.001451,  38.768
   193.4,0.072813,0.042035,1.122477,0.001518,  38.783
   193.6,0.072986,0.042173,1.125085,0.001584,  38.804
   193.8,0.073159,0.042311,1.127901,0.001638,  38.813
   194.0,0.073344,0.042441,1.130081,0.001691,  38.829
   194.2,0.073495,0.042568,1.132272,0.001718,  38.845
   194.4,0.073631,0.042690,1.134679,0.001758,  38.865
   194.6,0.073772,0.042788,1.136649,0.001811,  38.884
   194.8,0.073893,0.042889,1.138406,0.001838,  38.897
   195.0,0.074000,0.042984,1.140417,0.001864,  38.906
   195.2,0.074107,0.043072,1.142228,0.001904,  38.920
   195.4,0.074203,0.043149,1.143606,0.001931,  38.933
   195.6,0.074288,0.043230,1.144964,0.001931,  38.938
   195.8,0.074366,0.043299,1.146310,0.001958,  38.958
   196.0,0.074392,0.043359,1.147215,0.001985,  38.967
   196.2,0.074384,0.043412,1.147880,0.001985,  38.977
   196.4,0.074351,0.043460,1.149000,0.001998,  38.985
   196.6,0.074311,0.043508,1.149888,0.001998,  38.989
   196.8,0.074252,0.043554,1.150549,0.001998,  39.003
   197.0,0.074174,0.043562,1.151447,0.001998,  39.006
   197.2,0.074122,0.043562,1.152142,0.002011,  39.012
   197.4,0.074074,0.043546,1.152624,0.002011,  39.026
   197.6,0.074023,0.043496,1.153535,0.002011,  39.037
   197.8,0.074001,0.043421,1.154225,0.001998,  39.044
   198.0,0.073979,0.043326,1.154925,0.001971,  39.054
   198.2,0.073975,0.043248,1.155848,0.001945,  39.066
   198.4,0.073998,0.043171,1.156550,0.001904,  39.081
   198.6,0.074027,0.043100,1.157261,0.001800,  39.090
   198.8,0.074083,0.043041,1.158646,0.001707,  39.107
   199.0,0.074186,0.043004,1.159811,0.001640,  39.132
   199.2,0.074333,0.042967,1.160971,0.001560,  39.149
   199.4,0.074522,0.042954,1.162595,0.001518,  39.167
   199.6,0.074640,0.042935,1.163998,0.001464,  39.178
   199.8,0.074762,0.042932,1.165398,0.001398,  39.200
   200.0,0.074865,0.042935,1.166107,0.001382,  39.229
   200.2,0.074917,0.042993,1.165886,0.001355,  39.245
   200.4,0.074954,0.043087,1.165437,0.001278,  39.268
   200.6,0.074954,0.043220,1.164776,0.001289,  39.293
   200.8,0.074950,0.043316,1.163441,0.001302,  39.314
   201.0,0.074950,0.043425,1.161885,0.001278,  39.334
   201.2,0.074928,0.043533,1.161409,0.001355,  39.357
   201.4,0.074910,0.043588,1.161377,0.001422,  39.390
   201.6,0.074880,0.043625,1.161775,0.001464,  39.409
   201.8,0.074862,0.043632,1.161744,0.001595,  39.432
   202.0,0.074828,0.043651,1.161486,0.001649,  39.457
   202.2,0.074780,0.043653,1.161002,0.001664,  39.484
   202.4,0.074728,0.043654,1.160986,0.001742,  39.507
   202.6,0.074669,0.043643,1.160495,0.001782,  39.532
   202.8,0.074595,0.043625,1.159772,0.001798,  39.553
   203.0,0.074521,0.043595,1.158654,0.001875,  39.569
   203.2,0.074444,0.043561,1.157099,0.001915,  39.592
   203.4,0.074344,0.043526,1.154882,0.001918,  39.615
   203.6,0.074237,0.043492,1.153739,0.001969,  39.624
   203.8,0.074126,0.043444,1.152812,0.001995,  39.637
   204.0,0.074001,0.043402,1.152085,0.001985,  39.652
   204.2,0.073875,0.043351,1.151383,0.002022,  39.663
   204.4,0.073743,0.043285,1.150430,0.002035,  39.671
   204.6,0.073599,0.043224,1.149950,0.001998,  39.681
   204.8,0.073452,0.043153,1.149228,0.001998,  39.699
   205.0,0.073293,0.043070,1.148076,0.002011,  39.709
   205.2,0.073153,0.042985,1.146950,0.001998,  39.719
   205.4,0.073017,0.042898,1.145601,0.001985,  39.727
   205.6,0.072885,0.042797,1.144691,0.001985,  39.734
   205.8,0.072756,0.042693,1.143776,0.001985,  39.744
   206.0,0.072642,0.042579,1.142637,0.001971,  39.755
   206.2,0.072539,0.042470,1.139850,0.001958,  39.772
   206.4,0.072432,0.042366,1.135827,0.001931,  39.785
   206.6,0.072337,0.042258,1.131244,0.001891,  39.796
   206.8,0.072241,0.042159,1.130381,0.001814,  39.814
   207.0,0.072160,0.042066,1.130512,0.001774,  39.824
   207.2,0.072083,0.041987,1.132093,0.001683,  39.840
   207.4,0.072021,0.041907,1.132023,0.001654,  39.873
   207.6,0.071933,0.041838,1.131305,0.001613,  39.882
   207.8,0.071848,0.041774,1.130393,0.001549,  39.900
   208.0,0.071764,0.041724,1.129491,0.001534,  39.917
   208.2,0.071650,0.041677,1.127956,0.001507,  39.935
   208.4,0.071537,0.041645,1.126449,0.001443,  39.967
   208.6,0.071416,0.041622,1.123308,0.001454,  39.974
   208.8,0.071276,0.041574,1.118971,0.001440,  39.998
   209.0,0.071137,0.041524,1.113701,0.001389,  40.012
   209.2,0.070994,0.041471,1.111595,0.001427,  40.039
   209.4,0.070837,0.041410,1.110452,0.001440,  40.059
   209.6,0.070687,0.041330,1.110287,0.001416,  40.071
   209.8,0.070526,0.041251,1.108979,0.001480,  40.088
   210.0,0.070398,0.041172,1.107466,0.001507,  40.105
   210.2,0.070266,0.041093,1.105991,0.001483,  40.130
   210.4,0.070164,0.041012,1.104725,0.001534,  40.149
   210.6,0.070062,0.040924,1.102856,0.001547,  40.161
   210.8,0.069912,0.040824,1.101011,0.001536,  40.173
   211.0,0.069740,0.040720,1.099377,0.001560,  40.195
   211.2,0.069569,0.040626,1.097554,0.001574,  40.205
   211.4,0.069397,0.040526,1.095546,0.001549,  40.218
   211.6,0.069226,0.040421,1.093170,0.001600,  40.220
   211.8,0.069047,0.040320,1.090624,0.001613,  40.230
   212.0,0.068865,0.040217,1.087714,0.001576,  40.242
   212.2,0.068671,0.040117,1.085186,0.001613,  40.244
   212.4,0.068482,0.040008,1.082469,0.001627,  40.254
   212.6,0.068311,0.039897,1.079762,0.001589,  40.269
   212.8,0.068143,0.039789,1.077997,0.001613,  40.270
   213.0,0.067994,0.039677,1.076593,0.001627,  40.278
   213.2,0.067867,0.039556,1.075561,0.001576,  40.280
   213.4,0.067754,0.039435,1.074386,0.001587,  40.286
   213.6,0.067667,0.039317,1.073031,0.001587,  40.287
   213.8,0.067580,0.039200,1.072268,0.001549,  40.292
   214.0,0.067503,0.039090,1.070951,0.001560,  40.293
   214.2,0.067438,0.039003,1.069607,0.001560,  40.297
   214.4,0.067362,0.038926,1.068472,0.001523,  40.297
   214.6,0.067286,0.038871,1.066947,0.001534,  40.302
   214.8,0.067206,0.038821,1.065803,0.001520,  40.303
   215.0,0.067122,0.038787,1.064287,0.001483,  40.303
   215.2,0.067046,0.038761,1.063157,0.001520,  40.305
   215.4,0.066963,0.038724,1.061844,0.001534,  40.306
   215.6,0.066844,0.038690,1.060358,0.001560,  40.312
   215.8,0.066699,0.038653,1.058876,0.001560,  40.316
   216.0,0.066528,0.038616,1.057023,0.001574,  40.313
   216.2,0.066355,0.038575,1.055003,0.001587,  40.318
   216.4,0.066152,0.038533,1.052635,0.001563,  40.320
   216.6,0.065923,0.038468,1.050438,0.001627,  40.321
   216.8,0.065742,0.038392,1.048259,0.001640,  40.318
   217.0,0.065572,0.038297,1.045741,0.001616,  40.314
   217.2,0.065409,0.038203,1.043399,0.001667,  40.312
   217.4,0.065225,0.038098,1.041062,0.001680,  40.310
   217.6,0.065040,0.037990,1.038746,0.001656,  40.305
   217.8,0.064856,0.037870,1.036121,0.001680,  40.300
   218.0,0.064672,0.037752,1.033188,0.001667,  40.294
   218.2,0.064495,0.037621,1.029763,0.001616,  40.290
   218.4,0.064326,0.037482,1.027521,0.001613,  40.276
   218.6,0.064163,0.037356,1.025120,0.001600,  40.273
   218.8,0.064005,0.037244,1.023057,0.001536,  40.265
   219.0,0.063850,0.037137,1.021172,0.001534,  40.260
   219.2,0.063716,0.037019,1.019304,0.001520,  40.250
   219.4,0.063594,0.036909,1.017603,0.001483,  40.231
   219.6,0.063486,0.036796,1.015750,0.001494,  40.222
   219.8,0.063393,0.036694,1.014071,0.001494,  40.210
   220.0,0.063249,0.036592,1.012248,0.001443,  40.206
   220.2,0.063098,0.036501,1.010425,0.001467,  40.198
   220.4,0.062926,0.036404,1.008273,0.001480,  40.191
   220.6,0.062764,0.036313,1.005819,0.001443,  40.184
   220.8,0.062613,0.036224,1.003681,0.001467,  40.175
   221.0,0.062451,0.036130,1.001716,0.001480,  40.173
   221.2,0.062311,0.036038,0.999759,0.001443,  40.163
   221.4,0.062197,0.035944,0.997674,0.001467,  40.147
   221.6,0.062085,0.035845,0.995767,0.001480,  40.148
   221.8,0.061984,0.035743,0.994043,0.001443,  40.140
   222.0,0.061906,0.035645,0.992469,0.001467,  40.135
   222.2,0.061841,0.035553,0.990893,0.001480,  40.127
   222.4,0.061762,0.035470,0.989472,0.001443,  40.121
   222.6,0.061694,0.035394,0.988205,0.001480,  40.120
   222.8,0.061640,0.035333,0.987397,0.001494,  40.110
   223.0,0.061565,0.035288,0.986285,0.001456,  40.099
   223.2,0.061486,0.035260,0.985628,0.001507,  40.090
   223.4,0.061411,0.035223,0.984372,0.001507,  40.079
   223.6,0.061328,0.035197,0.982973,0.001483,  40.060
   223.8,0.061246,0.035179,0.981585,0.001520,  40.047
   224.0,0.061167,0.035142,0.979917,0.001534,  40.029
   224.2,0.061038,0.035111,0.978256,0.001560,  40.022
   224.4,0.060895,0.035078,0.976166,0.001574,  40.008
   224.6,0.060738,0.035031,0.974344,0.001587,  39.995
   224.8,0.060573,0.034987,0.972507,0.001576,  39.973
   225.0,0.060416,0.034943,0.970510,0.001589,  39.956
   225.2,0.060252,0.034867,0.968253,0.001603,  39.942
   225.4,0.060094,0.034781,0.966023,0.001578,  39.919
   225.6,0.059955,0.034685,0.963508,0.001629,  39.905
   225.8,0.059813,0.034599,0.961264,0.001629,  39.879
   226.0,0.059659,0.034516,0.958876,0.001592,  39.866
   226.2,0.059509,0.034427,0.956486,0.001629,  39.844
   226.4,0.059364,0.034349,0.953994,0.001616,  39.823
   226.6,0.059210,0.034253,0.951243,0.001565,  39.801
   226.8,0.059060,0.034160,0.948230,0.001603,  39.781
   227.0,0.058922,0.034068,0.945927,0.001576,  39.768
   227.2,0.058775,0.033975,0.943786,0.001538,  39.745
   227.4,0.058636,0.033881,0.941655,0.001576,  39.724
   227.6,0.058512,0.033790,0.939675,0.001576,  39.704
   227.8,0.058395,0.033694,0.937984,0.001552,  39.688
   228.0,0.058292,0.033608,0.936299,0.001589,  39.673
   228.2,0.058195,0.033528,0.934359,0.001589,  39.657
   228.4,0.058114,0.033447,0.932581,0.001552,  39.635
   228.6,0.057979,0.033368,0.930681,0.001589,  39.627
   228.8,0.057836,0.033293,0.928759,0.001589,  39.617
   229.0,0.057691,0.033212,0.926700,0.001552,  39.612
   229.2,0.057542,0.033132,0.924236,0.001589,  39.599
   229.4,0.057411,0.033055,0.922198,0.001589,  39.592
   229.6,0.057272,0.032977,0.920170,0.001565,  39.588
   229.8,0.057137,0.032896,0.918033,0.001603,  39.578
   230.0,0.057024,0.032824,0.915672,0.001603,  39.564
   230.2,0.056914,0.032743,0.913092,0.001578,  39.556
   230.4,0.056811,0.032655,0.910419,0.001629,  39.547
   230.6,0.056705,0.032578,0.908239,0.001629,  39.546
   230.8,0.056613,0.032502,0.906201,0.001605,  39.539
   231.0,0.056518,0.032419,0.904416,0.001656,  39.530
   231.2,0.056418,0.032352,0.903244,0.001669,  39.529
   231.4,0.056330,0.032293,0.902302,0.001645,  39.509
   231.6,0.056234,0.032231,0.901868,0.001683,  39.512
   231.8,0.056135,0.032177,0.901782,0.001669,  39.501
   232.0,0.056043,0.032123,0.900850,0.001632,  39.493
   232.2,0.055955,0.032072,0.899792,0.001669,  39.466
   232.4,0.055866,0.032017,0.898497,0.001643,  39.456
   232.6,0.055792,0.031957,0.896942,0.001643,  39.444
   232.8,0.055689,0.031903,0.895274,0.001629,  39.437
   233.0,0.055565,0.031846,0.893367,0.001643,  39.424
   233.2,0.055449,0.031794,0.891351,0.001629,  39.410
   233.4,0.055321,0.031740,0.889101,0.001616,  39.390
   233.6,0.055198,0.031691,0.886754,0.001603,  39.381
   233.8,0.055071,0.031623,0.884513,0.001589,  39.370
   234.0,0.054939,0.031564,0.882152,0.001538,  39.360
   234.2,0.054820,0.031499,0.879681,0.001576,  39.352
   234.4,0.054693,0.031432,0.876997,0.001576,  39.334
   234.6,0.054562,0.031362,0.873982,0.001552,  39.316
   234.8,0.054428,0.031288,0.870884,0.001589,  39.311
   235.0,0.054295,0.031231,0.868126,0.001589,  39.299
   235.2,0.054165,0.031177,0.865378,0.001565,  39.288
   235.4,0.054031,0.031125,0.862631,0.001629,  39.278
   235.6,0.053901,0.031079,0.860268,0.001643,  39.273
   235.8,0.053771,0.031009,0.858041,0.001632,  39.266
   236.0,0.053637,0.030940,0.855950,0.001683,  39.259
   236.2,0.053507,0.030865,0.854092,0.001669,  39.248
   236.4,0.053377,0.030785,0.852257,0.001645,  39.236
   236.6,0.053243,0.030718,0.850315,0.001696,  39.228
   236.8,0.053117,0.030649,0.848473,0.001696,  39.224
   237.0,0.053005,0.030574,0.846752,0.001685,  39.221
   237.2,0.052907,0.030504,0.844811,0.001736,  39.217
   237.4,0.052808,0.030427,0.842662,0.001749,  39.215
   237.6,0.052725,0.030349,0.840188,0.001725,  39.213
   237.8,0.052602,0.030282,0.837640,0.001776,  39.213
   238.0,0.052476,0.030208,0.835439,0.001763,  39.210
   238.2,0.052332,0.030132,0.833139,0.001725,  39.208
   238.4,0.052198,0.030063,0.830984,0.001776,  39.205
   238.6,0.052075,0.029993,0.829128,0.001763,  39.202
   238.8,0.051953,0.029916,0.827364,0.001738,  39.203
   239.0,0.051837,0.029844,0.825716,0.001789,  39.197
   239.2,0.051728,0.029770,0.823798,0.001789,  39.201
   239.4,0.051620,0.029690,0.821706,0.001765,  39.196
   239.6,0.051504,0.029623,0.819320,0.001803,  39.196
   239.8,0.051403,0.029548,0.817824,0.001789,  39.192
   240.0,0.051305,0.029476,0.816332,0.001765,  39.191
   240.2,0.051196,0.029407,0.815131,0.001789,  39.185
   240.4,0.051098,0.029341,0.813957,0.001776,  39.179
   240.6,0.051008,0.029274,0.812890,0.001738,  39.179
   240.8,0.050913,0.029207,0.811842,0.001749,  39.172
   241.0,0.050840,0.029153,0.810893,0.001723,  39.164
   241.2,0.050771,0.029091,0.808536,0.001709,  39.165
   241.4,0.050672,0.029030,0.805596,0.001696,  39.159
   241.6,0.050582,0.028977,0.802086,0.001683,  39.161
   241.8,0.050470,0.028923,0.799723,0.001656,  39.159
   242.0,0.050354,0.028868,0.797746,0.001643,  39.151
   242.2,0.050258,0.028830,0.796042,0.001616,  39.152
   242.4,0.050150,0.028782,0.793787,0.001603,  39.150
   242.6,0.050027,0.028729,0.791352,0.001552,  39.144
   242.8,0.049916,0.028676,0.788839,0.001589,  39.148
   243.0,0.049798,0.028622,0.786051,0.001576,  39.144
   243.2,0.049672,0.028573,0.783116,0.001552,  39.138
   243.4,0.049554,0.028521,0.779917,0.001603,  39.143
   243.6,0.049428,0.028466,0.777089,0.001629,  39.135
   243.8,0.049299,0.028399,0.774368,0.001618,  39.136
   244.0,0.049180,0.028342,0.771854,0.001645,  39.139
   244.2,0.049058,0.028286,0.769567,0.001672,  39.138
   244.4,0.048932,0.028245,0.767207,0.001648,  39.139
   244.6,0.048807,0.028188,0.764968,0.001661,  39.139
   244.8,0.048686,0.028156,0.762236,0.001698,  39.138
   245.0,0.048553,0.028102,0.759181,0.001687,  39.140
   245.2,0.048428,0.028041,0.755813,0.001701,  39.138
   245.4,0.048307,0.027967,0.753878,0.001738,  39.135
   245.6,0.048174,0.027903,0.752353,0.001714,  39.137
   245.8,0.048046,0.027839,0.751324,0.001714,  39.141
   246.0,0.047921,0.027777,0.749384,0.001765,  39.141
   246.2,0.047814,0.027713,0.747280,0.001741,  39.140
   246.4,0.047717,0.027647,0.744933,0.001741,  39.143
   246.6,0.047626,0.027580,0.742947,0.001778,  39.147
   246.8,0.047553,0.027516,0.741075,0.001768,  39.148
   247.0,0.047446,0.027449,0.739219,0.001768,  39.147
   247.2,0.047331,0.027383,0.737443,0.001805,  39.144
   247.4,0.047203,0.027321,0.735682,0.001781,  39.145
   247.6,0.047085,0.027251,0.733929,0.001794,  39.142
   247.8,0.046988,0.027182,0.732341,0.001818,  39.144
   248.0,0.046892,0.027115,0.730758,0.001781,  39.148
   248.2,0.046795,0.027046,0.729355,0.001794,  39.148
   248.4,0.046698,0.026980,0.727948,0.001818,  39.145
   248.6,0.046612,0.026913,0.726389,0.001768,  39.145
   248.8,0.046522,0.026847,0.724906,0.001768,  39.143
   249.0,0.046424,0.026786,0.723357,0.001778,  39.144
   249.2,0.046339,0.026725,0.721660,0.001728,  39.141
   249.4,0.046259,0.026661,0.719893,0.001701,  39.144
   249.6,0.046175,0.026608,0.718117,0.001712,  39.146
   249.8,0.046107,0.026554,0.716348,0.001661,  39.150
   250.0,0.046020,0.026495,0.714503,0.001634,  39.151
   250.2,0.045919,0.026446,0.712574,0.001645,  39.149
   250.4,0.045820,0.026400,0.710315,0.001632,  39.151
   250.6,0.045727,0.026359,0.707737,0.001618,  39.151
   250.8,0.045629,0.026324,0.705018,0.001581,  39.152
   251.0,0.045543,0.026286,0.702487,0.001605,  39.153
   251.2,0.045443,0.026240,0.699727,0.001605,  39.156
   251.4,0.045336,0.026195,0.696905,0.001605,  39.158
   251.6,0.045233,0.026152,0.694100,0.001592,  39.158
   251.8,0.045126,0.026106,0.691243,0.001567,  39.159
   252.0,0.045023,0.026061,0.688167,0.001594,  39.165
   252.2,0.044927,0.026015,0.685489,0.001658,  39.163
   252.4,0.044820,0.025966,0.682929,0.001648,  39.164
   252.6,0.044702,0.025924,0.680376,0.001674,  39.168
   252.8,0.044603,0.025886,0.678130,0.001725,  39.168
   253.0,0.044496,0.025848,0.676057,0.001714,  39.167
   253.2,0.044375,0.025810,0.674069,0.001728,  39.171
   253.4,0.044269,0.025782,0.672159,0.001765,  39.184
   253.6,0.044159,0.025731,0.670341,0.001754,  39.185
   253.8,0.044042,0.025677,0.668530,0.001754,  39.188
   254.0,0.043932,0.025626,0.666360,0.001805,  39.186
   254.2,0.043822,0.025572,0.664142,0.001781,  39.193
   254.4,0.043712,0.025509,0.661787,0.001794,  39.196
   254.6,0.043602,0.025448,0.659634,0.001832,  39.195
   254.8,0.043496,0.025384,0.657624,0.001794,  39.199
   255.0,0.043386,0.025324,0.655753,0.001808,  39.200
   255.2,0.043279,0.025275,0.653913,0.001845,  39.204
   255.4,0.043190,0.025219,0.652162,0.001808,  39.208
   255.6,0.043111,0.025157,0.650425,0.001821,  39.209
   255.8,0.043042,0.025111,0.648839,0.001845,  39.205
   256.0,0.042988,0.025058,0.647123,0.001808,  39.203
   256.2,0.042898,0.024999,0.645430,0.001821,  39.210
   256.4,0.042813,0.024941,0.643411,0.001845,  39.211
   256.6,0.042728,0.024885,0.641159,0.001808,  39.211
   256.8,0.042638,0.024833,0.638654,0.001821,  39.212
   257.0,0.042555,0.024774,0.636917,0.001845,  39.211
   257.2,0.042477,0.024720,0.635520,0.001794,  39.208
   257.4,0.042395,0.024672,0.634381,0.001781,  39.213
   257.6,0.042324,0.024619,0.632900,0.001792,  39.217
   257.8,0.042267,0.024562,0.631415,0.001728,  39.216
   258.0,0.042188,0.024519,0.629935,0.001714,  39.216
   258.2,0.042115,0.024466,0.627979,0.001725,  39.219
   258.4,0.042057,0.024412,0.625783,0.001674,  39.224
   258.6,0.041974,0.024372,0.623394,0.001661,  39.226
   258.8,0.041892,0.024332,0.621423,0.001672,  39.225
   259.0,0.041814,0.024293,0.619722,0.001621,  39.231
   259.2,0.041731,0.024265,0.618051,0.001607,  39.231
   259.4,0.041656,0.024248,0.616512,0.001594,  39.235
   259.6,0.041580,0.024212,0.614357,0.001557,  39.234
   259.8,0.041494,0.024181,0.612072,0.001594,  39.239
   260.0,0.041416,0.024146,0.609535,0.001605,  39.240
   260.2,0.041334,0.024110,0.607102,0.001618,  39.243
   260.4,0.041251,0.024078,0.604495,0.001632,  39.243
   260.6,0.041177,0.024046,0.601783,0.001621,  39.246
   260.8,0.041098,0.024010,0.599521,0.001685,  39.257
   261.0,0.041005,0.023972,0.597398,0.001712,  39.260
   261.2,0.040927,0.023942,0.595294,0.001738,  39.261
   261.4,0.040832,0.023909,0.593097,0.001752,  39.259
   261.6,0.040732,0.023876,0.590926,0.001741,  39.263
   261.8,0.040647,0.023846,0.588611,0.001754,  39.269
   262.0,0.040556,0.023810,0.586861,0.001805,  39.271
   262.2,0.040460,0.023772,0.585343,0.001781,  39.270
   262.4,0.040372,0.023731,0.584000,0.001808,  39.275
   262.6,0.040293,0.023696,0.582253,0.001845,  39.281
   262.8,0.040204,0.023660,0.580382,0.001821,  39.277
   263.0,0.040107,0.023630,0.578403,0.001821,  39.280
   263.2,0.040025,0.023605,0.576617,0.001859,  39.289
   263.4,0.039940,0.023562,0.574906,0.001834,  39.288
   263.6,0.039844,0.023517,0.573255,0.001834,  39.287
   263.8,0.039759,0.023464,0.571460,0.001872,  39.290
   264.0,0.039678,0.023429,0.569637,0.001848,  39.291
   264.2,0.039585,0.023386,0.567837,0.001885,  39.292
   264.4,0.039514,0.023342,0.566422,0.001909,  39.292
   264.6,0.039439,0.023296,0.565055,0.001885,  39.295
   264.8,0.039357,0.023251,0.563855,0.001923,  39.297
   265.0,0.039289,0.023202,0.562658,0.001923,  39.293
   265.2,0.039225,0.023151,0.561464,0.001899,  39.293
   265.4,0.039174,0.023100,0.560331,0.001872,  39.295
   265.6,0.039119,0.023055,0.558302,0.001859,  39.299
   265.8,0.039078,0.023009,0.555815,0.001821,  39.295
   266.0,0.039027,0.022961,0.552945,0.001794,  39.298
   266.2,0.038977,0.022916,0.551235,0.001805,  39.299
   266.4,0.038923,0.022874,0.549828,0.001754,  39.302
   266.6,0.038872,0.022834,0.548713,0.001728,  39.303
   266.8,0.038821,0.022794,0.547184,0.001738,  39.304
   267.0,0.038766,0.022755,0.545482,0.001687,  39.308
   267.2,0.038713,0.022724,0.543624,0.001661,  39.309
   267.4,0.038656,0.022692,0.541903,0.001685,  39.310
   267.6,0.038592,0.022671,0.540091,0.001634,  39.311
   267.8,0.038534,0.022648,0.538191,0.001634,  39.315
   268.0,0.038480,0.022638,0.536276,0.001658,  39.319
   268.2,0.038418,0.022618,0.534243,0.001621,  39.322
   268.4,0.038356,0.022599,0.532172,0.001621,  39.326
   268.6,0.038297,0.022577,0.530407,0.001672,  39.328
   268.8,0.038251,0.022557,0.528759,0.001661,  39.337
   269.0,0.038193,0.022541,0.527187,0.001674,  39.343
   269.2,0.038139,0.022524,0.525791,0.001738,  39.344
   269.4,0.038088,0.022506,0.524153,0.001728,  39.344
   269.6,0.038027,0.022488,0.522459,0.001741,  39.347
   269.8,0.037959,0.022468,0.520709,0.001778,  39.354
   270.0,0.037881,0.022453,0.519052,0.001792,  39.353
   270.2,0.037818,0.022435,0.517416,0.001805,  39.352
   270.4,0.037740,0.022415,0.515794,0.001781,  39.354
   270.6,0.037658,0.022393,0.514208,0.001832,  39.359
   270.8,0.037591,0.022362,0.512680,0.001845,  39.361
   271.0,0.037520,0.022332,0.511150,0.001859,  39.364
   271.2,0.037441,0.022294,0.509476,0.001859,  39.365
   271.4,0.037374,0.022257,0.507721,0.001834,  39.365
   271.6,0.037306,0.022220,0.505832,0.001834,  39.367
   271.8,0.037245,0.022181,0.504378,0.001885,  39.369
   272.0,0.037181,0.022151,0.502963,0.001861,  39.371
   272.2,0.037120,0.022126,0.501759,0.001861,  39.373
   272.4,0.037057,0.022104,0.500486,0.001899,  39.373
   272.6,0.036985,0.022073,0.499167,0.001874,  39.376
   272.8,0.036928,0.022054,0.497867,0.001874,  39.375
   273.0,0.036860,0.022034,0.496469,0.001912,  39.379
   273.2,0.036795,0.022004,0.494941,0.001874,  39.379
   273.4,0.036745,0.021968,0.493442,0.001874,  39.384
   273.6,0.036688,0.021925,0.492429,0.001912,  39.382
   273.8,0.036626,0.021887,0.491546,0.001874,  39.383
   274.0,0.036569,0.021844,0.490890,0.001861,  39.383
   274.2,0.036515,0.021809,0.489967,0.001872,  39.383
   274.4,0.036474,0.021768,0.489012,0.001834,  39.387
   274.6,0.036436,0.021730,0.487960,0.001821,  39.387
   274.8,0.036423,0.021706,0.486563,0.001818,  39.393
   275.0,0.036406,0.021676,0.484990,0.001768,  39.395
   275.2,0.036373,0.021639,0.483183,0.001754,  39.394
   275.4,0.036339,0.021614,0.481377,0.001752,  39.393
   275.6,0.036306,0.021594,0.479399,0.001701,  39.394
   275.8,0.036264,0.021574,0.477285,0.001687,  39.398
   276.0,0.036235,0.021559,0.475632,0.001698,  39.401
   276.2,0.036202,0.021549,0.474067,0.001648,  39.404
   276.4,0.036165,0.021536,0.472594,0.001648,  39.408
   276.6,0.036139,0.021536,0.470904,0.001634,  39.404
   276.8,0.036125,0.021528,0.469140,0.001597,  39.410
   277.0,0.036094,0.021515,0.467296,0.001648,  39.409
   277.2,0.036056,0.021511,0.465681,0.001661,  39.413
   277.4,0.036029,0.021506,0.464071,0.001650,  39.423
   277.6,0.035999,0.021490,0.462514,0.001728,  39.424
   277.8,0.035954,0.021485,0.461243,0.001741,  39.426
   278.0,0.035914,0.021480,0.460147,0.001730,  39.428
   278.2,0.035870,0.021470,0.459161,0.001781,  39.435
   278.4,0.035812,0.021468,0.458356,0.001794,  39.432
   278.6,0.035751,0.021463,0.457189,0.001783,  39.436
   278.8,0.035697,0.021456,0.455887,0.001834,  39.440
   279.0,0.035635,0.021451,0.454497,0.001834,  39.440
   279.2,0.035582,0.021433,0.453165,0.001848,  39.438
   279.4,0.035531,0.021408,0.451852,0.001823,  39.443
   279.6,0.035473,0.021383,0.450453,0.001874,  39.447
   279.8,0.035434,0.021360,0.449080,0.001861,  39.445
   280.0,0.035386,0.021324,0.447772,0.001837,  39.448
   280.2,0.035328,0.021300,0.446415,0.001874,  39.447
   280.4,0.035289,0.021274,0.445235,0.001874,  39.448
   280.6,0.035230,0.021246,0.444201,0.001850,  39.453
   280.8,0.035173,0.021229,0.443206,0.001888,  39.451
   281.0,0.035116,0.021211,0.442213,0.001888,  39.456
   281.2,0.035061,0.021193,0.441319,0.001863,  39.456
   281.4,0.035015,0.021172,0.440383,0.001901,  39.455
   281.6,0.034964,0.021165,0.439485,0.001888,  39.458
   281.8,0.034913,0.021137,0.438569,0.001850,  39.457
   282.0,0.034877,0.021104,0.437654,0.001901,  39.460
   282.2,0.034836,0.021073,0.436806,0.001901,  39.460
   282.4,0.034788,0.021045,0.435924,0.001850,  39.461
   282.6,0.034755,0.021014,0.435079,0.001874,  39.463
   282.8,0.034715,0.020989,0.434193,0.001848,  39.466
   283.0,0.034691,0.020958,0.433359,0.001797,  39.462
   283.2,0.034678,0.020933,0.432432,0.001808,  39.466
   283.4,0.034668,0.020902,0.431130,0.001794,  39.470
   283.6,0.034668,0.020874,0.429666,0.001743,  39.474
   283.8,0.034643,0.020851,0.428006,0.001768,  39.475
   284.0,0.034638,0.020828,0.426345,0.001741,  39.480
   284.2,0.034621,0.020813,0.424578,0.001703,  39.480
   284.4,0.034600,0.020803,0.422748,0.001714,  39.480
   284.6,0.034590,0.020809,0.421382,0.001701,  39.483
   284.8,0.034570,0.020809,0.420210,0.001663,  39.488
   285.0,0.034546,0.020806,0.419194,0.001701,  39.494
   285.2,0.034533,0.020822,0.417977,0.001687,  39.501
   285.4,0.034513,0.020824,0.416755,0.001663,  39.502
   285.6,0.034499,0.020819,0.415587,0.001714,  39.503
   285.8,0.034489,0.020823,0.414429,0.001765,  39.508
   286.0,0.034483,0.020820,0.413214,0.001754,  39.507
   286.2,0.034463,0.020822,0.412010,0.001768,  39.511
   286.4,0.034432,0.020824,0.410976,0.001832,  39.510
   286.6,0.034409,0.020826,0.409987,0.001821,  39.512
   286.8,0.034376,0.020830,0.409139,0.001834,  39.514
   287.0,0.034339,0.020838,0.408301,0.001848,  39.515
   287.2,0.034303,0.020841,0.407384,0.001823,  39.518
   287.4,0.034266,0.020833,0.406446,0.001861,  39.519
   287.6,0.034236,0.020833,0.405468,0.001899,  39.527
   287.8,0.034197,0.020828,0.404475,0.001912,  39.525
   288.0,0.034171,0.020807,0.403403,0.001888,  39.522
   288.2,0.034140,0.020789,0.402307,0.001901,  39.522
   288.4,0.034110,0.020774,0.401256,0.001901,  39.523
   288.6,0.034081,0.020754,0.400207,0.001877,  39.527
   288.8,0.034044,0.020742,0.399087,0.001914,  39.522
   289.0,0.033992,0.020727,0.398230,0.001914,  39.525
   289.2,0.033952,0.020712,0.397455,0.001877,  39.523
   289.4,0.033912,0.020708,0.396794,0.001928,  39.526
   289.6,0.033868,0.020699,0.396094,0.001928,  39.525
   289.8,0.033828,0.020677,0.395403,0.001890,  39.531
   290.0,0.033791,0.020661,0.394761,0.001903,  39.533
   290.2,0.033754,0.020643,0.393936,0.001890,  39.530
   290.4,0.033720,0.020620,0.393008,0.001853,  39.531
   290.6,0.033686,0.020608,0.392018,0.001866,  39.535
   290.8,0.033656,0.020585,0.391341,0.001890,  39.534
   291.0,0.033629,0.020560,0.390769,0.001839,  39.542
   291.2,0.033603,0.020533,0.390277,0.001826,  39.542
   291.4,0.033587,0.020503,0.389627,0.001823,  39.540
   291.6,0.033569,0.020482,0.388898,0.001772,  39.542
   291.8,0.033566,0.020458,0.388139,0.001746,  39.543
   292.0,0.033580,0.020442,0.387185,0.001757,  39.545
   292.2,0.033584,0.020427,0.386075,0.001706,  39.539
   292.4,0.033576,0.020417,0.384874,0.001692,  39.546
   292.6,0.033584,0.020398,0.383864,0.001703,  39.547
   292.8,0.033584,0.020401,0.382771,0.001666,  39.545
   293.0,0.033584,0.020406,0.381727,0.001652,  39.545
   293.2,0.033573,0.020424,0.380747,0.001677,  39.552
   293.4,0.033563,0.020431,0.379731,0.001652,  39.553
   293.6,0.033552,0.020441,0.378702,0.001652,  39.552
   293.8,0.033549,0.020457,0.377613,0.001677,  39.555
   294.0,0.033553,0.020459,0.376551,0.001666,  39.556
   294.2,0.033545,0.020475,0.375346,0.001692,  39.558
   294.4,0.033553,0.020486,0.374381,0.001743,  39.559
   294.6,0.033557,0.020494,0.373494,0.001732,  39.560
   294.8,0.033540,0.020500,0.372677,0.001746,  39.558
   295.0,0.033527,0.020509,0.371802,0.001783,  39.563
   295.2,0.033511,0.020522,0.370822,0.001759,  39.574
   295.4,0.033480,0.020531,0.369890,0.001772,  39.575
   295.6,0.033461,0.020540,0.369133,0.001823,  39.577
   295.8,0.033441,0.020539,0.368453,0.001812,  39.574
   296.0,0.033407,0.020544,0.367858,0.001826,  39.578
   296.2,0.033391,0.020544,0.367338,0.001863,  39.577
   296.4,0.033364,0.020536,0.366287,0.001877,  39.577
   296.6,0.033336,0.020534,0.365038,0.001853,  39.573
   296.8,0.033327,0.020519,0.363614,0.001853,  39.577
   297.0,0.033304,0.020509,0.362890,0.001890,  39.579
   297.2,0.033277,0.020499,0.362449,0.001866,  39.583
   297.4,0.033247,0.020489,0.362163,0.001903,  39.577
   297.6,0.033214,0.020479,0.361694,0.001903,  39.584
   297.8,0.033180,0.020476,0.361232,0.001879,  39.582
   298.0,0.033143,0.020476,0.360742,0.001879,  39.585
   298.2,0.033113,0.020464,0.360282,0.001917,  39.582
   298.4,0.033083,0.020446,0.359867,0.001893,  39.585
   298.6,0.033053,0.020429,0.359407,0.001893,  39.581
   298.8,0.033030,0.020406,0.358466,0.001917,  39.583
   299.0,0.033007,0.020381,0.357308,0.001893,  39.585
   299.2,0.032983,0.020367,0.355863,0.001879,  39.591
   299.4,0.032956,0.020352,0.355358,0.001903,  39.588
   299.6,0.032943,0.020335,0.355136,0.001853,  39.586
   299.8,0.032933,0.020325,0.355240,0.001826,  39.587
   300.0,0.032920,0.020313,0.354872,0.001823,  39.586
   300.2,0.032923,0.020303,0.354439,0.001772,  39.589
   300.4,0.032936,0.020291,0.353867,0.001759,  39.588
   300.6,0.032953,0.020274,0.353253,0.001770,  39.593
   300.8,0.032963,0.020260,0.352574,0.001719,  39.592
   301.0,0.032973,0.020250,0.351802,0.001706,  39.593
   301.2,0.032980,0.020243,0.350976,0.001717,  39.597
   301.4,0.032987,0.020245,0.350022,0.001666,  39.597
   301.6,0.032982,0.020257,0.349013,0.001652,  39.597
   301.8,0.032993,0.020283,0.348249,0.001677,  39.597
   302.0,0.032993,0.020295,0.347569,0.001652,  39.595
   302.2,0.032997,0.020313,0.346955,0.001666,  39.600
   302.4,0.033003,0.020336,0.346293,0.001703,  39.596
   302.6,0.033018,0.020345,0.345625,0.001692,  39.598
   302.8,0.033021,0.020355,0.344893,0.001719,  39.601
   303.0,0.033017,0.020369,0.344179,0.001770,  39.600
   303.2,0.033021,0.020373,0.343446,0.001759,  39.600
   303.4,0.033014,0.020389,0.342643,0.001772,  39.601
   303.6,0.032997,0.020399,0.341652,0.001810,  39.602
   303.8,0.032980,0.020406,0.340616,0.001799,  39.605
   304.0,0.032963,0.020422,0.339423,0.001799,  39.607
   304.2,0.032946,0.020437,0.338761,0.001850,  39.607
   304.4,0.032927,0.020433,0.338322,0.001826,  39.608
   304.6,0.032910,0.020441,0.338037,0.001853,  39.608
   304.8,0.032889,0.020443,0.337634,0.001890,  39.612
   305.0,0.032876,0.020440,0.337232,0.001866,  39.611
   305.2,0.032863,0.020432,0.336830,0.001866,  39.614
   305.4,0.032846,0.020429,0.336472,0.001903,  39.619
   305.6,0.032829,0.020427,0.336055,0.001879,  39.615
   305.8,0.032806,0.020419,0.335681,0.001866,  39.621
   306.0,0.032779,0.020415,0.335292,0.001903,  39.622
   306.2,0.032746,0.020410,0.334803,0.001903,  39.621
   306.4,0.032723,0.020400,0.334268,0.001879,  39.622
   306.6,0.032693,0.020395,0.333715,0.001879,  39.624
   306.8,0.032667,0.020386,0.333332,0.001917,  39.625
   307.0,0.032648,0.020363,0.332949,0.001893,  39.625
   307.2,0.032629,0.020343,0.332594,0.001930,  39.626
   307.4,0.032605,0.020323,0.332238,0.001930,  39.627
   307.6,0.032578,0.020311,0.331918,0.001906,  39.623
   307.8,0.032565,0.020297,0.331564,0.001879,  39.622
   308.0,0.032552,0.020279,0.331201,0.001903,  39.623
   308.2,0.032541,0.020265,0.330882,0.001853,  39.625
   308.4,0.032545,0.020253,0.330563,0.001826,  39.622
   308.6,0.032559,0.020244,0.330079,0.001823,  39.626
   308.8,0.032569,0.020231,0.329465,0.001772,  39.627
   309.0,0.032593,0.020223,0.328757,0.001759,  39.624
   309.2,0.032624,0.020216,0.328164,0.001770,  39.622
   309.4,0.032633,0.020208,0.327572,0.001719,  39.623
   309.6,0.032651,0.020213,0.326954,0.001706,  39.627
   309.8,0.032657,0.020216,0.326416,0.001717,  39.625
   310.0,0.032663,0.020234,0.325955,0.001666,  39.628
   310.2,0.032677,0.020251,0.325419,0.001652,  39.628
   310.4,0.032684,0.020281,0.324796,0.001690,  39.625
   310.6,0.032691,0.020298,0.324121,0.001679,  39.634
   310.8,0.032694,0.020314,0.323362,0.001692,  39.629
   311.0,0.032698,0.020324,0.322698,0.001743,  39.628
   311.2,0.032698,0.020339,0.322000,0.001732,  39.635
   311.4,0.032693,0.020349,0.321320,0.001759,  39.635
   311.6,0.032701,0.020354,0.320805,0.001810,  39.633
   311.8,0.032698,0.020366,0.320342,0.001799,  39.634
   312.0,0.032691,0.020381,0.319939,0.001799,  39.639
   312.2,0.032684,0.020392,0.319415,0.001850,  39.639
   312.4,0.032678,0.020404,0.318798,0.001826,  39.636
   312.6,0.032665,0.020409,0.318106,0.001877,  39.644
   312.8,0.032647,0.020416,0.317584,0.001914,  39.653
   313.0,0.032638,0.020418,0.317081,0.001890,  39.655
   313.2,0.032628,0.020423,0.316596,0.001903,  39.656
   313.4,0.032604,0.020421,0.316194,0.001917,  39.654
   313.6,0.032598,0.020416,0.315836,0.001893,  39.657
   313.8,0.032584,0.020417,0.315502,0.001893,  39.658
   314.0,0.032557,0.020410,0.315219,0.001930,  39.659
   314.2,0.032544,0.020408,0.314903,0.001906,  39.661
   314.4,0.032521,0.020406,0.314587,0.001943,  39.663
   314.6,0.032480,0.020398,0.314289,0.001981,  39.661
   314.8,0.032450,0.020393,0.313923,0.001981,  39.667
   315.0,0.032424,0.020388,0.313473,0.001943,  39.664
   315.2,0.032389,0.020378,0.313013,0.001943,  39.666
   315.4,0.032367,0.020362,0.312707,0.001943,  39.666
   315.6,0.032339,0.020342,0.312459,0.001919,  39.667
   315.8,0.032316,0.020327,0.312236,0.001943,  39.669
   316.0,0.032292,0.020313,0.311938,0.001930,  39.661
   316.2,0.032271,0.020291,0.311589,0.001906,  39.666
   316.4,0.032262,0.020266,0.311182,0.001879,  39.662
   316.6,0.032245,0.020243,0.310852,0.001903,  39.660
   316.8,0.032241,0.020233,0.310562,0.001853,  39.663
   317.0,0.032262,0.020211,0.310224,0.001826,  39.665
   317.2,0.032279,0.020205,0.309215,0.001837,  39.667
   317.4,0.032288,0.020193,0.307902,0.001786,  39.663
   317.6,0.032322,0.020183,0.306241,0.001759,  39.665
   317.8,0.032346,0.020163,0.305783,0.001783,  39.661
   318.0,0.032352,0.020163,0.305729,0.001746,  39.667
   318.2,0.032373,0.020168,0.306035,0.001719,  39.665
   318.4,0.032376,0.020184,0.305825,0.001730,  39.667
   318.6,0.032383,0.020201,0.305565,0.001679,  39.665
   318.8,0.032389,0.020224,0.305240,0.001679,  39.666
   319.0,0.032389,0.020249,0.304940,0.001717,  39.671
   319.2,0.032389,0.020264,0.304575,0.001692,  39.673
   319.4,0.032385,0.020278,0.304242,0.001706,  39.670
   319.6,0.032393,0.020285,0.303893,0.001746,  39.671
   319.8,0.032393,0.020297,0.303488,0.001786,  39.677
   320.0,0.032385,0.020305,0.303090,0.001799,  39.678
   320.2,0.032389,0.020315,0.302635,0.001812,  39.677
   320.4,0.032383,0.020326,0.302116,0.001826,  39.674
   320.6,0.032372,0.020328,0.301580,0.001839,  39.676
   320.8,0.032373,0.020344,0.301273,0.001839,  39.680
   321.0,0.032363,0.020354,0.300991,0.001853,  39.683
   321.2,0.032345,0.020354,0.300790,0.001853,  39.687
   321.4,0.032342,0.020361,0.300395,0.001866,  39.687
   321.6,0.032329,0.020366,0.299951,0.001879,  39.686
   321.8,0.032315,0.020363,0.299435,0.001879,  39.687
   322.0,0.032306,0.020363,0.299113,0.001893,  39.688
   322.2,0.032289,0.020363,0.298840,0.001906,  39.693
   322.4,0.032261,0.020356,0.298631,0.001893,  39.690
   322.6,0.032242,0.020357,0.298512,0.001893,  39.692
   322.8,0.032212,0.020351,0.298215,0.001906,  39.694
   323.0,0.032174,0.020346,0.297894,0.001906,  39.690
   323.2,0.032148,0.020340,0.297549,0.001906,  39.694
   323.4,0.032115,0.020330,0.297196,0.001906,  39.694
   323.6,0.032088,0.020321,0.296859,0.001906,  39.696
   323.8,0.032058,0.020306,0.296523,0.001906,  39.695
   324.0,0.032035,0.020286,0.296235,0.001906,  39.697
   324.2,0.032015,0.020263,0.295956,0.001919,  39.693
   324.4,0.031992,0.020238,0.295684,0.001906,  39.694
   324.6,0.031987,0.020218,0.295485,0.001906,  39.697
   324.8,0.031977,0.020199,0.295278,0.001906,  39.691
   325.0,0.031964,0.020179,0.295134,0.001893,  39.689
   325.2,0.031961,0.020164,0.294895,0.001853,  39.697
   325.4,0.031979,0.020149,0.294633,0.001839,  39.696
   325.6,0.031995,0.020138,0.294370,0.001826,  39.699
   325.8,0.032019,0.020130,0.294028,0.001786,  39.696
   326.0,0.032046,0.020123,0.293654,0.001772,  39.699
   326.2,0.032066,0.020116,0.293281,0.001759,  39.698
   326.4,0.032083,0.020104,0.292876,0.001732,  39.694
   326.6,0.032086,0.020112,0.292472,0.001732,  39.698
   326.8,0.032092,0.020124,0.292005,0.001732,  39.701
   327.0,0.032097,0.020145,0.291617,0.001706,  39.701
   327.2,0.032097,0.020157,0.291222,0.001706,  39.703
   327.4,0.032097,0.020179,0.290796,0.001706,  39.702
   327.6,0.032097,0.020213,0.290291,0.001692,  39.701
   327.8,0.032090,0.020220,0.289740,0.001706,  39.702
   328.0,0.032086,0.020230,0.289134,0.001732,  39.705
   328.2,0.032083,0.020241,0.288694,0.001772,  39.708
   328.4,0.032076,0.020246,0.288309,0.001799,  39.705
   328.6,0.032062,0.020248,0.287995,0.001812,  39.707
   328.8,0.032056,0.020259,0.287698,0.001826,  39.707
   329.0,0.032056,0.020258,0.287455,0.001853,  39.706
   329.2,0.032042,0.020261,0.287275,0.001879,  39.712
   329.4,0.032032,0.020269,0.286962,0.001879,  39.714
   329.6,0.032026,0.020263,0.286625,0.001893,  39.723
   329.8,0.032005,0.020261,0.286243,0.001906,  39.719
   330.0,0.032000,0.020264,0.285821,0.001906,  39.728
   330.2,0.031994,0.020261,0.285416,0.001933,  39.727
   330.4,0.031966,0.020261,0.284910,0.001933,  39.730
   330.6,0.031954,0.020266,0.284389,0.001933,  39.735
   330.8,0.031933,0.020264,0.284109,0.001946,  39.732
   331.0,0.031899,0.020256,0.283822,0.001946,  39.727
   331.2,0.031873,0.020255,0.283604,0.001933,  39.735
   331.4,0.031833,0.020247,0.283371,0.001933,  39.733
   331.6,0.031796,0.020234,0.283169,0.001933,  39.735
   331.8,0.031766,0.020226,0.282968,0.001933,  39.732
   332.0,0.031726,0.020206,0.282040,0.001933,  39.737
   332.2,0.031689,0.020185,0.280715,0.001933,  39.731
   332.4,0.031666,0.020163,0.279028,0.001933,  39.734
   332.6,0.031636,0.020133,0.278828,0.001933,  39.738
   332.8,0.031602,0.020107,0.279171,0.001919,  39.734
   333.0,0.031589,0.020085,0.280075,0.001919,  39.735
   333.2,0.031569,0.020061,0.280250,0.001919,  39.731
   333.4,0.031552,0.020037,0.280365,0.001893,  39.734
   333.6,0.031552,0.020019,0.280365,0.001879,  39.735
   333.8,0.031552,0.020004,0.280333,0.001853,  39.743
   334.0,0.031558,0.019983,0.280225,0.001839,  39.735
   334.2,0.031582,0.019970,0.280040,0.001826,  39.739
   334.4,0.031606,0.019961,0.279901,0.001786,  39.739
   334.6,0.031612,0.019948,0.279693,0.001772,  39.737
   334.8,0.031629,0.019941,0.279470,0.001759,  39.737
   335.0,0.031636,0.019939,0.279200,0.001732,  39.740
   335.2,0.031628,0.019946,0.278916,0.001732,  39.739
   335.4,0.031628,0.019959,0.278593,0.001732,  39.741
   335.6,0.031622,0.019976,0.278187,0.001706,  39.745
   335.8,0.031618,0.019991,0.277665,0.001668,  39.742
   336.0,0.031601,0.020005,0.277100,0.001695,  39.742
   336.2,0.031594,0.020017,0.276664,0.001695,  39.740
   336.4,0.031577,0.020021,0.276228,0.001708,  39.741
   336.6,0.031564,0.020029,0.275793,0.001735,  39.745
   336.8,0.031551,0.020027,0.275427,0.001799,  39.744
   337.0,0.031537,0.020018,0.275070,0.001850,  39.746
   337.2,0.031527,0.020021,0.274720,0.001863,  39.748
   337.4,0.031517,0.020018,0.274477,0.001839,  39.747
   337.6,0.031515,0.020015,0.274226,0.001866,  39.745
   337.8,0.031497,0.020007,0.273991,0.001879,  39.741
   338.0,0.031484,0.020007,0.273800,0.001893,  39.752
   338.2,0.031478,0.020010,0.273603,0.001882,  39.751
   338.4,0.031454,0.020006,0.273375,0.001882,  39.751
   338.6,0.031441,0.020004,0.273019,0.001895,  39.755
   338.8,0.031425,0.019999,0.272610,0.001871,  39.753
   339.0,0.031391,0.020000,0.272097,0.001884,  39.759
   339.2,0.031375,0.019993,0.271772,0.001922,  39.757
   339.4,0.031345,0.019982,0.271493,0.001922,  39.755
   339.6,0.031304,0.019978,0.271281,0.001935,  39.756
   339.8,0.031275,0.019970,0.271100,0.001935,  39.763
   340.0,0.031232,0.019955,0.270821,0.001935,  39.759
   340.2,0.031187,0.019948,0.270527,0.001935,  39.763
   340.4,0.031158,0.019932,0.270204,0.001948,  39.762
   340.6,0.031126,0.019909,0.269963,0.001935,  39.764
   340.8,0.031088,0.019887,0.269737,0.001935,  39.761
   341.0,0.031062,0.019857,0.269518,0.001897,  39.761
   341.2,0.031040,0.019829,0.269129,0.001935,  39.761
   341.4,0.031009,0.019797,0.268598,0.001935,  39.758
   341.6,0.030993,0.019767,0.268040,0.001884,  39.759
   341.8,0.030970,0.019740,0.267860,0.001857,  39.757
   342.0,0.030955,0.019718,0.267776,0.001844,  39.758
   342.2,0.030960,0.019706,0.267865,0.001780,  39.760
   342.4,0.030960,0.019686,0.267729,0.001791,  39.756
   342.6,0.030962,0.019673,0.267542,0.001764,  39.758
   342.8,0.030990,0.019652,0.267303,0.001737,  39.761
   343.0,0.031013,0.019646,0.267086,0.001762,  39.760
   343.2,0.031012,0.019644,0.266809,0.001748,  39.758
   343.4,0.031013,0.019636,0.266532,0.001722,  39.759
   343.6,0.031003,0.019636,0.265907,0.001708,  39.760
   343.8,0.030989,0.019645,0.265085,0.001708,  39.758
   344.0,0.030986,0.019663,0.264080,0.001695,  39.760
   344.2,0.030970,0.019693,0.263678,0.001682,  39.758
   344.4,0.030945,0.019706,0.263446,0.001695,  39.762
   344.6,0.030933,0.019708,0.263426,0.001722,  39.761
   344.8,0.030903,0.019710,0.263166,0.001748,  39.761
   345.0,0.030894,0.019713,0.262795,0.001775,  39.763
   345.2,0.030873,0.019706,0.262410,0.001802,  39.766
   345.4,0.030864,0.019699,0.262158,0.001815,  39.762
   345.6,0.030850,0.019694,0.261973,0.001842,  39.761
   345.8,0.030837,0.019681,0.261780,0.001855,  39.768
   346.0,0.030831,0.019665,0.261565,0.001855,  39.764
   346.2,0.030807,0.019651,0.261359,0.001868,  39.767
   346.4,0.030794,0.019641,0.261131,0.001868,  39.772
   346.6,0.030781,0.019634,0.260946,0.001882,  39.769
   346.8,0.030780,0.019627,0.260754,0.001933,  39.769
   347.0,0.030760,0.019624,0.260524,0.001933,  39.774
   347.2,0.030733,0.019617,0.260208,0.001933,  39.780
   347.4,0.030703,0.019615,0.259782,0.001984,  39.778
   347.6,0.030670,0.019615,0.259306,0.001997,  39.781
   347.8,0.030633,0.019611,0.258984,0.001959,  39.779
   348.0,0.030593,0.019603,0.258800,0.001922,  39.780
   348.2,0.030553,0.019590,0.258557,0.001935,  39.780
   348.4,0.030506,0.019572,0.258424,0.001935,  39.779
   348.6,0.030453,0.019549,0.258132,0.001935,  39.779
   348.8,0.030413,0.019523,0.257825,0.001911,  39.783
   349.0,0.030376,0.019504,0.257490,0.001948,  39.782
   349.2,0.030333,0.019480,0.256721,0.001948,  39.783
   349.4,0.030296,0.019447,0.255731,0.001948,  39.782
   349.6,0.030263,0.019415,0.254493,0.001911,  39.780
   349.8,0.030226,0.019387,0.254240,0.001948,  39.779
   350.0,0.030200,0.019349,0.254338,0.001948,  39.779
   350.2,0.030173,0.019312,0.254759,0.001922,  39.781
   350.4,0.030150,0.019282,0.254785,0.001895,  39.778
   350.6,0.030143,0.019257,0.254754,0.001882,  39.782
   350.8,0.030150,0.019238,0.254622,0.001855,  39.784
   351.0,0.030160,0.019220,0.254591,0.001828,  39.783
   351.2,0.030174,0.019205,0.254551,0.001802,  39.780
   351.4,0.030184,0.019189,0.254491,0.001775,  39.780
   351.6,0.030194,0.019185,0.254272,0.001762,  39.779
   351.8,0.030187,0.019174,0.253953,0.001748,  39.784
   352.0,0.030174,0.019172,0.253555,0.001722,  39.781
   352.2,0.030143,0.019180,0.253192,0.001708,  39.784
   352.4,0.030123,0.019190,0.252800,0.001722,  39.785
   352.6,0.030096,0.019209,0.252408,0.001708,  39.785
   352.8,0.030074,0.019227,0.251710,0.001708,  39.784
   353.0,0.030047,0.019232,0.250835,0.001735,  39.780
   353.2,0.030017,0.019227,0.249800,0.001748,  39.787
   353.4,0.029973,0.019212,0.249291,0.001775,  39.786
   353.6,0.029950,0.019204,0.248960,0.001802,  39.789
   353.8,0.029930,0.019192,0.248821,0.001815,  39.792
   354.0,0.029913,0.019176,0.248626,0.001828,  39.791
   354.2,0.029904,0.019159,0.248467,0.001842,  39.794
   354.4,0.029888,0.019141,0.248386,0.001855,  39.802
   354.6,0.029871,0.019119,0.248306,0.001882,  39.801
   354.8,0.029854,0.019096,0.248204,0.001895,  39.805
   355.0,0.029834,0.019088,0.248139,0.001908,  39.804
   355.2,0.029814,0.019081,0.247902,0.001908,  39.809
   355.4,0.029791,0.019071,0.247559,0.001922,  39.812
   355.6,0.029765,0.019063,0.247175,0.001935,  39.812
   355.8,0.029728,0.019059,0.246832,0.001922,  39.812
   356.0,0.029685,0.019051,0.246498,0.001935,  39.816
   356.2,0.029645,0.019046,0.246135,0.001935,  39.822
   356.4,0.029598,0.019035,0.245851,0.001948,  39.817
   356.6,0.029548,0.019018,0.245607,0.001962,  39.817
   356.8,0.029502,0.019001,0.245388,0.001948,  39.819
   357.0,0.029449,0.018977,0.245173,0.001948,  39.820
   357.2,0.029406,0.018949,0.244672,0.001999,  39.822
   357.4,0.029359,0.018925,0.244010,0.001986,  39.822
   357.6,0.029312,0.018889,0.243268,0.001986,  39.823
   357.8,0.029280,0.018851,0.243034,0.001986,  39.823
   358.0,0.029239,0.018824,0.242987,0.001986,  39.822
   358.2,0.029210,0.018786,0.243142,0.001986,  39.822
   358.4,0.029184,0.018751,0.243026,0.001935,  39.819
   358.6,0.029150,0.018724,0.242925,0.001922,  39.822
   358.8,0.029138,0.018694,0.242776,0.001871,  39.820
   359.0,0.029121,0.018658,0.242611,0.001882,  39.822
   359.2,0.029104,0.018635,0.242426,0.001855,  39.821
   359.4,0.029104,0.018611,0.242257,0.001842,  39.822
   359.6,0.029110,0.018589,0.242051,0.001815,  39.823
   359.8,0.029103,0.018566,0.241797,0.001802,  39.825
   360.0,0.029107,0.018552,0.241531,0.001788,  39.828
   360.2,0.029105,0.018546,0.241173,0.001762,  39.826
   360.4,0.029080,0.018540,0.240758,0.001748,  39.828
   360.6,0.029065,0.018546,0.240232,0.001735,  39.826
   360.8,0.029028,0.018560,0.239754,0.001722,  39.830
   361.0,0.028991,0.018567,0.239249,0.001735,  39.828
   361.2,0.028962,0.018569,0.238737,0.001735,  39.830
   361.4,0.028922,0.018579,0.238149,0.001722,  39.828
   361.6,0.028881,0.018571,0.237542,0.001748,  39.832
   361.8,0.028841,0.018564,0.236868,0.001775,  39.836
   362.0,0.028802,0.018547,0.236422,0.001788,  39.833
   362.2,0.028775,0.018529,0.236025,0.001815,  39.836
   362.4,0.028744,0.018511,0.235699,0.001842,  39.835
   362.6,0.028732,0.018491,0.235508,0.001842,  39.837
   362.8,0.028719,0.018463,0.235346,0.001855,  39.845
   363.0,0.028691,0.018441,0.235314,0.001868,  39.844
   363.2,0.028668,0.018416,0.235187,0.001882,  39.840
   363.4,0.028652,0.018396,0.235013,0.001895,  39.840
   363.6,0.028621,0.018380,0.234819,0.001908,  39.847
   363.8,0.028596,0.018366,0.234486,0.001908,  39.850
   364.0,0.028570,0.018356,0.234058,0.001935,  39.846
   364.2,0.028526,0.018349,0.233527,0.001948,  39.850
   364.4,0.028490,0.018340,0.233168,0.001948,  39.849
   364.6,0.028441,0.018319,0.232808,0.001962,  39.851
   364.8,0.028387,0.018310,0.232477,0.001962,  39.855
   365.0,0.028344,0.018296,0.232154,0.001975,  39.849
   365.2,0.028288,0.018270,0.231858,0.001988,  39.852
   365.4,0.028228,0.018250,0.231543,0.001975,  39.851
   365.6,0.028182,0.018222,0.231264,0.001975,  39.854
   365.8,0.028136,0.018185,0.230800,0.001975,  39.853
   366.0,0.028083,0.018153,0.230262,0.001975,  39.856
   366.2,0.028036,0.018109,0.229643,0.001975,  39.855
   366.4,0.028001,0.018069,0.229369,0.001975,  39.855
   366.6,0.027957,0.018034,0.229236,0.001975,  39.859
   366.8,0.027928,0.017997,0.229197,0.001911,  39.856
   367.0,0.027899,0.017964,0.228942,0.001935,  39.860
   367.2,0.027872,0.017931,0.228602,0.001922,  39.860
   367.4,0.027852,0.017901,0.228177,0.001908,  39.860
   367.6,0.027843,0.017873,0.227978,0.001882,  39.862
   367.8,0.027841,0.017850,0.227817,0.001868,  39.861
   368.0,0.027842,0.017832,0.227747,0.001804,  39.863
   368.2,0.027854,0.017814,0.227400,0.001791,  39.865
   368.4,0.027844,0.017799,0.226933,0.001791,  39.861
   368.6,0.027820,0.017783,0.226373,0.001726,  39.865
   368.8,0.027796,0.017776,0.226070,0.001737,  39.867
   369.0,0.027765,0.017773,0.225813,0.001724,  39.869
   369.2,0.027727,0.017782,0.225622,0.001673,  39.870
   369.4,0.027706,0.017793,0.225191,0.001697,  39.870
   369.6,0.027666,0.017788,0.224676,0.001697,  39.872
   369.8,0.027613,0.017788,0.224049,0.001660,  39.874
   370.0,0.027570,0.017787,0.223593,0.001724,  39.872
   370.2,0.027531,0.017774,0.223156,0.001751,  39.869
   370.4,0.027480,0.017753,0.222738,0.001740,  39.876
   370.6,0.027451,0.017733,0.222426,0.001804,  39.873
   370.8,0.027425,0.017711,0.222148,0.001831,  39.875
   371.0,0.027391,0.017680,0.221879,0.001806,  39.875
   371.2,0.027385,0.017658,0.221609,0.001844,  39.877
   371.4,0.027369,0.017630,0.221383,0.001857,  39.880
   371.6,0.027338,0.017608,0.221145,0.001833,  39.885
   371.8,0.027315,0.017580,0.220673,0.001884,  39.893
   372.0,0.027284,0.017560,0.220103,0.001911,  39.890
   372.2,0.027254,0.017545,0.219423,0.001873,  39.890
   372.4,0.027207,0.017532,0.219094,0.001911,  39.890
   372.6,0.027168,0.017514,0.218894,0.001924,  39.893
   372.8,0.027125,0.017502,0.218786,0.001911,  39.892
   373.0,0.027065,0.017495,0.218540,0.001948,  39.893
   373.2,0.027019,0.017477,0.218330,0.001962,  39.896
   373.4,0.026966,0.017455,0.218092,0.001962,  39.893
   373.6,0.026899,0.017436,0.217799,0.001962,  39.896
   373.8,0.026847,0.017408,0.217406,0.001975,  39.890
   374.0,0.026787,0.017383,0.216958,0.001951,  39.898
   374.2,0.026734,0.017350,0.216556,0.001951,  39.895
   374.4,0.026681,0.017312,0.216172,0.001964,  39.895
   374.6,0.026631,0.017277,0.215786,0.001927,  39.895
   374.8,0.026592,0.017232,0.215366,0.001951,  39.898
   375.0,0.026546,0.017189,0.215279,0.001938,  39.899
   375.2,0.026506,0.017152,0.215335,0.001938,  39.898
   375.4,0.026470,0.017112,0.215481,0.001924,  39.897
   375.6,0.026438,0.017074,0.215325,0.001897,  39.894
   375.8,0.026411,0.017042,0.215105,0.001847,  39.899
   376.0,0.026387,0.017016,0.214734,0.001871,  39.897
   376.2,0.026378,0.016983,0.214498,0.001844,  39.898
   376.4,0.026369,0.016955,0.214316,0.001831,  39.901
   376.6,0.026365,0.016932,0.214115,0.001766,  39.903
   376.8,0.026380,0.016906,0.213816,0.001791,  39.896
   377.0,0.026361,0.016897,0.213438,0.001791,  39.897
   377.2,0.026320,0.016890,0.213031,0.001726,  39.902
   377.4,0.026291,0.016883,0.212601,0.001737,  39.905
   377.6,0.026258,0.016886,0.212119,0.001724,  39.907
   377.8,0.026208,0.016902,0.211558,0.001686,  39.903
   378.0,0.026172,0.016897,0.210908,0.001711,  39.903
   378.2,0.026126,0.016894,0.210223,0.001724,  39.909
   378.4,0.026063,0.016879,0.209434,0.001700,  39.909
   378.6,0.026011,0.016871,0.208806,0.001764,  39.911
   378.8,0.025965,0.016856,0.208265,0.001791,  39.912
   379.0,0.025911,0.016836,0.207788,0.001766,  39.913
   379.2,0.025876,0.016811,0.207433,0.001817,  39.908
   379.4,0.025843,0.016781,0.207173,0.001844,  39.910
   379.6,0.025802,0.016746,0.206982,0.001806,  39.910
   379.8,0.025786,0.016715,0.206571,0.001857,  39.911
   380.0,0.025763,0.016688,0.206062,0.001871,  39.910
   380.2,0.025733,0.016660,0.205422,0.001860,  39.913
   380.4,0.025724,0.016635,0.205119,0.001897,  39.913
   380.6,0.025704,0.016612,0.204955,0.001911,  39.916
   380.8,0.025657,0.016597,0.204838,0.001887,  39.916
   381.0,0.025622,0.016581,0.204590,0.001924,  39.916
   381.2,0.025569,0.016566,0.204256,0.001938,  39.920
   381.4,0.025520,0.016556,0.203904,0.001900,  39.911
   381.6,0.025459,0.016540,0.203604,0.001938,  39.918
   381.8,0.025404,0.016514,0.203304,0.001951,  39.920
   382.0,0.025348,0.016498,0.202987,0.001913,  39.914
   382.2,0.025281,0.016469,0.202661,0.001951,  39.916
   382.4,0.025230,0.016433,0.202344,0.001964,  39.918
   382.6,0.025177,0.016404,0.202043,0.001927,  39.920
   382.8,0.025117,0.016369,0.201752,0.001951,  39.924
   383.0,0.025072,0.016327,0.201469,0.001964,  39.921
   383.2,0.025026,0.016282,0.201195,0.001927,  39.917
   383.4,0.024972,0.016239,0.200963,0.001964,  39.925
   383.6,0.024933,0.016196,0.200758,0.001964,  39.926
   383.8,0.024894,0.016159,0.200553,0.001900,  39.921
   384.0,0.024858,0.016130,0.200373,0.001911,  39.926
   384.2,0.024829,0.016100,0.200135,0.001897,  39.924
   384.4,0.024817,0.016064,0.199896,0.001884,  39.927
   384.6,0.024804,0.016031,0.199632,0.001857,  39.930
   384.8,0.024791,0.016001,0.199170,0.001844,  39.926
   385.0,0.024785,0.015971,0.198647,0.001793,  39.931
   385.2,0.024775,0.015947,0.198013,0.001817,  39.928
   385.4,0.024754,0.015932,0.197640,0.001791,  39.935
   385.6,0.024728,0.015919,0.197362,0.001791,  39.934
   385.8,0.024689,0.015925,0.197111,0.001740,  39.933
   386.0,0.024639,0.015928,0.196689,0.001726,  39.938
   386.2,0.024597,0.015923,0.196180,0.001726,  39.930
   386.4,0.024544,0.015926,0.195579,0.001713,  39.940
   386.6,0.024491,0.015913,0.195006,0.001700,  39.937
   386.8,0.024439,0.015894,0.194416,0.001713,  39.935
   387.0,0.024383,0.015863,0.193751,0.001740,  39.942
   387.2,0.024331,0.015841,0.193221,0.001766,  39.938
   387.4,0.024281,0.015818,0.192725,0.001793,  39.935
   387.6,0.024246,0.015801,0.192262,0.001806,  39.937
   387.8,0.024225,0.015778,0.191977,0.001820,  39.935
   388.0,0.024188,0.015754,0.191818,0.001833,  39.935
   388.2,0.024155,0.015725,0.191720,0.001847,  39.937
   388.4,0.024133,0.015686,0.191518,0.001847,  39.935
   388.6,0.024103,0.015659,0.191300,0.001860,  39.936
   388.8,0.024088,0.015631,0.191015,0.001873,  39.930
   389.0,0.024054,0.015602,0.190671,0.001887,  39.934
   389.2,0.024039,0.015582,0.190303,0.001900,  39.936
   389.4,0.023989,0.015565,0.189835,0.001900,  39.939
   389.6,0.023936,0.015550,0.189469,0.001900,  39.935
   389.8,0.023877,0.015527,0.189137,0.001913,  39.935
   390.0,0.023810,0.015509,0.188804,0.001913,  39.934
   390.2,0.023751,0.015492,0.188447,0.001927,  39.938
   390.4,0.023696,0.015465,0.188073,0.001927,  39.937
   390.6,0.023633,0.015438,0.187657,0.001927,  39.936
   390.8,0.023568,0.015407,0.187375,0.001927,  39.938
   391.0,0.023509,0.015372,0.187128,0.001940,  39.935
   391.2,0.023449,0.015338,0.186897,0.001940,  39.938
   391.4,0.023394,0.015292,0.186641,0.001940,  39.934
   391.6,0.023349,0.015249,0.186385,0.001940,  39.930
   391.8,0.023295,0.015205,0.186104,0.001940,  39.938
   392.0,0.023250,0.015154,0.185839,0.001913,  39.938
   392.2,0.023214,0.015115,0.185565,0.001900,  39.932
   392.4,0.023171,0.015072,0.185266,0.001873,  39.935
   392.6,0.023146,0.015036,0.184967,0.001847,  39.936
   392.8,0.023124,0.014995,0.184686,0.001833,  39.940
   393.0,0.023097,0.014960,0.184431,0.001820,  39.933
   393.2,0.023091,0.014936,0.184178,0.001793,  39.938
   393.4,0.023081,0.014903,0.183890,0.001780,  39.933
   393.6,0.023057,0.014881,0.183569,0.001766,  39.936
   393.8,0.023039,0.014859,0.183232,0.001753,  39.936
   394.0,0.023016,0.014844,0.182805,0.001777,  39.938
   394.2,0.022983,0.014837,0.182313,0.001740,  39.934
   394.4,0.022937,0.014840,0.181731,0.001726,  39.931
   394.6,0.022892,0.014830,0.181166,0.001713,  39.930
   394.8,0.022843,0.014819,0.180536,0.001713,  39.929
   395.0,0.022780,0.014817,0.179842,0.001726,  39.932
   395.2,0.022728,0.014796,0.179248,0.001726,  39.928
   395.4,0.022673,0.014772,0.178670,0.001740,  39.928
   395.6,0.022610,0.014750,0.178045,0.001766,  39.929
   395.8,0.022565,0.014725,0.177550,0.001793,  39.927
   396.0,0.022522,0.014706,0.177145,0.001820,  39.927
   396.2,0.022475,0.014684,0.176739,0.001820,  39.927
   396.4,0.022450,0.014668,0.175961,0.001820,  39.930
   396.6,0.022421,0.014629,0.175045,0.001847,  39.929
   396.8,0.022384,0.014600,0.173947,0.001860,  39.925
   397.0,0.022362,0.014562,0.173706,0.001873,  39.929
   397.2,0.022326,0.014529,0.173803,0.001887,  39.930
   397.4,0.022283,0.014515,0.174256,0.001900,  39.928
   397.6,0.022251,0.014496,0.174144,0.001913,  39.930
   397.8,0.022212,0.014473,0.173887,0.001927,  39.934
   398.0,0.022165,0.014460,0.173526,0.001927,  39.936
   398.2,0.022141,0.014451,0.173302,0.001927,  39.933
   398.4,0.022098,0.014433,0.173053,0.001940,  39.932
   398.6,0.022038,0.014415,0.172837,0.001940,  39.934
   398.8,0.021973,0.014395,0.172517,0.001940,  39.936
   399.0,0.021912,0.014365,0.172140,0.001953,  39.930
   399.2,0.021853,0.014333,0.171715,0.001953,  39.933
   399.4,0.021791,0.014290,0.171443,0.001940,  39.936
   399.6,0.021729,0.014248,0.171188,0.001940,  39.935
   399.8,0.021681,0.014205,0.170964,0.001940,  39.940
   400.0,0.021630,0.014164,0.170749,0.001940,  39.935
   400.2,0.021589,0.014116,0.170558,0.001927,  39.934
   400.4,0.021536,0.014074,0.170366,0.001927,  39.928
   400.6,0.021494,0.014037,0.170151,0.001913,  39.932
   400.8,0.021447,0.013995,0.169936,0.001900,  39.931
   401.0,0.021407,0.013960,0.169705,0.001873,  39.935
   401.2,0.021381,0.013934,0.169490,0.001847,  39.930
   401.4,0.021362,0.013894,0.169275,0.001833,  39.935
   401.6,0.021343,0.013857,0.169005,0.001806,  39.932
   401.8,0.021330,0.013828,0.168774,0.001780,  39.933
   402.0,0.021323,0.013795,0.168424,0.001766,  39.936
   402.2,0.021297,0.013773,0.167987,0.001740,  39.931
   402.4,0.021268,0.013761,0.167480,0.001726,  39.932
   402.6,0.021235,0.013745,0.166989,0.001713,  39.935
   402.8,0.021199,0.013735,0.166467,0.001713,  39.934
   403.0,0.021157,0.013735,0.165898,0.001662,  39.931
   403.2,0.021108,0.013719,0.165306,0.001686,  39.935
   403.4,0.021059,0.013702,0.164668,0.001662,  39.932
   403.6,0.021003,0.013685,0.164015,0.001675,  39.934
   403.8,0.020941,0.013657,0.163402,0.001726,  39.930
   404.0,0.020889,0.013641,0.162790,0.001753,  39.939
   404.2,0.020840,0.013625,0.162187,0.001780,  39.939
   404.4,0.020792,0.013594,0.161749,0.001793,  39.936
   404.6,0.020756,0.013564,0.161373,0.001820,  39.935
   404.8,0.020720,0.013535,0.161053,0.001796,  39.934
   405.0,0.020687,0.013510,0.160858,0.001809,  39.934
   405.2,0.020658,0.013488,0.160725,0.001836,  39.940
   405.4,0.020629,0.013472,0.160670,0.001798,  39.939
   405.6,0.020599,0.013456,0.160475,0.001836,  39.938
   405.8,0.020564,0.013428,0.160202,0.001849,  39.939
   406.0,0.020524,0.013408,0.159899,0.001811,  39.943
   406.2,0.020479,0.013394,0.159564,0.001862,  39.938
   406.4,0.020434,0.013376,0.159183,0.001876,  39.936
   406.6,0.020390,0.013363,0.158786,0.001838,  39.944
   406.8,0.020332,0.013350,0.158328,0.001889,  39.940
   407.0,0.020270,0.013334,0.157802,0.001889,  39.942
   407.2,0.020209,0.013313,0.157237,0.001851,  39.943
   407.4,0.020136,0.013290,0.156904,0.001889,  39.941
   407.6,0.020084,0.013258,0.156664,0.001902,  39.942
   407.8,0.020034,0.013225,0.156502,0.001878,  39.943
   408.0,0.019995,0.013193,0.156300,0.001916,  39.940
   408.2,0.019970,0.013150,0.156099,0.001929,  39.943
   408.4,0.019917,0.013108,0.155898,0.001892,  39.941
   408.6,0.019876,0.013069,0.155690,0.001902,  39.941
   408.8,0.019824,0.013024,0.155474,0.001889,  39.940
   409.0,0.019771,0.012987,0.155265,0.001838,  39.939
   409.2,0.019728,0.012945,0.155041,0.001862,  39.942
   409.4,0.019697,0.012903,0.154810,0.001849,  39.940
   409.6,0.019657,0.012867,0.154564,0.001771,  39.939
   409.8,0.019634,0.012831,0.154264,0.001782,  39.939
   410.0,0.019622,0.012793,0.153926,0.001769,  39.939
   410.2,0.019602,0.012763,0.153512,0.001718,  39.942
   410.4,0.019596,0.012737,0.153159,0.001729,  39.939
   410.6,0.019591,0.012716,0.152798,0.001716,  39.941
   410.8,0.019557,0.012693,0.152415,0.001678,  39.939
   411.0,0.019532,0.012684,0.152017,0.001702,  39.936
   411.2,0.019501,0.012679,0.151635,0.001702,  39.933
   411.4,0.019454,0.012671,0.151199,0.001651,  39.934
   411.6,0.019409,0.012674,0.150788,0.001662,  39.936
   411.8,0.019371,0.012662,0.150004,0.001675,  39.937
   412.0,0.019311,0.012647,0.149063,0.001665,  39.933
   412.2,0.019260,0.012630,0.148004,0.001729,  39.936
   412.4,0.019200,0.012614,0.147399,0.001756,  39.937
   412.6,0.019144,0.012589,0.146990,0.001731,  39.939
   412.8,0.019109,0.012567,0.146718,0.001782,  39.935
   413.0,0.019067,0.012537,0.146393,0.001796,  39.940
   413.2,0.019024,0.012504,0.146144,0.001785,  39.935
   413.4,0.018999,0.012469,0.145903,0.001836,  39.935
   413.6,0.018969,0.012434,0.145736,0.001836,  39.935
   413.8,0.018933,0.012406,0.145608,0.001849,  39.936
   414.0,0.018914,0.012386,0.145502,0.001825,  39.940
   414.2,0.018885,0.012370,0.145388,0.001876,  39.938
   414.4,0.018839,0.012352,0.145243,0.001902,  39.942
   414.6,0.018804,0.012339,0.145099,0.001865,  39.946
   414.8,0.018752,0.012330,0.144835,0.001902,  39.954
   415.0,0.018696,0.012312,0.144497,0.001916,  39.957
   415.2,0.018648,0.012305,0.144084,0.001892,  39.951
   415.4,0.018587,0.012293,0.143753,0.001916,  39.954
   415.6,0.018524,0.012271,0.143430,0.001916,  39.957
   415.8,0.018473,0.012252,0.143130,0.001892,  39.957
   416.0,0.018408,0.012230,0.142793,0.001929,  39.951
   416.2,0.018353,0.012198,0.142427,0.001929,  39.957
   416.4,0.018302,0.012163,0.142077,0.001892,  39.959
   416.6,0.018257,0.012126,0.141800,0.001929,  39.957
   416.8,0.018215,0.012086,0.141583,0.001929,  39.959
   417.0,0.018176,0.012041,0.141410,0.001892,  39.954
   417.2,0.018147,0.011998,0.140557,0.001929,  39.959
   417.4,0.018121,0.011953,0.139404,0.001916,  39.953
   417.6,0.018082,0.011917,0.137985,0.001851,  39.954
   417.8,0.018047,0.011880,0.137609,0.001862,  39.950
   418.0,0.018008,0.011840,0.137534,0.001849,  39.952
   418.2,0.017982,0.011806,0.137839,0.001785,  39.950
   418.4,0.017955,0.011770,0.137785,0.001809,  39.953
   418.6,0.017946,0.011735,0.137665,0.001796,  39.956
   418.8,0.017919,0.011709,0.137545,0.001745,  39.951
   419.0,0.017900,0.011682,0.137102,0.001756,  39.954
   419.2,0.017884,0.011659,0.136491,0.001756,  39.950
   419.4,0.017855,0.011644,0.135728,0.001691,  39.954
   419.6,0.017822,0.011641,0.135343,0.001716,  39.948
   419.8,0.017785,0.011625,0.135105,0.001716,  39.951
   420.0,0.017739,0.011623,0.134999,0.001678,  39.951
   420.2,0.017686,0.011625,0.134695,0.001702,  39.954
   420.4,0.017639,0.011616,0.134385,0.001716,  39.953
   420.6,0.017587,0.011596,0.134053,0.001705,  39.950
   420.8,0.017525,0.011574,0.133693,0.001756,  39.953
   421.0,0.017474,0.011555,0.133304,0.001782,  39.952
   421.2,0.017432,0.011530,0.132886,0.001758,  39.948
   421.4,0.017387,0.011496,0.132455,0.001809,  39.951
   421.6,0.017366,0.011461,0.132220,0.001822,  39.951
   421.8,0.017345,0.011434,0.132051,0.001798,  39.951
   422.0,0.017316,0.011407,0.131926,0.001849,  39.948
   422.2,0.017297,0.011377,0.131209,0.001849,  39.953
   422.4,0.017279,0.011355,0.130272,0.001825,  39.951
   422.6,0.017250,0.011336,0.129023,0.001876,  39.955
   422.8,0.017210,0.011310,0.128748,0.001889,  39.955
   423.0,0.017171,0.011301,0.128816,0.001902,  39.955
   423.2,0.017126,0.011290,0.129228,0.001878,  39.960
   423.4,0.017074,0.011269,0.129153,0.001916,  39.962
   423.6,0.017023,0.011258,0.128991,0.001929,  39.961
   423.8,0.016965,0.011246,0.128744,0.001942,  39.963
   424.0,0.016903,0.011229,0.128533,0.001967,  39.965
   424.2,0.016848,0.011206,0.128300,0.001967,  39.966
   424.4,0.016790,0.011189,0.128032,0.001942,  39.966
   424.6,0.016729,0.011171,0.127828,0.001942,  39.966
   424.8,0.016667,0.011142,0.127582,0.001942,  39.965
   425.0,0.016618,0.011108,0.127379,0.001918,  39.965
   425.2,0.016570,0.011064,0.127154,0.001942,  39.964
   425.4,0.016517,0.011021,0.126908,0.001942,  39.964
   425.6,0.016475,0.010984,0.126678,0.001905,  39.962
   425.8,0.016441,0.010948,0.126489,0.001929,  39.959
   426.0,0.016408,0.010906,0.126336,0.001916,  39.962
   426.2,0.016375,0.010864,0.126212,0.001851,  39.957
   426.4,0.016363,0.010828,0.126045,0.001862,  39.956
   426.6,0.016344,0.010789,0.125784,0.001849,  39.956
   426.8,0.016320,0.010758,0.125517,0.001785,  39.956
   427.0,0.016312,0.010734,0.125193,0.001809,  39.959
   427.2,0.016299,0.010707,0.124807,0.001796,  39.953
   427.4,0.016287,0.010680,0.124343,0.001745,  39.952
   427.6,0.016261,0.010657,0.123694,0.001756,  39.948
   427.8,0.016235,0.010645,0.122912,0.001742,  39.952
   428.0,0.016214,0.010637,0.121983,0.001691,  39.949
   428.2,0.016178,0.010632,0.121505,0.001702,  39.949
   428.4,0.016132,0.010625,0.121209,0.001678,  39.950
   428.6,0.016090,0.010620,0.121061,0.001678,  39.950
   428.8,0.016042,0.010610,0.120760,0.001678,  39.951
   429.0,0.016001,0.010595,0.120416,0.001667,  39.954
   429.2,0.015949,0.010578,0.120110,0.001718,  39.951
   429.4,0.015900,0.010554,0.119761,0.001745,  39.954
   429.6,0.015863,0.010535,0.119482,0.001734,  39.952
   429.8,0.015820,0.010513,0.119219,0.001785,  39.954
   430.0,0.015787,0.010489,0.118961,0.001798,  39.949
   430.2,0.015766,0.010462,0.118776,0.001811,  39.950
   430.4,0.015733,0.010435,0.118619,0.001787,  39.954
   430.6,0.015714,0.010402,0.118492,0.001801,  39.953
   430.8,0.015696,0.010380,0.117750,0.001851,  39.958
   431.0,0.015660,0.010361,0.116727,0.001827,  39.956
   431.2,0.015635,0.010344,0.115412,0.001841,  39.957
   431.4,0.015600,0.010332,0.115098,0.001892,  39.962
   431.6,0.015554,0.010318,0.115114,0.001867,  39.964
   431.8,0.015513,0.010300,0.115489,0.001918,  39.962
   432.0,0.015458,0.010278,0.115518,0.001905,  39.964
   432.2,0.015399,0.010269,0.115519,0.001867,  39.957
   432.4,0.015349,0.010258,0.115511,0.001918,  39.960
   432.6,0.015298,0.010241,0.115401,0.001905,  39.968
   432.8,0.015236,0.010224,0.115259,0.001881,  39.969
   433.0,0.015181,0.010203,0.115048,0.001932,  39.966
   433.2,0.015134,0.010189,0.114872,0.001932,  39.968
   433.4,0.015082,0.010159,0.114640,0.001907,  39.968
   433.6,0.015034,0.010117,0.114382,0.001945,  39.971
   433.8,0.014996,0.010075,0.114240,0.001932,  39.971
   434.0,0.014950,0.010035,0.114090,0.001894,  39.967
   434.2,0.014908,0.009998,0.113983,0.001932,  39.965
   434.4,0.014880,0.009956,0.113841,0.001905,  39.969
   434.6,0.014844,0.009919,0.113678,0.001854,  39.965
   434.8,0.014826,0.009883,0.113523,0.001841,  39.966
   435.0,0.014811,0.009850,0.113284,0.001814,  39.965
   435.2,0.014802,0.009812,0.112991,0.001750,  39.971
   435.4,0.014774,0.009783,0.112663,0.001736,  39.968
   435.6,0.014775,0.009761,0.112320,0.001747,  39.968
   435.8,0.014769,0.009736,0.111951,0.001709,  39.969
   436.0,0.014742,0.009718,0.111590,0.001696,  39.967
   436.2,0.014721,0.009703,0.111164,0.001707,  39.974
   436.4,0.014699,0.009695,0.110734,0.001656,  39.971
   436.6,0.014671,0.009693,0.110262,0.001643,  39.971
   436.8,0.014628,0.009693,0.109531,0.001667,  39.972
   437.0,0.014597,0.009683,0.108632,0.001629,  39.976
   437.2,0.014558,0.009668,0.107566,0.001667,  39.973
   437.4,0.014506,0.009657,0.107048,0.001718,  39.972
   437.6,0.014462,0.009636,0.106723,0.001707,  39.977
   437.8,0.014420,0.009619,0.106544,0.001771,  39.976
   438.0,0.014371,0.009600,0.106321,0.001785,  39.972
   438.2,0.014337,0.009578,0.106174,0.001774,  39.976
   438.4,0.014304,0.009551,0.106076,0.001838,  39.973
   438.6,0.014279,0.009524,0.106060,0.001838,  39.975
   438.8,0.014261,0.009499,0.105995,0.001827,  39.976
   439.0,0.014235,0.009478,0.105951,0.001865,  39.978
   439.2,0.014209,0.009459,0.105920,0.001865,  39.977
   439.4,0.014187,0.009434,0.105680,0.001865,  39.977
   439.6,0.014158,0.009423,0.105340,0.001841,  39.977
   439.8,0.014123,0.009411,0.104868,0.001854,  39.980
   440.0,0.014084,0.009393,0.104587,0.001905,  39.987
   440.2,0.014046,0.009383,0.104345,0.001881,  39.985
   440.4,0.014001,0.009368,0.104112,0.001881,  39.983
   440.6,0.013950,0.009345,0.103898,0.001918,  39.986
   440.8,0.013898,0.009329,0.103698,0.001894,  39.982
   441.0,0.013844,0.009310,0.103485,0.001932,  39.987
   441.2,0.013786,0.009284,0.103284,0.001932,  39.986
   441.4,0.013738,0.009257,0.103092,0.001945,  39.990
   441.6,0.013683,0.009229,0.102879,0.001945,  39.989
   441.8,0.013632,0.009205,0.102699,0.001969,  39.990
   442.0,0.013591,0.009175,0.102561,0.001983,  39.991
   442.2,0.013549,0.009149,0.102422,0.001945,  39.991
   442.4,0.013510,0.009126,0.102251,0.001969,  39.990
   442.6,0.013475,0.009089,0.102026,0.001932,  39.987
   442.8,0.013437,0.009053,0.101801,0.001918,  39.990
   443.0,0.013402,0.009009,0.101596,0.001892,  39.990
   443.2,0.013379,0.008969,0.101359,0.001841,  39.995
   443.4,0.013357,0.008939,0.101130,0.001865,  39.990
   443.6,0.013351,0.008915,0.100852,0.001838,  39.991
   443.8,0.013339,0.008885,0.100513,0.001787,  39.991
   444.0,0.013318,0.008860,0.100154,0.001798,  39.991
   444.2,0.013313,0.008836,0.099808,0.001771,  39.986
   444.4,0.013297,0.008816,0.099450,0.001734,  39.985
   444.6,0.013281,0.008806,0.099059,0.001758,  39.983
   444.8,0.013259,0.008797,0.098661,0.001745,  39.986
   445.0,0.013233,0.008784,0.098235,0.001694,  39.987
   445.2,0.013204,0.008785,0.097777,0.001731,  39.986
   445.4,0.013169,0.008788,0.097279,0.001718,  39.984
   445.6,0.013131,0.008775,0.096749,0.001694,  39.984
   445.8,0.013092,0.008766,0.096187,0.001745,  39.980
   446.0,0.013043,0.008753,0.095756,0.001758,  39.983
   446.2,0.013003,0.008739,0.095418,0.001747,  39.988
   446.4,0.012967,0.008720,0.095120,0.001811,  39.985
   446.6,0.012925,0.008701,0.094863,0.001825,  39.982
   446.8,0.012897,0.008683,0.094674,0.001814,  39.983
   447.0,0.012875,0.008656,0.094526,0.001851,  39.983
   447.2,0.012841,0.008630,0.094422,0.001865,  39.987
   447.4,0.012833,0.008607,0.094330,0.001841,  39.982
   447.6,0.012814,0.008587,0.094314,0.001905,  39.985
   447.8,0.012784,0.008560,0.094198,0.001905,  39.985
   448.0,0.012766,0.008543,0.094090,0.001881,  39.985
   448.2,0.012737,0.008528,0.093937,0.001932,  39.991
   448.4,0.012694,0.008522,0.093772,0.001932,  39.993
   448.6,0.012660,0.008510,0.093499,0.001945,  39.995
   448.8,0.012619,0.008497,0.093154,0.001907,  39.994
   449.0,0.012566,0.008491,0.092777,0.001907,  39.995
   449.2,0.012526,0.008474,0.092517,0.001945,  39.994
   449.4,0.012486,0.008454,0.092276,0.001907,  39.997
   449.6,0.012431,0.008432,0.092069,0.001907,  39.998
   449.8,0.012381,0.008410,0.091873,0.001945,  39.996
   450.0,0.012341,0.008380,0.091685,0.001921,  39.999
   450.2,0.012293,0.008351,0.091518,0.001945,  39.997
   450.4,0.012242,0.008316,0.091286,0.001945,  39.998
   450.6,0.012193,0.008280,0.091035,0.001921,  39.999
   450.8,0.012158,0.008243,0.090747,0.001945,  40.000
   451.0,0.012130,0.008211,0.090568,0.001945,  39.994
   451.2,0.012088,0.008189,0.090413,0.001907,  39.995
   451.4,0.012063,0.008162,0.090258,0.001918,  39.990
   451.6,0.012042,0.008148,0.090039,0.001892,  39.992
   451.8,0.012015,0.008121,0.089756,0.001841,  39.991
   452.0,0.012010,0.008086,0.089450,0.001851,  39.991
   452.2,0.012007,0.008054,0.089204,0.001825,  39.992
   452.4,0.011990,0.008027,0.088977,0.001774,  39.992
   452.6,0.011984,0.007997,0.088751,0.001747,  39.991
   452.8,0.011969,0.007977,0.088541,0.001734,  39.988
   453.0,0.011953,0.007972,0.088351,0.001683,  39.987
   453.2,0.011937,0.007965,0.088185,0.001669,  39.987
   453.4,0.011917,0.007960,0.087777,0.001694,  39.988
   453.6,0.011895,0.007955,0.087223,0.001643,  39.986
   453.8,0.011862,0.007953,0.086575,0.001643,  39.987
   454.0,0.011838,0.007949,0.086078,0.001680,  39.984
   454.2,0.011799,0.007933,0.085593,0.001669,  39.988
   454.4,0.011760,0.007924,0.085101,0.001696,  39.984
   454.6,0.011726,0.007908,0.084739,0.001747,  39.984
   454.8,0.011685,0.007894,0.084448,0.001736,  39.987
   455.0,0.011648,0.007876,0.084224,0.001763,  39.986
   455.2,0.011620,0.007867,0.083989,0.001814,  39.987
   455.4,0.011594,0.007846,0.083761,0.001790,  39.990
   455.6,0.011567,0.007820,0.083550,0.001803,  39.987
   455.8,0.011548,0.007801,0.083413,0.001854,  39.985
   456.0,0.011537,0.007781,0.083307,0.001843,  39.986
   456.2,0.011510,0.007767,0.083260,0.001843,  39.990
   456.4,0.011491,0.007751,0.083224,0.001881,  39.997
   456.6,0.011473,0.007735,0.083017,0.001856,  39.999
   456.8,0.011437,0.007726,0.082770,0.001856,  40.002
   457.0,0.011402,0.007720,0.082473,0.001894,  40.001
   457.2,0.011368,0.007707,0.082227,0.001894,  40.002
   457.4,0.011319,0.007694,0.081942,0.001907,  40.009
   457.6,0.011278,0.007690,0.081684,0.001907,  40.002
   457.8,0.011238,0.007679,0.081481,0.001921,  40.005
   458.0,0.011183,0.007660,0.081298,0.001921,  40.003
   458.2,0.011139,0.007644,0.081118,0.001921,  40.004
   458.4,0.011096,0.007623,0.080935,0.001934,  40.006
   458.6,0.011047,0.007592,0.080760,0.001896,  40.007
   458.8,0.011002,0.007553,0.080592,0.001896,  40.003
   459.0,0.010965,0.007513,0.080448,0.001896,  40.006
   459.2,0.010923,0.007484,0.080355,0.001859,  40.006
   459.4,0.010895,0.007451,0.080253,0.001883,  40.002
   459.6,0.010868,0.007422,0.080090,0.001907,  39.998
   459.8,0.010832,0.007395,0.079934,0.001870,  40.001
   460.0,0.010811,0.007367,0.079721,0.001843,  40.000
   460.2,0.010788,0.007351,0.079488,0.001841,  40.003
   460.4,0.010771,0.007320,0.079224,0.001790,  40.007
   460.6,0.010762,0.007295,0.078917,0.001776,  40.004
   460.8,0.010762,0.007270,0.078716,0.001787,  40.005
   461.0,0.010745,0.007248,0.078498,0.001736,  40.005
   461.2,0.010739,0.007224,0.078320,0.001709,  40.003
   461.4,0.010728,0.007202,0.077859,0.001734,  40.001
   461.6,0.010712,0.007195,0.077238,0.001683,  39.996
   461.8,0.010699,0.007187,0.076494,0.001669,  39.999
   462.0,0.010683,0.007181,0.075676,0.001694,  40.000
   462.2,0.010664,0.007174,0.074732,0.001643,  40.005
   462.4,0.010631,0.007172,0.073681,0.001643,  39.998
   462.6,0.010610,0.007177,0.073309,0.001694,  40.002
   462.8,0.010572,0.007167,0.073254,0.001683,  40.002
   463.0,0.010533,0.007163,0.073497,0.001709,  40.002
   463.2,0.010511,0.007150,0.073442,0.001736,  40.002
   463.4,0.010480,0.007135,0.073425,0.001739,  40.001
   463.6,0.010447,0.007121,0.073432,0.001790,  40.006
   463.8,0.010429,0.007101,0.073309,0.001790,  40.007
   464.0,0.010410,0.007084,0.073106,0.001765,  40.003
   464.2,0.010394,0.007068,0.072813,0.001830,  40.004
   464.4,0.010372,0.007054,0.072740,0.001830,  40.008
   464.6,0.010360,0.007040,0.072743,0.001805,  40.004
   464.8,0.010341,0.007022,0.072799,0.001856,  40.005
   465.0,0.010311,0.007015,0.072757,0.001870,  40.008
   465.2,0.010296,0.007003,0.072684,0.001845,  40.008
   465.4,0.010260,0.006990,0.072603,0.001883,  40.011
   465.6,0.010228,0.006982,0.072499,0.001883,  40.009
   465.8,0.010190,0.006972,0.072327,0.001883,  40.011
   466.0,0.010149,0.006956,0.072117,0.001896,  40.013
   466.2,0.010101,0.006947,0.071885,0.001896,  40.015
   466.4,0.010058,0.006927,0.071694,0.001896,  40.018
   466.6,0.010014,0.006911,0.071504,0.001910,  40.017
   466.8,0.009958,0.006893,0.071340,0.001910,  40.019
   467.0,0.009918,0.006863,0.071229,0.001910,  40.017
   467.2,0.009877,0.006836,0.071129,0.001886,  40.018
   467.4,0.009839,0.006804,0.071056,0.001923,  40.023
   467.6,0.009808,0.006766,0.070953,0.001910,  40.027
   467.8,0.009778,0.006735,0.070823,0.001859,  40.026
   468.0,0.009750,0.006696,0.070660,0.001896,  40.027
   468.2,0.009723,0.006669,0.070519,0.001883,  40.025
   468.4,0.009704,0.006648,0.070386,0.001832,  40.024
   468.6,0.009691,0.006630,0.070214,0.001843,  40.022
   468.8,0.009674,0.006616,0.070017,0.001816,  40.013
   469.0,0.009660,0.006586,0.069815,0.001765,  40.014
   469.2,0.009657,0.006565,0.069569,0.001776,  40.015
   469.4,0.009665,0.006541,0.069303,0.001736,  40.013
   469.6,0.009658,0.006521,0.068996,0.001685,  40.012
   469.8,0.009646,0.006503,0.068652,0.001709,  40.012
   470.0,0.009626,0.006496,0.068142,0.001683,  40.008
   470.2,0.009611,0.006491,0.067517,0.001632,  40.012
   470.4,0.009592,0.006492,0.066757,0.001656,  40.009
   470.6,0.009569,0.006503,0.066418,0.001667,  40.010
   470.8,0.009550,0.006501,0.066244,0.001643,  40.015
   471.0,0.009531,0.006493,0.066162,0.001656,  40.015
   471.2,0.009515,0.006496,0.065921,0.001720,  40.008
   471.4,0.009493,0.006490,0.065641,0.001709,  40.013
   471.6,0.009460,0.006480,0.065341,0.001750,  40.014
   471.8,0.009446,0.006470,0.065167,0.001801,  40.013
   472.0,0.009417,0.006458,0.065038,0.001790,  40.013
   472.2,0.009402,0.006445,0.064974,0.001790,  40.011
   472.4,0.009384,0.006432,0.064746,0.001827,  40.008
   472.6,0.009377,0.006417,0.064458,0.001803,  40.008
   472.8,0.009362,0.006399,0.064101,0.001830,  40.005
   473.0,0.009341,0.006385,0.064037,0.001867,  40.009
   473.2,0.009321,0.006375,0.064061,0.001843,  40.008
   473.4,0.009298,0.006365,0.064202,0.001870,  40.011
   473.6,0.009279,0.006353,0.064186,0.001921,  40.013
   473.8,0.009256,0.006346,0.064117,0.001896,  40.016
   474.0,0.009231,0.006336,0.064061,0.001896,  40.018
   474.2,0.009199,0.006329,0.063951,0.001934,  40.016
   474.4,0.009158,0.006320,0.063783,0.001910,  40.017
   474.6,0.009120,0.006310,0.063555,0.001910,  40.020
   474.8,0.009079,0.006303,0.063298,0.001947,  40.023
   475.0,0.009028,0.006291,0.063167,0.001910,  40.030
   475.2,0.008990,0.006269,0.063002,0.001923,  40.032
   475.4,0.008946,0.006251,0.062908,0.001923,  40.032
   475.6,0.008905,0.006230,0.062788,0.001923,  40.031
   475.8,0.008870,0.006194,0.062668,0.001899,  40.030
   476.0,0.008835,0.006158,0.062537,0.001886,  40.034
   476.2,0.008800,0.006129,0.062418,0.001923,  40.025
   476.4,0.008771,0.006096,0.062306,0.001872,  40.025
   476.6,0.008743,0.006057,0.062164,0.001896,  40.027
   476.8,0.008722,0.006025,0.062026,0.001870,  40.023
   477.0,0.008702,0.006006,0.061895,0.001819,  40.024
   477.2,0.008700,0.005982,0.061735,0.001830,  40.021
   477.4,0.008701,0.005960,0.061530,0.001803,  40.024
   477.6,0.008693,0.005945,0.061296,0.001752,  40.023
   477.8,0.008695,0.005923,0.061014,0.001776,  40.021
   478.0,0.008699,0.005916,0.060684,0.001750,  40.022
   478.2,0.008685,0.005909,0.060288,0.001699,  40.022
   478.4,0.008672,0.005899,0.059826,0.001709,  40.020
   478.6,0.008664,0.005894,0.059555,0.001734,  40.006
   478.8,0.008641,0.005889,0.059335,0.001696,  40.005
   479.0,0.008625,0.005901,0.059201,0.001696,  40.010
   479.2,0.008610,0.005909,0.058984,0.001720,  40.008
   479.4,0.008584,0.005903,0.058767,0.001696,  40.003
   479.6,0.008562,0.005906,0.058577,0.001723,  40.006
   479.8,0.008544,0.005899,0.058300,0.001787,  40.007
   480.0,0.008525,0.005889,0.057935,0.001776,  40.005
   480.2,0.008512,0.005887,0.057539,0.001790,  40.006
   480.4,0.008493,0.005878,0.057288,0.001841,  40.006
   480.6,0.008481,0.005862,0.057093,0.001830,  40.002
   480.8,0.008465,0.005853,0.056925,0.001843,  40.003
   481.0,0.008456,0.005844,0.056854,0.001881,  40.000
   481.2,0.008444,0.005828,0.056877,0.001856,  40.001
   481.4,0.008424,0.005816,0.056965,0.001870,  40.006
   481.6,0.008418,0.005810,0.056912,0.001921,  40.006
   481.8,0.008403,0.005799,0.056822,0.001910,  40.011
   482.0,0.008379,0.005794,0.056686,0.001910,  40.011
   482.2,0.008365,0.005798,0.056557,0.001947,  40.011
   482.4,0.008339,0.005790,0.056438,0.001923,  40.012
   482.6,0.008306,0.005786,0.056288,0.001937,  40.015
   482.8,0.008279,0.005785,0.056130,0.001961,  40.017
   483.0,0.008238,0.005775,0.055925,0.001923,  40.018
   483.2,0.008193,0.005768,0.055710,0.001937,  40.021
   483.4,0.008148,0.005756,0.055458,0.001974,  40.019
   483.6,0.008101,0.005740,0.055282,0.001987,  40.018
   483.8,0.008055,0.005722,0.055106,0.001987,  40.024
   484.0,0.008017,0.005702,0.054949,0.001987,  40.030
   484.2,0.007990,0.005675,0.054878,0.001987,  40.029
   484.4,0.007951,0.005640,0.054847,0.001950,  40.029
   484.6,0.007919,0.005603,0.054870,0.001950,  40.028
   484.8,0.007895,0.005568,0.054836,0.001937,  40.023
   485.0,0.007870,0.005538,0.054765,0.001886,  40.020
   485.2,0.007842,0.005505,0.054703,0.001910,  40.010
   485.4,0.007831,0.005478,0.054621,0.001883,  40.010
   485.6,0.007825,0.005459,0.054485,0.001832,  40.014
   485.8,0.007814,0.005439,0.054349,0.001843,  40.009
   486.0,0.007831,0.005425,0.054166,0.001816,  40.010
   486.2,0.007827,0.005403,0.053935,0.001765,  40.009
   486.4,0.007816,0.005385,0.053676,0.001790,  40.014
   486.6,0.007816,0.005359,0.053446,0.001763,  40.007
   486.8,0.007802,0.005349,0.053209,0.001725,  40.009
   487.0,0.007793,0.005355,0.052953,0.001736,  40.009
   487.2,0.007785,0.005361,0.052567,0.001723,  40.014
   487.4,0.007764,0.005362,0.052103,0.001685,  40.009
   487.6,0.007752,0.005370,0.051565,0.001723,  40.012
   487.8,0.007740,0.005382,0.051263,0.001747,  40.013
   488.0,0.007725,0.005379,0.051029,0.001723,  40.012
   488.2,0.007709,0.005374,0.050850,0.001750,  40.013
   488.4,0.007693,0.005372,0.049943,0.001801,  40.011
   488.6,0.007677,0.005365,0.048722,0.001790,  40.015
   488.8,0.007661,0.005361,0.047135,0.001816,  40.016
   489.0,0.007646,0.005357,0.046935,0.001867,  40.018
   489.2,0.007630,0.005344,0.047242,0.001856,  40.014
   489.4,0.007610,0.005334,0.048056,0.001883,  40.018
   489.6,0.007608,0.005320,0.048347,0.001921,  40.017
   489.8,0.007606,0.005307,0.048619,0.001910,  40.019
   490.0,0.007592,0.005303,0.048892,0.001923,  40.020
   490.2,0.007584,0.005294,0.049008,0.001923,  40.025
   490.4,0.007568,0.005289,0.049003,0.001899,  40.035
   490.6,0.007552,0.005285,0.048941,0.001950,  40.035
   490.8,0.007533,0.005288,0.048907,0.001923,  40.038
   491.0,0.007515,0.005284,0.048826,0.001886,  40.038
   491.2,0.007487,0.005275,0.048726,0.001937,  40.044
   491.4,0.007455,0.005277,0.048700,0.001937,  40.039
   491.6,0.007422,0.005268,0.048684,0.001899,  40.041
   491.8,0.007387,0.005258,0.048668,0.001937,  40.043
   492.0,0.007349,0.005243,0.048663,0.001937,  40.043
   492.2,0.007308,0.005219,0.048554,0.001937,  40.044
   492.4,0.007277,0.005199,0.048425,0.001950,  40.045
   492.6,0.007242,0.005166,0.048242,0.001950,  40.049
   492.8,0.007215,0.005136,0.048180,0.001963,  40.049
   493.0,0.007186,0.005113,0.048139,0.001963,  40.046
   493.2,0.007150,0.005091,0.048133,0.001926,  40.044
   493.4,0.007126,0.005064,0.048092,0.001912,  40.044
   493.6,0.007104,0.005040,0.048076,0.001861,  40.045
   493.8,0.007092,0.005019,0.048032,0.001848,  40.045
   494.0,0.007083,0.005001,0.047905,0.001845,  40.045
   494.2,0.007080,0.004975,0.047697,0.001795,  40.048
   494.4,0.007087,0.004957,0.047449,0.001768,  40.051
   494.6,0.007099,0.004944,0.047269,0.001765,  40.048
   494.8,0.007107,0.004934,0.047089,0.001714,  40.048
   495.0,0.007108,0.004921,0.046909,0.001701,  40.052
   495.2,0.007109,0.004923,0.046692,0.001712,  40.048
   495.4,0.007106,0.004925,0.046448,0.001674,  40.048
   495.6,0.007104,0.004924,0.046212,0.001648,  40.045
   495.8,0.007087,0.004927,0.046006,0.001685,  40.052
   496.0,0.007073,0.004934,0.045819,0.001661,  40.047
   496.2,0.007065,0.004945,0.045631,0.001661,  40.051
   496.4,0.007052,0.004953,0.045416,0.001712,  40.047
   496.6,0.007032,0.004948,0.045146,0.001701,  40.050
   496.8,0.007016,0.004945,0.044875,0.001728,  40.048
   497.0,0.007001,0.004946,0.044678,0.001792,  40.052
   497.2,0.006988,0.004938,0.044489,0.001781,  40.047
   497.4,0.006974,0.004925,0.044325,0.001795,  40.048
   497.6,0.006968,0.004918,0.044264,0.001832,  40.050
   497.8,0.006969,0.004910,0.044258,0.001808,  40.051
   498.0,0.006955,0.004905,0.044316,0.001808,  40.050
   498.2,0.006946,0.004903,0.044245,0.001859,  40.057
   498.4,0.006944,0.004898,0.044117,0.001835,  40.055
   498.6,0.006927,0.004893,0.043936,0.001848,  40.054
   498.8,0.006911,0.004883,0.043866,0.001899,  40.058
   499.0,0.006903,0.004878,0.043797,0.001875,  40.059
   499.2,0.006880,0.004874,0.043763,0.001926,  40.056
   499.4,0.006857,0.004874,0.043656,0.001950,  40.059
   499.6,0.006837,0.004864,0.043477,0.001926,  40.058
   499.8,0.006798,0.004859,0.043304,0.001977,  40.058
   500.0,0.006763,0.004854,0.043215,0.001977,  40.059
   500.2,0.006726,0.004845,0.043164,0.001952,  40.061
   500.4,0.006684,0.004836,0.043120,0.001990,  40.061
   500.6,0.006649,0.004822,0.043122,0.001977,  40.061
   500.8,0.006622,0.004800,0.042997,0.002014,  40.059
   501.0,0.006583,0.004779,0.042860,0.002014,  40.060
   501.2,0.006559,0.004752,0.042669,0.002014,  40.063
   501.4,0.006535,0.004724,0.042580,0.002001,  40.059
   501.6,0.006502,0.004691,0.042509,0.002038,  40.058
   501.8,0.006485,0.004655,0.042447,0.002038,  40.054
   502.0,0.006460,0.004630,0.042340,0.001987,  40.050
   502.2,0.006443,0.004606,0.042223,0.001937,  40.054
   502.4,0.006444,0.004584,0.042069,0.001923,  40.052
   502.6,0.006444,0.004559,0.041699,0.001883,  40.054
   502.8,0.006439,0.004537,0.041202,0.001832,  40.051
   503.0,0.006453,0.004524,0.040596,0.001856,  40.050
   503.2,0.006460,0.004511,0.040473,0.001830,  40.055
   503.4,0.006452,0.004510,0.040533,0.001779,  40.050
   503.6,0.006449,0.004497,0.040774,0.001803,  40.050
   503.8,0.006443,0.004506,0.040735,0.001776,  40.050
   504.0,0.006432,0.004502,0.040658,0.001725,  40.050
   504.2,0.006430,0.004510,0.040526,0.001750,  40.050
   504.4,0.006428,0.004522,0.040332,0.001736,  40.050
   504.6,0.006411,0.004527,0.040110,0.001725,  40.048
   504.8,0.006406,0.004524,0.039832,0.001776,  40.051
   505.0,0.006390,0.004519,0.039656,0.001790,  40.048
   505.2,0.006370,0.004516,0.039499,0.001779,  40.054
   505.4,0.006368,0.004511,0.039385,0.001830,  40.053
   505.6,0.006356,0.004513,0.039253,0.001843,  40.052
   505.8,0.006346,0.004508,0.039121,0.001819,  40.054
   506.0,0.006332,0.004499,0.038978,0.001870,  40.051
   506.2,0.006334,0.004495,0.038872,0.001883,  40.054
   506.4,0.006330,0.004496,0.038783,0.001872,  40.054
   506.6,0.006320,0.004491,0.038703,0.001923,  40.056
   506.8,0.006318,0.004481,0.038622,0.001923,  40.063
   507.0,0.006312,0.004477,0.038506,0.001899,  40.058
   507.2,0.006295,0.004466,0.038381,0.001963,  40.061
   507.4,0.006290,0.004466,0.038302,0.001950,  40.062
   507.6,0.006274,0.004460,0.038241,0.001926,  40.059
   507.8,0.006247,0.004455,0.038155,0.001963,  40.062
   508.0,0.006230,0.004459,0.038021,0.001963,  40.064
   508.2,0.006201,0.004454,0.037851,0.001939,  40.063
   508.4,0.006162,0.004452,0.037626,0.001963,  40.065
   508.6,0.006135,0.004451,0.037555,0.001963,  40.069
   508.8,0.006101,0.004447,0.037529,0.001939,  40.068
   509.0,0.006058,0.004432,0.037541,0.001977,  40.065
   509.2,0.006034,0.004418,0.037598,0.001990,  40.069
   509.4,0.006000,0.004399,0.037582,0.001966,  40.067
   509.6,0.005964,0.004375,0.037547,0.001966,  40.072
   509.8,0.005951,0.004343,0.037494,0.001966,  40.069
   510.0,0.005927,0.004311,0.037406,0.001966,  40.070
   510.2,0.005902,0.004287,0.037290,0.001966,  40.070
   510.4,0.005881,0.004261,0.037155,0.001939,  40.069
   510.6,0.005871,0.004231,0.037032,0.001912,  40.070
   510.8,0.005864,0.004212,0.036934,0.001899,  40.068
   511.0,0.005860,0.004195,0.036829,0.001886,  40.066
   511.2,0.005876,0.004173,0.036760,0.001845,  40.071
   511.4,0.005885,0.004158,0.036674,0.001795,  40.077
   511.6,0.005887,0.004149,0.036596,0.001781,  40.076
   511.8,0.005900,0.004136,0.036437,0.001792,  40.073
   512.0,0.005903,0.004140,0.036224,0.001754,  40.073
   512.2,0.005895,0.004149,0.035940,0.001754,  40.076
   512.4,0.005897,0.004151,0.035782,0.001765,  40.077
   512.6,0.005890,0.004159,0.035641,0.001728,  40.076
   512.8,0.005880,0.004163,0.035502,0.001728,  40.076
   513.0,0.005881,0.004169,0.035319,0.001752,  40.075
   513.2,0.005878,0.004171,0.035107,0.001728,  40.071
   513.4,0.005861,0.004176,0.034887,0.001741,  40.076
   513.6,0.005856,0.004178,0.034721,0.001805,  40.076
   513.8,0.005849,0.004179,0.034571,0.001781,  40.076
   514.0,0.005829,0.004182,0.034431,0.001795,  40.076
   514.2,0.005827,0.004179,0.034318,0.001859,  40.078
   514.4,0.005818,0.004179,0.034221,0.001835,  40.081
   514.6,0.005818,0.004177,0.034116,0.001848,  40.081
   514.8,0.005804,0.004175,0.034083,0.001899,  40.081
   515.0,0.005809,0.004176,0.034075,0.001888,  40.081
   515.2,0.005805,0.004175,0.034077,0.001888,  40.085
   515.4,0.005799,0.004171,0.034069,0.001926,  40.082
   515.6,0.005790,0.004163,0.034019,0.001901,  40.086
   515.8,0.005780,0.004163,0.033966,0.001939,  40.082
   516.0,0.005760,0.004157,0.033896,0.001977,  40.082
   516.2,0.005749,0.004152,0.033791,0.001952,  40.083
   516.4,0.005730,0.004155,0.033667,0.001966,  40.083
   516.6,0.005694,0.004150,0.033580,0.001979,  40.086
   516.8,0.005673,0.004136,0.033502,0.001941,  40.087
   517.0,0.005645,0.004136,0.033432,0.001941,  40.087
   517.2,0.005606,0.004128,0.033353,0.001979,  40.088
   517.4,0.005576,0.004113,0.033265,0.001955,  40.089
   517.6,0.005544,0.004099,0.033176,0.001955,  40.099
   517.8,0.005513,0.004085,0.033087,0.001992,  40.101
   518.0,0.005489,0.004065,0.033071,0.001968,  40.098
   518.2,0.005464,0.004039,0.033091,0.001968,  40.098
   518.4,0.005439,0.004005,0.033129,0.001992,  40.101
   518.6,0.005414,0.003984,0.033086,0.001979,  40.099
   518.8,0.005395,0.003963,0.033016,0.001966,  40.103
   519.0,0.005379,0.003940,0.032918,0.001952,  40.102
   519.2,0.005363,0.003921,0.032804,0.001926,  40.102
   519.4,0.005366,0.003902,0.032672,0.001899,  40.102
   519.6,0.005373,0.003886,0.032486,0.001872,  40.101
   519.8,0.005393,0.003861,0.032329,0.001859,  40.103
   520.0,0.005402,0.003846,0.032198,0.001808,  40.104
   520.2,0.005404,0.003832,0.032024,0.001781,  40.104
   520.4,0.005415,0.003827,0.031877,0.001805,  40.104
   520.6,0.005418,0.003835,0.031728,0.001768,  40.106
   520.8,0.005414,0.003853,0.031571,0.001754,  40.106
   521.0,0.005415,0.003864,0.031478,0.001765,  40.106
   521.2,0.005419,0.003863,0.031402,0.001728,  40.109
   521.4,0.005416,0.003876,0.031371,0.001741,  40.109
   521.6,0.005417,0.003883,0.031207,0.001765,  40.107
   521.8,0.005419,0.003890,0.030979,0.001741,  40.112
   522.0,0.005412,0.003898,0.030698,0.001768,  40.110
   522.2,0.005398,0.003902,0.030559,0.001832,  40.110
   522.4,0.005392,0.003905,0.030465,0.001821,  40.110
   522.6,0.005386,0.003907,0.030395,0.001835,  40.112
   522.8,0.005373,0.003905,0.030335,0.001886,  40.115
   523.0,0.005370,0.003902,0.030310,0.001875,  40.116
   523.2,0.005360,0.003900,0.030320,0.001888,  40.112
   523.4,0.005364,0.003898,0.030206,0.001926,  40.114
   523.6,0.005361,0.003898,0.030081,0.001901,  40.114
   523.8,0.005358,0.003889,0.029905,0.001939,  40.113
   524.0,0.005354,0.003886,0.029855,0.001990,  40.109
   524.2,0.005353,0.003888,0.029847,0.001966,  40.116
   524.4,0.005339,0.003883,0.029867,0.002003,  40.116
   524.6,0.005326,0.003883,0.029648,0.002017,  40.118
   524.8,0.005315,0.003878,0.029315,0.001992,  40.118
   525.0,0.005285,0.003882,0.028874,0.002030,  40.118
   525.2,0.005265,0.003886,0.028796,0.002030,  40.114
   525.4,0.005238,0.003881,0.028815,0.002006,  40.118
   525.6,0.005199,0.003873,0.028929,0.002057,  40.116
   525.8,0.005175,0.003866,0.028975,0.002043,  40.115
   526.0,0.005140,0.003857,0.029055,0.002006,  40.120
   526.2,0.005104,0.003838,0.029110,0.002019,  40.115
   526.4,0.005084,0.003819,0.029102,0.002019,  40.114
   526.6,0.005055,0.003795,0.029085,0.001982,  40.113
   526.8,0.005026,0.003772,0.029024,0.001968,  40.116
   527.0,0.005015,0.003746,0.028926,0.001992,  40.115
   527.2,0.004993,0.003716,0.028698,0.001941,  40.118
   527.4,0.004973,0.003697,0.028366,0.001952,  40.114
   527.6,0.004974,0.003679,0.027980,0.001963,  40.117
   527.8,0.004972,0.003659,0.027894,0.001937,  40.115
   528.0,0.004968,0.003643,0.027887,0.001937,  40.116
   528.2,0.004980,0.003627,0.028011,0.001872,  40.116
   528.4,0.005000,0.003617,0.027978,0.001872,  40.115
   528.6,0.004999,0.003600,0.027928,0.001872,  40.118
   528.8,0.005013,0.003595,0.027851,0.001845,  40.122
   529.0,0.005023,0.003596,0.027845,0.001819,  40.118
   529.2,0.005016,0.003603,0.027848,0.001768,  40.120
   529.4,0.005023,0.003617,0.027885,0.001754,  40.120
   529.6,0.005023,0.003621,0.027757,0.001765,  40.119
   529.8,0.005016,0.003639,0.027575,0.001741,  40.120
   530.0,0.005020,0.003650,0.027331,0.001754,  40.116
   530.2,0.005014,0.003662,0.027229,0.001805,  40.114
   530.4,0.005006,0.003662,0.027179,0.001795,  40.113
   530.6,0.005011,0.003667,0.027174,0.001808,  40.116
   530.8,0.005001,0.003666,0.027063,0.001872,  40.116
   531.0,0.004991,0.003668,0.026924,0.001861,  40.112
   531.2,0.004998,0.003668,0.026758,0.001875,  40.115
   531.4,0.004992,0.003669,0.026777,0.001926,  40.110
   531.6,0.004989,0.003664,0.026849,0.001901,  40.115
   531.8,0.004978,0.003665,0.026989,0.001915,  40.114
   532.0,0.004975,0.003664,0.027008,0.001966,  40.106
   532.2,0.004979,0.003661,0.026958,0.001955,  40.108
   532.4,0.004969,0.003653,0.026872,0.001955,  40.113
   532.6,0.004959,0.003653,0.026812,0.001992,  40.108
   532.8,0.004957,0.003650,0.026717,0.001968,  40.110
   533.0,0.004941,0.003643,0.026612,0.001982,  40.112
   533.2,0.004925,0.003643,0.026509,0.002006,  40.113
   533.4,0.004906,0.003639,0.026379,0.001968,  40.114
   533.6,0.004881,0.003640,0.026265,0.001995,  40.111
   533.8,0.004849,0.003643,0.026231,0.002032,  40.113
   534.0,0.004827,0.003633,0.026215,0.001995,  40.113
   534.2,0.004799,0.003632,0.026250,0.002032,  40.111
   534.4,0.004760,0.003623,0.026198,0.002057,  40.111
   534.6,0.004739,0.003603,0.026147,0.002019,  40.112
   534.8,0.004714,0.003589,0.026086,0.002070,  40.113
   535.0,0.004681,0.003567,0.026051,0.002070,  40.114
   535.2,0.004664,0.003546,0.026008,0.002032,  40.111
   535.4,0.004642,0.003519,0.025983,0.002057,  40.110
   535.6,0.004620,0.003498,0.025939,0.002030,  40.106
   535.8,0.004609,0.003474,0.025861,0.001979,  40.106
   536.0,0.004605,0.003446,0.025756,0.001966,  40.107
   536.2,0.004602,0.003430,0.025652,0.001939,  40.106
   536.4,0.004605,0.003411,0.025610,0.001912,  40.104
   536.6,0.004618,0.003388,0.025577,0.001875,  40.106
   536.8,0.004634,0.003379,0.025544,0.001886,  40.104
   537.0,0.004649,0.003375,0.025477,0.001835,  40.105
   537.2,0.004659,0.003372,0.025383,0.001835,  40.099
   537.4,0.004669,0.003375,0.025263,0.001808,  40.102
   537.6,0.004674,0.003385,0.025108,0.001795,  40.098
   537.8,0.004677,0.003396,0.024874,0.001781,  40.097
   538.0,0.004677,0.003416,0.024622,0.001768,  40.093
   538.2,0.004680,0.003423,0.024433,0.001754,  40.095
   538.4,0.004683,0.003427,0.024252,0.001768,  40.096
   538.6,0.004673,0.003435,0.024080,0.001781,  40.095
   538.8,0.004669,0.003435,0.023779,0.001795,  40.096
   539.0,0.004669,0.003437,0.023442,0.001821,  40.094
   539.2,0.004662,0.003445,0.023046,0.001835,  40.092
   539.4,0.004663,0.003447,0.022927,0.001899,  40.091
   539.6,0.004663,0.003446,0.022927,0.001888,  40.092
   539.8,0.004660,0.003449,0.023030,0.001901,  40.091
   540.0,0.004661,0.003454,0.022849,0.001939,  40.089
   540.2,0.004658,0.003454,0.022573,0.001915,  40.095
   540.4,0.004655,0.003451,0.022168,0.001928,  40.091
   540.6,0.004652,0.003450,0.022169,0.001979,  40.094
   540.8,0.004649,0.003447,0.022308,0.001955,  40.096
   541.0,0.004649,0.003450,0.022577,0.001968,  40.096
   541.2,0.004642,0.003457,0.022708,0.002006,  40.096
   541.4,0.004639,0.003462,0.022814,0.001982,  40.099
   541.6,0.004624,0.003462,0.022936,0.001995,  40.102
   541.8,0.004600,0.003457,0.022945,0.002019,  40.104
   542.0,0.004586,0.003457,0.022885,0.001982,  40.105
   542.2,0.004565,0.003457,0.022746,0.001982,  40.099
   542.4,0.004535,0.003451,0.022539,0.002019,  40.105
   542.6,0.004506,0.003438,0.022221,0.001982,  40.108
   542.8,0.004478,0.003423,0.021832,0.001982,  40.103
   543.0,0.004453,0.003420,0.021850,0.002019,  40.102
   543.2,0.004424,0.003403,0.022024,0.001982,  40.104
   543.4,0.004394,0.003379,0.022387,0.001982,  40.104
   543.6,0.004380,0.003353,0.022482,0.002019,  40.105
   543.8,0.004355,0.003340,0.022535,0.001968,  40.105
   544.0,0.004331,0.003318,0.022561,0.001955,  40.099
   544.2,0.004313,0.003290,0.022543,0.001966,  40.097
   544.4,0.004294,0.003265,0.022448,0.001915,  40.094
   544.6,0.004286,0.003245,0.022285,0.001926,  40.095
   544.8,0.004297,0.003224,0.022070,0.001937,  40.095
   545.0,0.004317,0.003201,0.022003,0.001923,  40.092
   545.2,0.004322,0.003189,0.021978,0.001910,  40.094
   545.4,0.004345,0.003178,0.022023,0.001896,  40.089
   545.6,0.004361,0.003176,0.022016,0.001883,  40.092
   545.8,0.004363,0.003176,0.021976,0.001883,  40.091
   546.0,0.004377,0.003184,0.021960,0.001870,  40.092
   546.2,0.004377,0.003188,0.021901,0.001856,  40.087
   546.4,0.004375,0.003201,0.021791,0.001832,  40.091
   546.6,0.004389,0.003217,0.021671,0.001856,  40.088
   546.8,0.004392,0.003230,0.021612,0.001843,  40.091
   547.0,0.004388,0.003235,0.021545,0.001819,  40.090
   547.2,0.004392,0.003237,0.021479,0.001832,  40.094
   547.4,0.004392,0.003248,0.021411,0.001859,  40.090
   547.6,0.004385,0.003253,0.021292,0.001848,  40.088
   547.8,0.004389,0.003257,0.021164,0.001861,  40.094
   548.0,0.004383,0.003262,0.021088,0.001926,  40.091
   548.2,0.004375,0.003259,0.021020,0.001915,  40.091
   548.4,0.004383,0.003265,0.020960,0.001928,  40.092
   548.6,0.004380,0.003268,0.020875,0.001966,  40.092
   548.8,0.004372,0.003267,0.020806,0.001955,  40.090
   549.0,0.004380,0.003272,0.020702,0.001955,  40.094
   549.2,0.004377,0.003271,0.020660,0.001992,  40.096
   549.4,0.004373,0.003274,0.020661,0.001968,  40.099
   549.6,0.004363,0.003277,0.020662,0.001982,  40.099
   549.8,0.004364,0.003278,0.020190,0.002006,  40.103
   550.0,0.004355,0.003273,0.019504,0.001968,  40.100
   550.2,0.004331,0.003275,0.018563,0.001982,  40.105
   550.4,0.004317,0.003281,0.018512,0.002019,  40.105
   550.6,0.004295,0.003275,0.018786,0.001982,  40.108
   550.8,0.004262,0.003273,0.019385,0.001995,  40.109
   551.0,0.004239,0.003276,0.019566,0.002032,  40.106
   551.2,0.004212,0.003263,0.019695,0.002008,  40.105
   551.4,0.004176,0.003248,0.019780,0.002008,  40.111
   551.6,0.004154,0.003236,0.019875,0.002046,  40.110
   551.8,0.004137,0.003213,0.019927,0.002008,  40.113
   552.0,0.004104,0.003191,0.019961,0.002008,  40.111
   552.2,0.004082,0.003173,0.020013,0.002032,  40.110
   552.4,0.004065,0.003145,0.020099,0.001982,  40.109
   552.6,0.004041,0.003130,0.020143,0.001968,  40.109
   552.8,0.004029,0.003112,0.020212,0.001979,  40.104
   553.0,0.004024,0.003090,0.020204,0.001915,  40.100
   553.2,0.004023,0.003069,0.020146,0.001901,  40.102
   553.4,0.004035,0.003053,0.020095,0.001875,  40.103
   553.6,0.004058,0.003032,0.020079,0.001861,  40.107
   553.8,0.004066,0.003015,0.020064,0.001810,  40.104
   554.0,0.004082,0.003008,0.020073,0.001848,  40.104
   554.2,0.004102,0.003004,0.020023,0.001821,  40.106
   554.4,0.004104,0.003006,0.019947,0.001821,  40.107
   554.6,0.004113,0.003023,0.019837,0.001808,  40.105
   554.8,0.004124,0.003027,0.019718,0.001781,  40.104
   555.0,0.004123,0.003045,0.019574,0.001795,  40.108
   555.2,0.004126,0.003060,0.019377,0.001795,  40.108
   555.4,0.004140,0.003066,0.019268,0.001781,  40.108
   555.6,0.004135,0.003079,0.019185,0.001808,  40.107
   555.8,0.004143,0.003084,0.019126,0.001835,  40.109
   556.0,0.004144,0.003089,0.019016,0.001848,  40.113
   556.2,0.004144,0.003099,0.018862,0.001875,  40.115
   556.4,0.004147,0.003105,0.018725,0.001901,  40.114
   556.6,0.004152,0.003116,0.018572,0.001901,  40.113
   556.8,0.004155,0.003118,0.018359,0.001915,  40.116
   557.0,0.004150,0.003123,0.018154,0.001928,  40.118
   557.2,0.004158,0.003128,0.018138,0.001941,  40.120
   557.4,0.004153,0.003135,0.018207,0.001955,  40.115
   557.6,0.004150,0.003135,0.018361,0.001968,  40.119
   557.8,0.004147,0.003137,0.018388,0.001982,  40.120
   558.0,0.004144,0.003139,0.018414,0.002008,  40.123
   558.2,0.004133,0.003136,0.018423,0.002008,  40.126
   558.4,0.004135,0.003139,0.018432,0.002008,  40.127
   558.6,0.004125,0.003134,0.018441,0.002022,  40.129
   558.8,0.004110,0.003136,0.018449,0.002022,  40.135
   559.0,0.004089,0.003136,0.018492,0.002022,  40.133
   559.2,0.004058,0.003131,0.018544,0.002035,  40.133
   559.4,0.004033,0.003136,0.018587,0.002035,  40.131
   559.6,0.003997,0.003134,0.018553,0.002035,  40.134
   559.8,0.003973,0.003121,0.018484,0.002048,  40.137
   560.0,0.003948,0.003103,0.018397,0.002035,  40.140
   560.2,0.003919,0.003081,0.018338,0.002035,  40.134
   560.4,0.003907,0.003059,0.018278,0.002048,  40.137
   560.6,0.003889,0.003038,0.018226,0.002022,  40.136
   560.8,0.003859,0.003024,0.018193,0.002046,  40.137
   561.0,0.003851,0.003002,0.018184,0.002008,  40.135
   561.2,0.003845,0.002979,0.018167,0.001982,  40.140
   561.4,0.003831,0.002968,0.018150,0.001955,  40.134
   561.6,0.003835,0.002951,0.018151,0.001941,  40.140
   561.8,0.003845,0.002929,0.018160,0.001915,  40.140
   562.0,0.003863,0.002915,0.018170,0.001888,  40.138
   562.2,0.003890,0.002900,0.017813,0.001875,  40.136
   562.4,0.003905,0.002889,0.017335,0.001848,  40.136
   562.6,0.003918,0.002889,0.016705,0.001835,  40.142
   562.8,0.003935,0.002894,0.016570,0.001821,  40.138
   563.0,0.003947,0.002907,0.016629,0.001808,  40.141
   563.2,0.003949,0.002931,0.016834,0.001795,  40.145
   563.4,0.003960,0.002945,0.016887,0.001819,  40.140
   563.6,0.003966,0.002957,0.016956,0.001819,  40.146
   563.8,0.003965,0.002976,0.017026,0.001832,  40.147
