Run Name,21% CR group 5 03 18 14.5
Run Date,05:22:15 PM   03-18-14
Method Name,21% CR group 5 03 18 14.5
Export Format Version, 1.00
Method ID, 1976
Points/Second, 5.00
Number of Records,   3015
Offset from Run Start Time,00:00:00
Run End Time,00:10:06
Time,Second
QuadTec 1, (280.0 nm), AU
QuadTec 2, (260.0 nm), AU
Gradient Pump,%B
QuadTec 3, (214.0 nm), AU
QuadTec 4, (405.0 nm), AU
Conductivity,mS/cm
Trace 6,<Not Available>
GP Pressure,PSI
Volume,<Not Selected>
Fraction,<Not Available>
Time,QuadTec 1,QuadTec 2,Gradient Pump,QuadTec 3,QuadTec 4,Conductivity,GP Pressure
     0.0,0.000365,0.000000, 21,0.002689,0.000000,  25.679,   95
     0.2,0.000372,0.000000, 21,0.002689,0.000000,  25.677,   94
     0.4,0.000379,0.000000, 21,0.002689,0.000000,  25.679,   93
     0.6,0.000368,0.000000, 21,0.002689,0.000000,  25.677,   94
     0.8,0.000000,0.000000, 21,0.000000,0.000000,  25.680,   94
     1.0,0.000000,0.000000, 21,0.000000,0.000000,  25.682,   94
     1.2,0.000000,0.000000, 21,0.000000,0.000000,  25.682,   94
     1.4,0.000000,0.000000, 21,0.000000,0.000000,  25.685,   98
     1.6,0.000000,0.000000, 21,0.000000,0.000000,  25.684,  103
     1.8,0.000000,0.000000, 21,0.000000,0.000000,  25.680,  100
     2.0,0.000000,0.000000, 21,0.000000,0.000000,  25.679,   97
     2.2,0.000000,0.000000, 21,0.000000,0.000000,  25.675,   96
     2.4,0.000000,0.000000, 21,0.000000,0.000000,  25.674,   94
     2.6,0.000000,0.000000, 21,0.000000,0.000000,  25.675,   95
     2.8,0.000000,0.000000, 21,0.000000,0.000000,  25.674,   95
     3.0,0.000000,0.000000, 21,0.000000,0.000000,  25.672,   96
     3.2,0.000000,0.000000, 21,0.000000,0.000000,  25.671,   96
     3.4,0.000000,0.000000, 21,0.000000,0.000000,  25.673,   94
     3.6,0.000000,0.000000, 21,0.000000,0.000000,  25.671,   93
     3.8,0.000000,0.000000, 21,0.000000,0.000000,  25.669,   93
     4.0,0.000000,0.000000, 21,0.000000,0.000000,  25.670,   94
     4.2,0.000000,0.000000, 21,0.000000,0.000000,  25.673,   96
     4.4,-0.000003,0.000000, 21,0.000000,0.000003,  25.667,   98
     4.6,-0.000009,-0.000003, 21,-0.000101,-0.000033,  25.666,   96
     4.8,-0.000005,-0.000001, 21,-0.000095,-0.000033,  25.666,   94
     5.0,-0.000012,0.000002, 21,-0.000114,0.000003,  25.663,   95
     5.2,-0.000003,0.000001, 21,-0.000202,-0.000033,  25.665,   96
     5.4,-0.000003,-0.000002, 21,-0.000335,-0.000033,  25.664,   96
     5.6,-0.000009,-0.000003, 21,-0.000537,0.000003,  25.662,   96
     5.8,-0.000003,-0.000004, 21,-0.000795,-0.000033,  25.661,   96
     6.0,-0.000005,-0.000006, 21,-0.000820,-0.000033,  25.661,   96
     6.2,-0.000012,-0.000001, 21,-0.000764,-0.000010,  25.663,   95
     6.4,-0.000005,-0.000004, 21,-0.000650,-0.000046,  25.660,   94
     6.6,-0.000008,-0.000001, 21,-0.000619,-0.000033,  25.664,   94
     6.8,-0.000015,-0.000004, 21,-0.000606,0.000003,  25.661,   94
     7.0,-0.000005,0.000001, 21,-0.000600,-0.000033,  25.660,   95
     7.2,-0.000008,0.000001, 21,-0.000556,-0.000033,  25.660,   96
     7.4,-0.000015,0.000001, 21,-0.000505,0.000003,  25.659,   95
     7.6,-0.000012,-0.000004, 21,-0.000461,-0.000033,  25.659,   95
     7.8,-0.000015,-0.000008, 21,-0.000436,-0.000033,  25.664,   95
     8.0,-0.000024,-0.000012, 21,-0.000449,0.000003,  25.661,   95
     8.2,-0.000018,-0.000010, 21,-0.000486,-0.000033,  25.659,   94
     8.4,-0.000010,-0.000010, 21,-0.000657,-0.000033,  25.660,   93
     8.6,-0.000016,-0.000015, 21,-0.000915,0.000003,  25.660,   95
     8.8,-0.000016,-0.000019, 21,-0.001267,-0.000033,  25.659,   96
     9.0,-0.000016,-0.000019, 21,-0.001267,-0.000033,  25.658,   94
     9.2,-0.000020,-0.000023, 21,-0.001154,-0.000046,  25.656,   93
     9.4,-0.000020,-0.000024, 21,-0.000909,-0.000082,  25.652,   93
     9.6,-0.000020,-0.000018, 21,-0.001110,-0.000033,  25.656,   94
     9.8,-0.000024,-0.000023, 21,-0.001450,-0.000046,  25.656,   95
    10.0,-0.000024,-0.000021, 21,-0.001965,-0.000082,  25.656,   96
    10.2,-0.000018,-0.000019, 21,-0.001902,-0.000033,  25.661,   95
    10.4,-0.000021,-0.000022, 21,-0.001657,-0.000046,  25.654,   95
    10.6,-0.000015,-0.000018, 21,-0.001198,-0.000082,  25.658,   95
    10.8,-0.000011,-0.000016, 21,-0.001060,-0.000033,  25.657,   96
    11.0,-0.000011,-0.000015, 21,-0.000972,-0.000046,  25.656,   95
    11.2,-0.000012,-0.000010, 21,-0.000965,-0.000082,  25.657,   94
    11.4,-0.000005,-0.000010, 21,-0.000871,-0.000033,  25.661,   95
    11.6,-0.000003,-0.000015, 21,-0.000776,-0.000046,  25.652,   96
    11.8,-0.000007,-0.000010, 21,-0.000676,-0.000082,  25.660,   96
    12.0,0.000003,-0.000010, 21,-0.000644,-0.000033,  25.661,   96
    12.2,0.000005,-0.000015, 21,-0.000650,-0.000033,  25.659,   97
    12.4,0.000002,-0.000010, 21,-0.000682,-0.000069,  25.663,   99
    12.6,0.000008,-0.000008, 21,-0.000644,-0.000033,  25.660,   97
    12.8,0.000008,-0.000006, 21,-0.000569,-0.000033,  25.663,   96
    13.0,0.000004,-0.000005, 21,-0.000493,-0.000046,  25.665,   94
    13.2,0.000002,-0.000004, 21,-0.000442,-0.000033,  25.664,   93
    13.4,-0.000001,-0.000004, 21,-0.000411,-0.000082,  25.670,   94
    13.6,-0.000005,-0.000002, 21,-0.000379,-0.000046,  25.668,   95
    13.8,-0.000008,-0.000000, 21,-0.000575,-0.000082,  25.668,   95
    14.0,-0.000001,-0.000002, 21,-0.000871,-0.000095,  25.661,   95
    14.2,-0.000005,-0.000002, 21,-0.001287,-0.000046,  25.664,   94
    14.4,-0.000011,0.000002, 21,-0.001463,-0.000082,  25.665,   94
    14.6,-0.000007,-0.000001, 21,-0.001582,-0.000033,  25.666,   93
    14.8,-0.000011,-0.000006, 21,-0.001632,-0.000046,  25.667,   93
    15.0,-0.000013,-0.000004, 21,-0.001632,-0.000082,  25.666,   96
    15.2,-0.000007,-0.000008, 21,-0.001513,-0.000033,  25.668,   98
    15.4,-0.000011,-0.000004, 21,-0.001299,-0.000046,  25.664,   98
    15.6,-0.000007,0.000004, 21,-0.000997,-0.000082,  25.667,   98
    15.8,0.000000,-0.000001, 21,-0.000846,-0.000033,  25.667,   97
    16.0,-0.000007,0.000001, 21,-0.000713,-0.000033,  25.665,   96
    16.2,0.000000,0.000003, 21,-0.000619,-0.000069,  25.661,   95
    16.4,-0.000003,0.000001, 21,-0.000549,-0.000069,  25.665,   95
    16.6,-0.000009,0.000007, 21,-0.000499,-0.000069,  25.661,   95
    16.8,0.000000,0.000003, 21,-0.000480,-0.000106,  25.659,   96
    17.0,-0.000003,0.000001, 21,-0.000568,-0.000106,  25.660,   95
    17.2,-0.000009,0.000001, 21,-0.000707,-0.000069,  25.661,   94
    17.4,-0.000009,-0.000000, 21,-0.000921,-0.000106,  25.660,   93
    17.6,-0.000012,0.000001, 21,-0.000909,-0.000069,  25.664,   92
    17.8,-0.000019,-0.000001, 21,-0.000833,-0.000033,  25.660,   95
    18.0,-0.000019,-0.000001, 21,-0.000682,-0.000069,  25.662,   97
    18.2,-0.000015,0.000002, 21,-0.000581,-0.000033,  25.659,   95
    18.4,-0.000021,0.000002, 21,-0.000468,-0.000033,  25.658,   94
    18.6,-0.000019,0.000001, 21,-0.000354,-0.000069,  25.657,   94
    18.8,-0.000015,0.000003, 21,-0.000587,-0.000033,  25.657,   94
    19.0,-0.000021,0.000003, 21,-0.000972,-0.000033,  25.658,   93
    19.2,-0.000019,-0.000001, 21,-0.001532,-0.000069,  25.655,   92
    19.4,-0.000015,0.000001, 21,-0.001519,-0.000033,  25.657,   94
    19.6,-0.000021,-0.000001, 21,-0.001330,-0.000033,  25.655,   96
    19.8,-0.000019,-0.000007, 21,-0.000959,-0.000069,  25.650,   94
    20.0,-0.000015,-0.000008, 21,-0.000827,-0.000033,  25.650,   92
    20.2,-0.000021,-0.000008, 21,-0.000745,-0.000033,  25.651,   93
    20.4,-0.000019,-0.000006, 21,-0.000676,-0.000069,  25.652,   94
    20.6,-0.000015,-0.000006, 21,-0.000600,-0.000033,  25.650,   95
    20.8,-0.000015,-0.000008, 21,-0.000550,-0.000033,  25.649,   95
    21.0,-0.000021,-0.000003, 21,-0.000524,-0.000069,  25.644,   95
    21.2,-0.000015,-0.000006, 21,-0.000480,-0.000033,  25.646,   95
    21.4,-0.000008,-0.000008, 21,-0.000411,-0.000033,  25.643,   96
    21.6,-0.000015,-0.000006, 21,-0.000379,-0.000069,  25.649,   97
    21.8,-0.000008,-0.000001, 21,-0.000505,-0.000033,  25.642,   96
    22.0,-0.000005,-0.000001, 21,-0.000720,-0.000033,  25.637,   95
    22.2,-0.000012,-0.000000, 21,-0.001022,-0.000069,  25.638,   95
    22.4,-0.000012,0.000001, 21,-0.001022,-0.000033,  25.640,   95
    22.6,-0.000012,-0.000001, 21,-0.000947,-0.000010,  25.636,   95
    22.8,-0.000016,-0.000000, 21,-0.000770,-0.000046,  25.630,   94
    23.0,-0.000016,0.000001, 21,-0.000682,-0.000033,  25.630,   96
    23.2,-0.000007,0.000001, 21,-0.000581,0.000003,  25.633,   97
    23.4,-0.000011,-0.000001, 21,-0.000499,0.000016,  25.631,   97
    23.6,-0.000011,0.000007, 21,-0.000442,0.000016,  25.632,   96
    23.8,-0.000001,0.000005, 21,-0.000398,0.000016,  25.626,   95
    24.0,-0.000005,0.000005, 21,-0.000386,0.000003,  25.626,   94
    24.2,-0.000005,0.000005, 21,-0.000373,0.000003,  25.628,   95
    24.4,0.000002,0.000005, 21,-0.000373,0.000003,  25.625,   95
    24.6,-0.000002,0.000005, 21,-0.000379,0.000003,  25.625,   95
    24.8,0.000002,0.000006, 21,-0.000411,-0.000033,  25.626,   95
    25.0,0.000005,0.000004, 21,-0.000411,-0.000033,  25.624,   94
    25.2,0.000002,-0.000000, 21,-0.000398,0.000003,  25.622,   92
    25.4,0.000005,-0.000004, 21,-0.000379,-0.000033,  25.624,   93
    25.6,0.000005,-0.000004, 21,-0.000329,-0.000033,  25.625,   94
    25.8,0.000002,-0.000009, 21,-0.000272,0.000003,  25.624,   96
    26.0,0.000005,-0.000005, 21,-0.000190,-0.000033,  25.620,   98
    26.2,0.000003,-0.000008, 21,-0.000184,-0.000033,  25.615,   96
    26.4,-0.000001,-0.000010, 21,-0.000228,-0.000033,  25.619,   94
    26.6,0.000003,-0.000008, 21,-0.000310,-0.000069,  25.612,   94
    26.8,0.000000,-0.000011, 21,-0.000354,-0.000033,  25.615,   95
    27.0,-0.000004,-0.000004, 21,-0.000392,-0.000046,  25.614,   95
    27.2,0.000000,-0.000004, 21,-0.000436,-0.000082,  25.616,   94
    27.4,0.000000,0.000001, 21,-0.000436,-0.000033,  25.611,   95
    27.6,-0.000007,0.000001, 21,-0.000424,-0.000046,  25.613,   95
    27.8,-0.000003,-0.000004, 21,-0.000386,-0.000082,  25.610,   95
    28.0,-0.000005,-0.000008, 21,-0.000360,-0.000033,  25.608,   94
    28.2,-0.000026,-0.000017, 21,-0.000341,-0.000046,  25.609,   94
    28.4,-0.000038,-0.000023, 21,-0.000329,-0.000095,  25.603,   94
    28.6,-0.000063,-0.000031, 21,-0.000480,-0.000059,  25.600,   87
    28.8,-0.000075,-0.000037, 21,-0.000713,-0.000072,  25.604,   80
    29.0,-0.000065,-0.000043, 21,-0.001028,-0.000122,  25.607,   84
    29.2,-0.000057,-0.000040, 21,-0.001009,-0.000085,  25.613,   89
    29.4,-0.000058,-0.000045, 21,-0.000890,-0.000072,  25.608,   91
    29.6,-0.000046,-0.000043, 21,-0.000631,-0.000109,  25.610,   94
    29.8,-0.000046,-0.000040, 21,-0.000720,-0.000072,  25.603,   93
    30.0,-0.000050,-0.000043, 21,-0.000934,-0.000072,  25.602,   92
    30.2,-0.000044,-0.000040, 21,-0.001255,-0.000109,  25.601,   93
    30.4,-0.000044,-0.000037, 21,-0.001236,-0.000072,  25.600,   95
    30.6,-0.000047,-0.000038, 21,-0.001116,-0.000072,  25.600,   94
    30.8,-0.000041,-0.000038, 21,-0.000864,-0.000109,  25.600,   93
    31.0,-0.000041,-0.000036, 21,-0.000776,-0.000072,  25.599,   94
    31.2,-0.000038,-0.000039, 21,-0.000732,-0.000072,  25.598,   94
    31.4,-0.000045,-0.000034, 21,-0.000701,-0.000109,  25.599,   95
    31.6,-0.000035,-0.000031, 21,-0.000631,-0.000072,  25.602,   96
    31.8,-0.000035,-0.000038, 21,-0.000562,-0.000072,  25.594,   96
    32.0,-0.000039,-0.000038, 21,-0.000474,-0.000095,  25.599,   96
    32.2,-0.000033,-0.000038, 21,-0.000455,-0.000059,  25.599,   96
    32.4,-0.000033,-0.000043, 21,-0.000455,-0.000059,  25.599,   96
    32.6,-0.000039,-0.000036, 21,-0.000480,-0.000082,  25.602,   95
    32.8,-0.000033,-0.000029, 21,-0.000467,-0.000046,  25.599,   95
    33.0,-0.000035,-0.000034, 21,-0.000480,-0.000059,  25.606,   94
    33.2,-0.000045,-0.000029, 21,-0.000492,-0.000059,  25.609,   94
    33.4,-0.000038,-0.000028, 21,-0.000499,-0.000059,  25.607,   94
    33.6,-0.000038,-0.000035, 21,-0.000530,-0.000082,  25.611,   94
    33.8,-0.000047,-0.000032, 21,-0.000556,-0.000059,  25.606,   95
    34.0,-0.000041,-0.000032, 21,-0.000549,-0.000082,  25.610,   96
    34.2,-0.000038,-0.000033, 21,-0.000530,-0.000082,  25.611,   93
    34.4,-0.000042,-0.000031, 21,-0.000486,-0.000059,  25.608,   91
    34.6,-0.000035,-0.000029, 21,-0.000461,-0.000095,  25.608,   92
    34.8,-0.000035,-0.000032, 21,-0.000429,-0.000059,  25.608,   94
    35.0,-0.000039,-0.000028, 21,-0.000404,-0.000059,  25.609,   94
    35.2,-0.000030,-0.000025, 21,-0.000373,-0.000095,  25.615,   94
    35.4,-0.000033,-0.000030, 21,-0.000410,-0.000059,  25.615,   95
    35.6,-0.000039,-0.000030, 21,-0.000461,-0.000059,  25.616,   96
    35.8,-0.000027,-0.000027, 21,-0.000575,-0.000095,  25.611,   95
    36.0,-0.000027,-0.000030, 21,-0.000600,-0.000046,  25.610,   95
    36.2,-0.000031,-0.000030, 21,-0.000600,-0.000046,  25.618,   94
    36.4,-0.000022,-0.000023, 21,-0.000556,-0.000082,  25.615,   93
    36.6,-0.000022,-0.000024, 21,-0.000524,-0.000033,  25.617,   96
    36.8,-0.000023,-0.000017, 21,-0.000474,-0.000033,  25.620,   99
    37.0,-0.000014,-0.000006, 21,-0.000404,-0.000069,  25.616,   95
    37.2,-0.000011,-0.000002, 21,-0.000372,-0.000033,  25.617,   92
    37.4,-0.000018,-0.000002, 21,-0.000347,-0.000033,  25.620,   94
    37.6,-0.000011,-0.000002, 21,-0.000347,-0.000069,  25.623,   95
    37.8,-0.000007,-0.000006, 21,-0.000373,-0.000033,  25.619,   96
    38.0,-0.000016,-0.000004, 21,-0.000442,-0.000033,  25.618,   96
    38.2,-0.000016,-0.000006, 21,-0.000549,-0.000069,  25.624,   95
    38.4,-0.000007,-0.000006, 21,-0.000575,-0.000033,  25.625,   95
    38.6,-0.000011,-0.000011, 21,-0.000575,-0.000033,  25.626,   95
    38.8,-0.000011,-0.000006, 21,-0.000575,-0.000069,  25.624,   94
    39.0,-0.000004,-0.000004, 21,-0.000568,-0.000033,  25.625,   94
    39.2,-0.000011,-0.000004, 21,-0.000537,-0.000046,  25.625,   94
    39.4,-0.000014,-0.000006, 21,-0.000512,-0.000082,  25.627,   88
    39.6,-0.000012,-0.000003, 21,-0.000474,-0.000033,  25.627,   82
    39.8,-0.000019,-0.000006, 21,-0.000417,-0.000046,  25.629,   88
    40.0,-0.000019,-0.000009, 21,-0.000373,-0.000082,  25.629,   94
    40.2,-0.000007,-0.000006, 21,-0.000385,-0.000033,  25.632,   94
    40.4,-0.000011,-0.000010, 21,-0.000430,-0.000046,  25.633,   95
    40.6,-0.000008,-0.000010, 21,-0.000499,-0.000082,  25.635,   94
    40.8,-0.000002,-0.000008, 21,-0.000468,-0.000033,  25.633,   93
    41.0,-0.000002,-0.000010, 21,-0.000423,-0.000046,  25.633,   94
    41.2,0.000004,-0.000006, 21,-0.000348,-0.000082,  25.636,   96
    41.4,-0.000005,-0.000001, 21,-0.000360,-0.000033,  25.635,   95
    41.6,0.000004,-0.000006, 21,-0.000392,-0.000033,  25.635,   94
    41.8,0.000007,-0.000000, 21,-0.000455,-0.000069,  25.634,   95
    42.0,0.000007,0.000001, 21,-0.000449,-0.000020,  25.637,   96
    42.2,0.000009,-0.000000, 21,-0.000417,-0.000020,  25.637,   96
    42.4,0.000008,0.000004, 21,-0.000354,-0.000056,  25.642,   96
    42.6,0.000014,0.000005, 21,-0.000367,-0.000007,  25.641,   96
    42.8,0.000016,0.000005, 21,-0.000392,-0.000020,  25.644,   96
    43.0,0.000012,0.000009, 21,-0.000436,-0.000020,  25.639,   96
    43.2,0.000022,0.000014, 21,-0.000424,-0.000020,  25.640,   96
    43.4,0.000019,0.000014, 21,-0.000405,-0.000056,  25.636,   95
    43.6,0.000012,0.000014, 21,-0.000373,-0.000020,  25.641,   94
    43.8,0.000019,0.000022, 21,-0.000304,-0.000056,  25.637,   95
    44.0,0.000019,0.000019, 21,-0.000222,-0.000056,  25.642,   95
    44.2,0.000010,0.000014, 21,-0.000127,-0.000020,  25.642,   94
    44.4,0.000014,0.000014, 21,-0.000083,-0.000056,  25.647,   94
    44.6,0.000008,0.000009, 21,-0.000076,-0.000020,  25.645,   95
    44.8,0.000002,0.000007, 21,-0.000083,-0.000033,  25.646,   95
    45.0,0.000005,0.000008, 21,-0.000114,-0.000069,  25.647,   94
    45.2,0.000005,0.000003, 21,-0.000291,-0.000033,  25.651,   92
    45.4,0.000002,0.000005, 21,-0.000556,-0.000033,  25.653,   94
    45.6,0.000003,0.000003, 21,-0.000871,-0.000069,  25.659,   95
    45.8,0.000007,-0.000002, 21,-0.000896,-0.000033,  25.655,   95
    46.0,0.000003,0.000003, 21,-0.000802,-0.000033,  25.656,   94
    46.2,0.000000,0.000006, 21,-0.000600,-0.000069,  25.655,   95
    46.4,0.000007,-0.000001, 21,-0.000537,-0.000033,  25.659,   95
    46.6,0.000000,-0.000001, 21,-0.000468,-0.000033,  25.662,   94
    46.8,0.000000,0.000004, 21,-0.000411,-0.000069,  25.662,   93
    47.0,0.000004,0.000004, 21,-0.000360,-0.000033,  25.664,   93
    47.2,-0.000003,0.000002, 21,-0.000291,-0.000033,  25.661,   93
    47.4,0.000000,0.000002, 21,-0.000234,-0.000069,  25.666,   95
    47.6,0.000004,-0.000002, 21,-0.000449,-0.000033,  25.669,   98
    47.8,-0.000003,-0.000000, 21,-0.000770,-0.000033,  25.665,   97
    48.0,-0.000003,0.000002, 21,-0.001242,-0.000069,  25.670,   95
    48.2,0.000001,0.000004, 21,-0.001475,-0.000033,  25.669,   95
    48.4,-0.000005,-0.000001, 21,-0.001639,-0.000033,  25.671,   96
    48.6,-0.000005,-0.000003, 21,-0.001764,-0.000069,  25.671,   96
    48.8,-0.000002,-0.000000, 21,-0.001670,-0.000033,  25.672,   96
    49.0,-0.000008,-0.000003, 21,-0.001450,-0.000033,  25.674,   95
    49.2,-0.000008,-0.000005, 21,-0.001085,-0.000069,  25.673,   94
    49.4,-0.000004,-0.000002, 21,-0.000953,-0.000033,  25.675,   93
    49.6,-0.000014,-0.000007, 21,-0.000865,-0.000033,  25.672,   93
    49.8,-0.000016,-0.000007, 21,-0.000808,-0.000069,  25.678,   93
    50.0,-0.000015,-0.000006, 21,-0.000751,-0.000033,  25.679,   93
    50.2,-0.000022,-0.000011, 21,-0.000714,-0.000033,  25.676,   88
    50.4,-0.000022,-0.000006, 21,-0.000707,-0.000069,  25.673,   83
    50.6,-0.000015,-0.000006, 21,-0.000632,-0.000033,  25.678,   88
    50.8,-0.000015,-0.000010, 21,-0.000569,-0.000033,  25.673,   94
    51.0,-0.000015,-0.000008, 21,-0.000506,-0.000069,  25.672,   94
    51.2,-0.000019,-0.000013, 21,-0.000442,-0.000020,  25.678,   94
    51.4,-0.000015,-0.000016, 21,-0.000373,-0.000020,  25.677,   94
    51.6,-0.000012,-0.000009, 21,-0.000329,-0.000056,  25.682,   94
    51.8,-0.000012,-0.000005, 21,-0.000316,-0.000007,  25.679,   95
    52.0,-0.000008,-0.000010, 21,-0.000310,-0.000020,  25.678,   97
    52.2,-0.000015,-0.000007, 21,-0.000329,-0.000056,  25.672,   96
    52.4,-0.000011,-0.000006, 21,-0.000329,-0.000007,  25.674,   94
    52.6,-0.000019,-0.000008, 21,-0.000322,-0.000020,  25.678,   91
    52.8,-0.000023,-0.000010, 21,-0.000316,-0.000056,  25.681,   88
    53.0,-0.000011,-0.000007, 21,-0.000518,-0.000007,  25.674,   92
    53.2,-0.000008,-0.000012, 21,-0.000821,-0.000020,  25.673,   95
    53.4,-0.000012,-0.000012, 21,-0.001217,-0.000020,  25.673,   95
    53.6,-0.000010,-0.000010, 21,-0.001198,-0.000020,  25.677,   95
    53.8,-0.000010,-0.000010, 21,-0.001053,-0.000056,  25.671,   95
    54.0,-0.000014,-0.000008, 21,-0.000732,-0.000020,  25.676,   95
    54.2,-0.000014,-0.000009, 21,-0.000638,-0.000056,  25.671,   95
    54.4,-0.000016,-0.000012, 21,-0.000581,-0.000056,  25.672,   94
    54.6,-0.000020,-0.000011, 21,-0.000543,-0.000020,  25.669,   95
    54.8,-0.000014,-0.000012, 21,-0.000549,-0.000056,  25.672,   95
    55.0,-0.000016,-0.000019, 21,-0.000562,-0.000007,  25.673,   95
    55.2,-0.000026,-0.000020, 21,-0.000575,-0.000020,  25.672,   94
    55.4,-0.000033,-0.000021, 21,-0.000600,-0.000056,  25.674,   95
    55.6,-0.000049,-0.000023, 21,-0.000543,-0.000020,  25.675,   96
    55.8,-0.000056,-0.000027, 21,-0.000449,-0.000033,  25.673,   91
    56.0,-0.000049,-0.000027, 21,-0.000329,-0.000069,  25.673,   85
    56.2,-0.000037,-0.000025, 21,-0.000291,-0.000033,  25.672,   90
    56.4,-0.000041,-0.000028, 21,-0.000266,-0.000033,  25.676,   95
    56.6,-0.000041,-0.000026, 21,-0.000266,-0.000069,  25.669,   95
    56.8,-0.000031,-0.000023, 21,-0.000297,-0.000033,  25.671,   96
    57.0,-0.000035,-0.000021, 21,-0.000341,-0.000033,  25.672,   95
    57.2,-0.000030,-0.000023, 21,-0.000423,-0.000069,  25.669,   95
    57.4,-0.000021,-0.000019, 21,-0.000442,-0.000069,  25.670,   94
    57.6,-0.000022,-0.000021, 21,-0.000442,-0.000069,  25.672,   92
    57.8,-0.000022,-0.000021, 21,-0.000461,-0.000106,  25.670,   93
    58.0,-0.000024,-0.000021, 21,-0.000442,-0.000092,  25.672,   94
    58.2,-0.000028,-0.000019, 21,-0.000430,-0.000056,  25.670,   96
    58.4,-0.000019,-0.000017, 21,-0.000385,-0.000092,  25.671,   98
    58.6,-0.000016,-0.000012, 21,-0.000537,-0.000092,  25.670,   97
    58.8,-0.000020,-0.000012, 21,-0.000789,-0.000069,  25.668,   95
    59.0,-0.000014,-0.000012, 21,-0.001129,-0.000106,  25.672,   98
    59.2,-0.000016,-0.000015, 21,-0.001123,-0.000106,  25.668,  101
    59.4,-0.000020,-0.000017, 21,-0.001003,-0.000069,  25.672,   98
    59.6,-0.000014,-0.000011, 21,-0.000776,-0.000106,  25.675,   95
    59.8,-0.000014,-0.000010, 21,-0.000814,-0.000092,  25.670,   94
    60.0,-0.000020,-0.000015, 21,-0.000965,-0.000056,  25.673,   94
    60.2,-0.000016,-0.000010, 21,-0.001198,-0.000092,  25.670,   94
    60.4,-0.000019,-0.000010, 21,-0.001173,-0.000043,  25.667,   93
    60.6,-0.000031,-0.000019, 21,-0.001079,-0.000020,  25.669,   94
    60.8,-0.000035,-0.000022, 21,-0.000909,-0.000056,  25.667,   94
    61.0,-0.000045,-0.000034, 21,-0.000827,-0.000020,  25.665,   89
    61.2,-0.000048,-0.000039, 21,-0.000745,-0.000033,  25.667,   84
    61.4,-0.000045,-0.000032, 21,-0.000663,-0.000069,  25.671,   87
    61.6,-0.000049,-0.000030, 21,-0.000594,-0.000033,  25.673,   91
    61.8,-0.000034,-0.000029, 21,-0.000556,-0.000033,  25.665,   93
    62.0,-0.000031,-0.000025, 21,-0.000505,-0.000069,  25.663,   96
    62.2,-0.000026,-0.000019, 21,-0.000461,-0.000033,  25.667,   94
    62.4,-0.000021,-0.000019, 21,-0.000442,-0.000033,  25.668,   93
    62.6,-0.000022,-0.000017, 21,-0.000430,-0.000069,  25.670,   95
    62.8,-0.000019,-0.000016, 21,-0.000404,-0.000033,  25.661,   96
    63.0,-0.000012,-0.000014, 21,-0.000398,-0.000033,  25.666,   95
    63.2,-0.000016,-0.000016, 21,-0.000398,-0.000033,  25.671,   94
    63.4,-0.000016,-0.000013, 21,-0.000411,-0.000020,  25.665,   94
    63.6,-0.000010,-0.000011, 21,-0.000430,-0.000069,  25.666,   94
    63.8,-0.000011,-0.000014, 21,-0.000467,-0.000033,  25.667,   95
    64.0,-0.000011,-0.000007, 21,-0.000461,-0.000069,  25.667,   96
    64.2,-0.000004,-0.000005, 21,-0.000442,-0.000069,  25.667,   95
    64.4,-0.000008,-0.000005, 21,-0.000429,-0.000033,  25.667,   95
    64.6,-0.000005,-0.000002, 21,-0.000398,-0.000069,  25.669,   95
    64.8,0.000001,-0.000003, 21,-0.000373,-0.000033,  25.666,   96
    65.0,-0.000005,0.000001, 21,-0.000341,-0.000033,  25.661,   95
    65.2,-0.000005,-0.000001, 21,-0.000309,-0.000069,  25.665,   95
    65.4,-0.000002,-0.000004, 21,-0.000335,-0.000033,  25.668,   95
    65.6,-0.000008,0.000001, 21,-0.000354,-0.000033,  25.670,   95
    65.8,-0.000005,-0.000004, 21,-0.000404,-0.000069,  25.662,   95
    66.0,-0.000002,-0.000006, 21,-0.000411,-0.000033,  25.666,   95
    66.2,-0.000011,-0.000003, 21,-0.000430,-0.000033,  25.665,   95
    66.4,-0.000011,-0.000000, 21,-0.000448,-0.000069,  25.668,   95
    66.6,-0.000007,-0.000005, 21,-0.000461,-0.000033,  25.664,   94
    66.8,-0.000016,-0.000005, 21,-0.000467,-0.000033,  25.669,   93
    67.0,-0.000016,-0.000008, 21,-0.000461,-0.000069,  25.668,   93
    67.2,-0.000010,-0.000008, 21,-0.000682,-0.000020,  25.667,   94
    67.4,-0.000011,-0.000010, 21,-0.001009,-0.000020,  25.662,   94
    67.6,-0.000011,-0.000012, 21,-0.001425,-0.000056,  25.668,   95
    67.8,-0.000011,-0.000011, 21,-0.001406,-0.000007,  25.669,   95
    68.0,-0.000018,-0.000009, 21,-0.001242,-0.000020,  25.666,   95
    68.2,-0.000011,-0.000007, 21,-0.000915,-0.000056,  25.669,   94
    68.4,-0.000014,-0.000010, 21,-0.000826,-0.000007,  25.669,   93
    68.6,-0.000023,-0.000010, 21,-0.000782,-0.000020,  25.667,   93
    68.8,-0.000016,-0.000009, 21,-0.000770,-0.000056,  25.663,   94
    69.0,-0.000007,-0.000008, 21,-0.000713,-0.000020,  25.669,   96
    69.2,-0.000014,-0.000009, 21,-0.000656,-0.000033,  25.663,   98
    69.4,-0.000014,-0.000008, 21,-0.000568,-0.000069,  25.664,   97
    69.6,-0.000016,-0.000006, 21,-0.000537,-0.000033,  25.665,   95
    69.8,-0.000020,-0.000009, 21,-0.000537,-0.000033,  25.662,   94
    70.0,-0.000014,-0.000007, 21,-0.000556,-0.000069,  25.659,   94
    70.2,-0.000016,-0.000006, 21,-0.000518,-0.000033,  25.666,   94
    70.4,-0.000020,-0.000011, 21,-0.000492,-0.000033,  25.662,   94
    70.6,-0.000016,-0.000011, 21,-0.000461,-0.000069,  25.663,   95
    70.8,-0.000012,-0.000008, 21,-0.000455,-0.000033,  25.662,   95
    71.0,-0.000015,-0.000012, 21,-0.000436,-0.000033,  25.663,   94
    71.2,-0.000012,-0.000009, 21,-0.000436,-0.000069,  25.664,   94
    71.4,-0.000022,-0.000005, 21,-0.000448,-0.000033,  25.664,   95
    71.6,-0.000012,-0.000007, 21,-0.000455,-0.000046,  25.664,   95
    71.8,-0.000010,-0.000008, 21,-0.000467,-0.000082,  25.663,   92
    72.0,-0.000015,-0.000006, 21,-0.000480,-0.000033,  25.662,   88
    72.2,-0.000018,-0.000006, 21,-0.000492,-0.000033,  25.664,   92
    72.4,-0.000024,-0.000008, 21,-0.000492,-0.000069,  25.666,   96
    72.6,-0.000027,-0.000006, 21,-0.000474,-0.000033,  25.661,   96
    72.8,-0.000023,-0.000006, 21,-0.000455,-0.000046,  25.663,   96
    73.0,-0.000030,-0.000008, 21,-0.000442,-0.000059,  25.664,   95
    73.2,-0.000030,-0.000010, 21,-0.000454,-0.000046,  25.665,   94
    73.4,-0.000026,-0.000010, 21,-0.000480,-0.000095,  25.666,   95
    73.6,-0.000033,-0.000012, 21,-0.000537,-0.000046,  25.666,   96
    73.8,-0.000030,-0.000012, 21,-0.000707,-0.000069,  25.662,   95
    74.0,-0.000026,-0.000012, 21,-0.000946,-0.000082,  25.662,   93
    74.2,-0.000033,-0.000019, 21,-0.001236,-0.000046,  25.665,   94
    74.4,-0.000023,-0.000017, 21,-0.001292,-0.000082,  25.665,   95
    74.6,-0.000019,-0.000017, 21,-0.001286,-0.000033,  25.668,   96
    74.8,-0.000026,-0.000022, 21,-0.001198,-0.000033,  25.661,   96
    75.0,-0.000017,-0.000019, 21,-0.001041,-0.000069,  25.664,   96
    75.2,-0.000017,-0.000019, 21,-0.000952,-0.000020,  25.665,   95
    75.4,-0.000023,-0.000022, 21,-0.000864,-0.000020,  25.666,   95
    75.6,-0.000017,-0.000019, 21,-0.000770,-0.000056,  25.665,   96
    75.8,-0.000017,-0.000019, 21,-0.000713,-0.000007,  25.666,   95
    76.0,-0.000023,-0.000022, 21,-0.000669,-0.000020,  25.670,   95
    76.2,-0.000017,-0.000017, 21,-0.000662,-0.000056,  25.663,   96
    76.4,-0.000017,-0.000015, 21,-0.000662,-0.000007,  25.670,   96
    76.6,-0.000019,-0.000020, 21,-0.000688,-0.000020,  25.669,   95
    76.8,-0.000022,-0.000013, 21,-0.000719,-0.000069,  25.669,   94
    77.0,-0.000021,-0.000015, 21,-0.000726,-0.000046,  25.668,   95
    77.2,-0.000024,-0.000017, 21,-0.000732,-0.000072,  25.668,   95
    77.4,-0.000033,-0.000025, 21,-0.000732,-0.000122,  25.668,   80
    77.6,-0.000032,-0.000025, 21,-0.000688,-0.000085,  25.673,   64
    77.8,-0.000036,-0.000028, 21,-0.000600,-0.000072,  25.671,   79
    78.0,-0.000033,-0.000030, 21,-0.000505,-0.000095,  25.671,   93
    78.2,-0.000030,-0.000027, 21,-0.000480,-0.000046,  25.666,   94
    78.4,-0.000031,-0.000023, 21,-0.000486,-0.000046,  25.669,   95
    78.6,-0.000025,-0.000023, 21,-0.000517,-0.000069,  25.670,   95
    78.8,-0.000022,-0.000018, 21,-0.000517,-0.000020,  25.669,   94
    79.0,-0.000026,-0.000019, 21,-0.000543,-0.000046,  25.664,   94
    79.2,-0.000014,-0.000022, 21,-0.000568,-0.000082,  25.668,   93
    79.4,-0.000014,-0.000018, 21,-0.000587,-0.000033,  25.667,   93
    79.6,-0.000018,-0.000017, 21,-0.000593,-0.000033,  25.668,   94
    79.8,-0.000006,-0.000008, 21,-0.000625,-0.000069,  25.667,   96
    80.0,-0.000003,-0.000004, 21,-0.000612,-0.000020,  25.670,   98
    80.2,-0.000007,-0.000004, 21,-0.000568,-0.000020,  25.666,   97
    80.4,-0.000000,0.000003, 21,-0.000530,-0.000056,  25.669,   96
    80.6,-0.000003,0.000003, 21,-0.000492,-0.000007,  25.670,   95
    80.8,-0.000003,0.000002, 21,-0.000461,-0.000020,  25.667,   95
    81.0,0.000002,0.000008, 21,-0.000429,-0.000056,  25.665,   95
    81.2,0.000002,0.000007, 21,-0.000423,-0.000007,  25.662,   95
    81.4,0.000005,0.000007, 21,-0.000423,-0.000020,  25.668,   95
    81.6,0.000008,0.000014, 21,-0.000455,-0.000056,  25.668,   95
    81.8,0.000008,0.000016, 21,-0.000448,-0.000007,  25.669,   96
    82.0,0.000011,0.000012, 21,-0.000417,-0.000020,  25.669,   96
    82.2,0.000001,0.000009, 21,-0.000391,-0.000069,  25.671,   96
    82.4,-0.000000,0.000008, 21,-0.000404,-0.000046,  25.671,   95
    82.6,-0.000011,0.000002, 21,-0.000436,-0.000085,  25.671,   92
    82.8,-0.000021,-0.000004, 21,-0.000480,-0.000109,  25.667,   88
    83.0,-0.000014,-0.000005, 21,-0.000455,-0.000072,  25.665,   89
    83.2,-0.000014,-0.000007, 21,-0.000417,-0.000059,  25.667,   89
    83.4,-0.000018,-0.000012, 21,-0.000360,-0.000059,  25.672,   92
    83.6,-0.000006,-0.000003, 21,-0.000366,-0.000059,  25.667,   95
    83.8,-0.000000,-0.000003, 21,-0.000392,-0.000082,  25.667,   95
    84.0,-0.000004,-0.000008, 21,-0.000448,-0.000059,  25.667,   94
    84.2,0.000002,-0.000005, 21,-0.000461,-0.000082,  25.668,   95
    84.4,0.000002,-0.000010, 21,-0.000448,-0.000082,  25.666,   96
    84.6,-0.000002,-0.000008, 21,-0.000448,-0.000046,  25.659,   95
    84.8,0.000008,-0.000004, 21,-0.000423,-0.000082,  25.670,   94
    85.0,0.000005,-0.000001, 21,-0.000410,-0.000020,  25.666,   95
    85.2,-0.000002,-0.000004, 21,-0.000379,-0.000020,  25.661,   95
    85.4,0.000008,-0.000003, 21,-0.000341,-0.000043,  25.661,   96
    85.6,0.000005,-0.000008, 21,-0.000354,-0.000007,  25.667,   96
    85.8,-0.000002,-0.000004, 21,-0.000379,-0.000007,  25.661,   96
    86.0,0.000008,-0.000001, 21,-0.000442,-0.000043,  25.662,   96
    86.2,0.000005,-0.000004, 21,-0.000461,-0.000007,  25.665,   96
    86.4,-0.000002,-0.000002, 21,-0.000461,-0.000020,  25.664,   96
    86.6,0.000008,-0.000000, 21,-0.000454,-0.000056,  25.663,   96
    86.8,0.000005,-0.000000, 21,-0.000461,-0.000020,  25.663,   95
    87.0,-0.000004,-0.000000, 21,-0.000454,-0.000033,  25.659,   94
    87.2,0.000002,-0.000002, 21,-0.000454,-0.000069,  25.664,   94
    87.4,-0.000000,-0.000004, 21,-0.000442,-0.000033,  25.664,   94
    87.6,-0.000010,-0.000001, 21,-0.000410,-0.000033,  25.663,   94
    87.8,-0.000008,-0.000008, 21,-0.000379,-0.000069,  25.662,   94
    88.0,-0.000011,-0.000016, 21,-0.000681,-0.000033,  25.659,   95
    88.2,-0.000015,-0.000021, 21,-0.001141,-0.000033,  25.659,   90
    88.4,-0.000015,-0.000019, 21,-0.001770,-0.000069,  25.659,   85
    88.6,-0.000015,-0.000015, 21,-0.001770,-0.000033,  25.660,   89
    88.8,-0.000019,-0.000015, 21,-0.001556,-0.000033,  25.662,   94
    89.0,-0.000016,-0.000013, 21,-0.001103,-0.000069,  25.660,   94
    89.2,-0.000007,-0.000009, 21,-0.000984,-0.000033,  25.661,   94
    89.4,-0.000014,-0.000010, 21,-0.000921,-0.000033,  25.660,   94
    89.6,-0.000014,-0.000005, 21,-0.000902,-0.000069,  25.660,   94
    89.8,-0.000010,-0.000005, 21,-0.000845,-0.000033,  25.660,   94
    90.0,-0.000014,-0.000010, 21,-0.000814,-0.000033,  25.660,   94
    90.2,-0.000014,-0.000009, 21,-0.000782,-0.000069,  25.654,   94
    90.4,-0.000007,-0.000008, 21,-0.000751,-0.000033,  25.663,   94
    90.6,-0.000007,-0.000015, 21,-0.000738,-0.000033,  25.661,   96
    90.8,-0.000007,-0.000012, 21,-0.000738,-0.000069,  25.656,   97
    91.0,-0.000007,-0.000010, 21,-0.000700,-0.000033,  25.656,   96
    91.2,-0.000000,-0.000010, 21,-0.000644,-0.000033,  25.652,   95
    91.4,-0.000000,-0.000010, 21,-0.000587,-0.000069,  25.652,   95
    91.6,-0.000000,-0.000003, 21,-0.000555,-0.000033,  25.654,   95
    91.8,0.000002,0.000001, 21,-0.000530,-0.000033,  25.650,   96
    92.0,0.000002,0.000001, 21,-0.000498,-0.000069,  25.647,   97
    92.2,0.000002,0.000007, 21,-0.000517,-0.000033,  25.650,   96
    92.4,0.000004,0.000007, 21,-0.000562,-0.000033,  25.649,   95
    92.6,0.000006,0.000003, 21,-0.000644,-0.000069,  25.646,   95
    92.8,-0.000000,0.000003, 21,-0.000820,-0.000033,  25.648,   95
    93.0,0.000009,-0.000003, 21,-0.001053,-0.000033,  25.648,   94
    93.2,0.000002,-0.000011, 21,-0.001336,-0.000033,  25.646,   94
    93.4,-0.000000,-0.000019, 21,-0.001330,-0.000020,  25.647,   91
    93.6,-0.000008,-0.000020, 21,-0.001185,-0.000069,  25.644,   88
    93.8,-0.000015,-0.000019, 21,-0.000921,-0.000033,  25.638,   89
    94.0,-0.000011,-0.000019, 21,-0.000826,-0.000069,  25.639,   90
    94.2,-0.000011,-0.000012, 21,-0.000757,-0.000056,  25.637,   93
    94.4,-0.000015,-0.000012, 21,-0.000732,-0.000020,  25.633,   95
    94.6,-0.000008,-0.000009, 21,-0.000675,-0.000056,  25.635,   94
    94.8,-0.000006,-0.000008, 21,-0.000612,-0.000007,  25.631,   94
    95.0,-0.000007,-0.000008, 21,-0.000555,-0.000020,  25.628,   95
    95.2,0.000002,0.000003, 21,-0.000486,-0.000056,  25.629,   97
    95.4,0.000005,0.000007, 21,-0.000511,-0.000007,  25.630,   95
    95.6,0.000001,0.000005, 21,-0.000568,-0.000020,  25.626,   94
    95.8,0.000011,0.000007, 21,-0.000656,-0.000056,  25.626,   94
    96.0,0.000008,0.000010, 21,-0.000669,-0.000007,  25.620,   95
    96.2,0.000001,0.000007, 21,-0.000650,-0.000020,  25.624,   96
    96.4,0.000008,0.000012, 21,-0.000612,-0.000056,  25.626,   97
    96.6,0.000008,0.000009, 21,-0.000581,-0.000007,  25.623,   96
    96.8,0.000001,0.000009, 21,-0.000543,-0.000020,  25.621,   95
    97.0,0.000011,0.000009, 21,-0.000486,-0.000056,  25.625,   96
    97.2,0.000011,0.000006, 21,-0.000480,-0.000007,  25.620,   96
    97.4,0.000011,0.000005, 21,-0.000480,-0.000020,  25.624,   95
    97.6,0.000011,0.000007, 21,-0.000492,-0.000056,  25.622,   94
    97.8,0.000012,0.000009, 21,-0.000498,-0.000007,  25.623,   95
    98.0,0.000012,0.000012, 21,-0.000492,-0.000020,  25.613,   95
    98.2,0.000008,0.000009, 21,-0.000492,-0.000056,  25.616,   94
    98.4,0.000012,0.000005, 21,-0.000505,-0.000007,  25.622,   94
    98.6,0.000009,-0.000006, 21,-0.000511,-0.000020,  25.618,   95
    98.8,-0.000000,-0.000009, 21,-0.000536,-0.000056,  25.617,   95
    99.0,-0.000002,-0.000015, 21,-0.000530,-0.000007,  25.618,   81
    99.2,-0.000008,-0.000021, 21,-0.000511,-0.000020,  25.619,   66
    99.4,-0.000008,-0.000019, 21,-0.000499,-0.000056,  25.624,   80
    99.6,-0.000008,-0.000010, 21,-0.000480,-0.000007,  25.625,   94
    99.8,-0.000010,-0.000011, 21,-0.000461,-0.000020,  25.619,   94
   100.0,0.000002,-0.000005, 21,-0.000448,-0.000056,  25.613,   94
   100.2,0.000005,-0.000001, 21,-0.000480,-0.000007,  25.618,   94
   100.4,0.000001,-0.000006, 21,-0.000524,-0.000020,  25.618,   95
   100.6,0.000011,-0.000001, 21,-0.000625,-0.000056,  25.619,   95
   100.8,0.000005,-0.000001, 21,-0.000593,-0.000007,  25.616,   96
   101.0,0.000005,-0.000001, 21,-0.000530,-0.000020,  25.616,   95
   101.2,0.000008,-0.000000, 21,-0.000429,-0.000043,  25.618,   94
   101.4,0.000008,0.000005, 21,-0.000404,-0.000007,  25.613,   94
   101.6,0.000011,0.000007, 21,-0.000398,-0.000007,  25.618,   95
   101.8,0.000013,0.000003, 21,-0.000404,-0.000030,  25.616,   96
   102.0,0.000011,0.000007, 21,-0.000379,-0.000007,  25.618,   98
   102.2,0.000011,0.000007, 21,-0.000353,-0.000007,  25.620,   97
   102.4,0.000011,0.000011, 21,-0.000316,-0.000030,  25.620,   96
   102.6,0.000011,0.000013, 21,-0.000328,-0.000007,  25.621,   95
   102.8,0.000015,0.000010, 21,-0.000391,-0.000007,  25.617,   95
   103.0,0.000008,0.000017, 21,-0.000473,-0.000007,  25.620,   95
   103.2,0.000008,0.000013, 21,-0.000524,0.000006,  25.622,   95
   103.4,0.000008,0.000006, 21,-0.000562,-0.000043,  25.624,   95
   103.6,0.000001,0.000011, 21,-0.000619,-0.000007,  25.622,   95
   103.8,0.000008,0.000007, 21,-0.000581,-0.000043,  25.622,   95
   104.0,0.000008,0.000002, 21,-0.000486,-0.000056,  25.623,   94
   104.2,-0.000004,-0.000000, 21,-0.000366,-0.000033,  25.622,   92
   104.4,-0.000003,-0.000005, 21,-0.000316,-0.000069,  25.624,   90
   104.6,-0.000014,-0.000010, 21,-0.000303,-0.000033,  25.623,   90
   104.8,-0.000023,-0.000009, 21,-0.000297,-0.000033,  25.623,   90
   105.0,-0.000014,-0.000008, 21,-0.000316,-0.000069,  25.627,   92
   105.2,-0.000014,-0.000013, 21,-0.000372,-0.000033,  25.622,   95
   105.4,-0.000021,-0.000011, 21,-0.000486,-0.000033,  25.623,   94
   105.6,-0.000011,-0.000006, 21,-0.000612,-0.000069,  25.625,   94
   105.8,-0.000014,-0.000011, 21,-0.000644,-0.000033,  25.622,   96
   106.0,-0.000018,-0.000011, 21,-0.000644,-0.000033,  25.625,   98
   106.2,-0.000008,-0.000008, 21,-0.000631,-0.000069,  25.620,   96
   106.4,-0.000006,-0.000010, 21,-0.000606,-0.000033,  25.621,   94
   106.6,-0.000010,-0.000015, 21,-0.000568,-0.000033,  25.625,   95
   106.8,-0.000003,-0.000009, 21,-0.000524,-0.000069,  25.623,   96
   107.0,-0.000003,-0.000006, 21,-0.000524,-0.000033,  25.626,   96
   107.2,-0.000007,-0.000011, 21,-0.000555,-0.000033,  25.624,   97
   107.4,-0.000000,-0.000008, 21,-0.000606,-0.000069,  25.621,   95
   107.6,-0.000003,-0.000013, 21,-0.000599,-0.000033,  25.623,   94
   107.8,-0.000007,-0.000016, 21,-0.000587,-0.000033,  25.621,   96
   108.0,-0.000000,-0.000014, 21,-0.000555,-0.000069,  25.624,   97
   108.2,-0.000003,-0.000010, 21,-0.000587,-0.000033,  25.624,   97
   108.4,-0.000007,-0.000012, 21,-0.000631,-0.000033,  25.623,   96
   108.6,-0.000000,-0.000013, 21,-0.000726,-0.000069,  25.623,   95
   108.8,-0.000003,-0.000012, 21,-0.000719,-0.000033,  25.622,   95
   109.0,-0.000003,-0.000012, 21,-0.000675,-0.000033,  25.623,   94
   109.2,-0.000008,-0.000012, 21,-0.000618,-0.000082,  25.624,   93
   109.4,-0.000010,-0.000006, 21,-0.000555,-0.000059,  25.624,   94
   109.6,-0.000013,-0.000008, 21,-0.000492,-0.000085,  25.626,   95
   109.8,-0.000025,-0.000015, 21,-0.000410,-0.000122,  25.622,   82
   110.0,-0.000026,-0.000019, 21,-0.000385,-0.000085,  25.624,   69
   110.2,-0.000026,-0.000021, 21,-0.000385,-0.000072,  25.626,   81
   110.4,-0.000026,-0.000023, 21,-0.000410,-0.000095,  25.628,   94
   110.6,-0.000017,-0.000020, 21,-0.000536,-0.000059,  25.623,   94
   110.8,-0.000014,-0.000016, 21,-0.000744,-0.000059,  25.625,   94
   111.0,-0.000021,-0.000019, 21,-0.001022,-0.000082,  25.620,   94
   111.2,-0.000009,-0.000015, 21,-0.001053,-0.000033,  25.624,   94
   111.4,-0.000015,-0.000013, 21,-0.000996,-0.000046,  25.618,   94
   111.6,-0.000013,-0.000013, 21,-0.000877,-0.000082,  25.623,   93
   111.8,-0.000013,-0.000010, 21,-0.000826,-0.000033,  25.624,   95
   112.0,-0.000010,-0.000010, 21,-0.000801,-0.000046,  25.624,   96
   112.2,-0.000007,-0.000012, 21,-0.000770,-0.000082,  25.623,   96
   112.4,-0.000014,-0.000010, 21,-0.000744,-0.000020,  25.622,   95
   112.6,-0.000005,-0.000008, 21,-0.000707,-0.000020,  25.621,   96
   112.8,-0.000002,-0.000013, 21,-0.000681,-0.000007,  25.621,   96
   113.0,-0.000011,-0.000009, 21,-0.000694,-0.000007,  25.622,   95
   113.2,-0.000005,-0.000010, 21,-0.000700,-0.000043,  25.622,   94
   113.4,-0.000002,-0.000015, 21,-0.000726,-0.000020,  25.623,   95
   113.6,-0.000008,-0.000012, 21,-0.000751,-0.000056,  25.627,   95
   113.8,-0.000002,-0.000017, 21,-0.000808,-0.000069,  25.626,   95
   114.0,0.000001,-0.000012, 21,-0.000890,-0.000033,  25.625,   95
   114.2,-0.000003,-0.000010, 21,-0.000871,-0.000069,  25.625,   94
   114.4,0.000004,-0.000015, 21,-0.000808,-0.000033,  25.623,   94
   114.6,0.000004,-0.000015, 21,-0.000732,-0.000033,  25.627,   94
   114.8,-0.000006,-0.000012, 21,-0.000612,-0.000069,  25.622,   95
   115.0,-0.000007,-0.000015, 21,-0.000593,-0.000033,  25.627,   93
   115.2,-0.000005,-0.000011, 21,-0.000581,-0.000033,  25.626,   91
   115.4,-0.000008,-0.000006, 21,-0.000606,-0.000069,  25.629,   93
   115.6,-0.000002,-0.000006, 21,-0.000593,-0.000033,  25.627,   94
   115.8,-0.000003,-0.000006, 21,-0.000600,-0.000033,  25.626,   95
   116.0,-0.000000,0.000001, 21,-0.000593,-0.000069,  25.629,   95
   116.2,0.000002,-0.000001, 21,-0.000530,-0.000020,  25.626,   95
   116.4,0.000001,-0.000002, 21,-0.000467,-0.000020,  25.627,   95
   116.6,0.000011,0.000002, 21,-0.000379,-0.000056,  25.630,   96
   116.8,0.000013,-0.000001, 21,-0.000353,-0.000007,  25.625,   97
   117.0,0.000009,0.000006, 21,-0.000353,-0.000020,  25.628,   95
   117.2,0.000016,0.000001, 21,-0.000404,-0.000056,  25.631,   93
   117.4,0.000019,0.000004, 21,-0.000385,-0.000007,  25.633,   94
   117.6,0.000015,0.000006, 21,-0.000353,-0.000020,  25.629,   94
   117.8,0.000021,0.000006, 21,-0.000322,-0.000056,  25.632,   96
   118.0,0.000024,0.000006, 21,-0.000309,-0.000007,  25.634,   97
   118.2,0.000020,0.000006, 21,-0.000322,-0.000020,  25.637,   95
   118.4,0.000030,0.000004, 21,-0.000366,-0.000056,  25.638,   94
   118.6,0.000030,0.000007, 21,-0.000373,-0.000007,  25.636,   95
   118.8,0.000026,0.000007, 21,-0.000379,-0.000020,  25.637,   97
   119.0,0.000035,0.000008, 21,-0.000410,-0.000056,  25.638,   96
   119.2,0.000030,0.000018, 21,-0.000417,-0.000007,  25.639,   95
   119.4,0.000023,0.000018, 21,-0.000417,-0.000020,  25.641,   95
   119.6,0.000030,0.000016, 21,-0.000410,-0.000056,  25.639,   95
   119.8,0.000027,0.000018, 21,-0.000404,-0.000007,  25.646,   94
   120.0,0.000020,0.000012, 21,-0.000404,-0.000020,  25.641,   93
   120.2,0.000030,0.000010, 21,-0.000410,-0.000056,  25.643,   94
   120.4,0.000030,0.000009, 21,-0.000423,-0.000020,  25.642,   95
   120.6,0.000030,0.000002, 21,-0.000442,-0.000033,  25.642,   92
   120.8,0.000032,0.000007, 21,-0.000474,-0.000069,  25.644,   89
   121.0,0.000032,0.000007, 21,-0.000480,-0.000033,  25.647,   92
   121.2,0.000032,0.000011, 21,-0.000512,-0.000033,  25.646,   95
   121.4,0.000035,0.000011, 21,-0.000537,-0.000069,  25.648,   95
   121.6,0.000038,0.000016, 21,-0.000537,-0.000033,  25.649,   94
   121.8,0.000038,0.000020, 21,-0.000524,-0.000033,  25.659,   95
   122.0,0.000034,0.000019, 21,-0.000530,-0.000069,  25.654,   97
   122.2,0.000041,0.000026, 21,-0.000511,-0.000033,  25.652,   97
   122.4,0.000043,0.000025, 21,-0.000455,-0.000033,  25.656,   96
   122.6,0.000042,0.000020, 21,-0.000392,-0.000033,  25.661,   95
   122.8,0.000042,0.000019, 21,-0.000335,-0.000020,  25.655,   93
   123.0,0.000045,0.000018, 21,-0.000291,-0.000069,  25.659,   94
   123.2,0.000041,0.000022, 21,-0.000221,-0.000033,  25.660,   94
   123.4,0.000044,0.000029, 21,-0.000385,-0.000069,  25.662,   95
   123.6,0.000050,0.000029, 21,-0.000669,-0.000069,  25.661,   95
   123.8,0.000044,0.000031, 21,-0.001072,-0.000033,  25.662,   96
   124.0,0.000046,0.000031, 21,-0.001148,-0.000069,  25.659,   96
   124.2,0.000053,0.000033, 21,-0.001097,-0.000033,  25.658,   96
   124.4,0.000049,0.000040, 21,-0.000953,-0.000033,  25.655,   95
   124.6,0.000049,0.000040, 21,-0.000688,-0.000069,  25.658,   95
   124.8,0.000056,0.000036, 21,-0.000594,-0.000033,  25.658,   94
   125.0,0.000052,0.000044, 21,-0.000505,-0.000033,  25.658,   94
   125.2,0.000054,0.000044, 21,-0.000430,-0.000069,  25.658,   94
   125.4,0.000064,0.000040, 21,-0.000367,-0.000020,  25.662,   94
   125.6,0.000060,0.000044, 21,-0.000316,-0.000020,  25.658,   94
   125.8,0.000060,0.000048, 21,-0.000285,-0.000056,  25.659,   94
   126.0,0.000064,0.000048, 21,-0.000253,-0.000007,  25.659,   94
   126.2,0.000060,0.000047, 21,-0.000247,-0.000020,  25.660,   94
   126.4,0.000060,0.000053, 21,-0.000234,-0.000056,  25.658,   95
   126.6,0.000064,0.000051, 21,-0.000253,-0.000007,  25.660,   95
   126.8,0.000060,0.000050, 21,-0.000266,-0.000020,  25.656,   95
   127.0,0.000067,0.000045, 21,-0.000316,-0.000056,  25.657,   93
   127.2,0.000070,0.000047, 21,-0.000322,-0.000020,  25.654,   92
   127.4,0.000069,0.000045, 21,-0.000322,-0.000046,  25.655,   94
   127.6,0.000079,0.000048, 21,-0.000310,-0.000082,  25.656,   96
   127.8,0.000081,0.000051, 21,-0.000303,-0.000033,  25.652,   94
   128.0,0.000080,0.000050, 21,-0.000291,-0.000033,  25.653,   93
   128.2,0.000083,0.000051, 21,-0.000266,-0.000069,  25.653,   94
   128.4,0.000083,0.000062, 21,-0.000265,-0.000033,  25.649,   95
   128.6,0.000079,0.000060, 21,-0.000246,-0.000033,  25.656,   96
   128.8,0.000079,0.000062, 21,-0.000240,-0.000069,  25.653,   97
   129.0,0.000083,0.000061, 21,-0.000278,-0.000033,  25.652,   95
   129.2,0.000079,0.000060, 21,-0.000328,-0.000033,  25.652,   93
   129.4,0.000079,0.000057, 21,-0.000429,-0.000069,  25.647,   95
   129.6,0.000086,0.000064, 21,-0.000467,-0.000033,  25.646,   97
   129.8,0.000082,0.000064, 21,-0.000486,-0.000033,  25.645,   96
   130.0,0.000079,0.000060, 21,-0.000505,-0.000069,  25.642,   95
   130.2,0.000086,0.000061, 21,-0.000511,-0.000033,  25.645,   95
   130.4,0.000086,0.000064, 21,-0.000530,-0.000033,  25.641,   95
   130.6,0.000088,0.000062, 21,-0.000536,-0.000069,  25.647,   94
   130.8,0.000079,0.000060, 21,-0.000555,-0.000069,  25.651,   93
   131.0,0.000088,0.000064, 21,-0.000587,-0.000069,  25.646,   94
   131.2,0.000088,0.000067, 21,-0.000637,-0.000106,  25.643,   94
   131.4,0.000086,0.000069, 21,-0.000681,-0.000069,  25.644,   92
   131.6,0.000090,0.000068, 21,-0.000731,-0.000046,  25.642,   91
   131.8,0.000092,0.000073, 21,-0.000801,-0.000082,  25.650,   94
   132.0,0.000092,0.000075, 21,-0.000864,-0.000033,  25.649,   98
   132.2,0.000096,0.000075, 21,-0.000914,-0.000046,  25.647,   96
   132.4,0.000099,0.000080, 21,-0.000989,-0.000082,  25.647,   94
   132.6,0.000095,0.000086, 21,-0.001115,-0.000033,  25.651,   94
   132.8,0.000104,0.000085, 21,-0.001260,-0.000046,  25.645,   95
   133.0,0.000104,0.000077, 21,-0.001424,-0.000046,  25.641,   95
   133.2,0.000095,0.000079, 21,-0.001505,-0.000046,  25.644,   95
   133.4,0.000099,0.000076, 21,-0.001580,-0.000082,  25.643,   94
   133.6,0.000102,0.000076, 21,-0.001599,-0.000046,  25.646,   93
   133.8,0.000092,0.000077, 21,-0.001668,-0.000069,  25.648,   94
   134.0,0.000096,0.000073, 21,-0.001731,-0.000082,  25.651,   95
   134.2,0.000099,0.000071, 21,-0.001806,-0.000059,  25.649,   95
   134.4,0.000090,0.000073, 21,-0.001888,-0.000109,  25.646,   96
   134.6,0.000093,0.000069, 21,-0.001969,-0.000072,  25.647,   95
   134.8,0.000093,0.000067, 21,-0.002045,-0.000072,  25.648,   95
   135.0,0.000084,0.000070, 21,-0.002107,-0.000122,  25.644,   95
   135.2,0.000085,0.000070, 21,-0.002170,-0.000085,  25.638,   96
   135.4,0.000083,0.000068, 21,-0.002245,-0.000072,  25.644,   95
   135.6,0.000073,0.000068, 21,-0.002339,-0.000109,  25.640,   94
   135.8,0.000072,0.000066, 21,-0.002464,-0.000072,  25.641,   95
   136.0,0.000069,0.000062, 21,-0.002608,-0.000085,  25.640,   95
   136.2,0.000060,0.000060, 21,-0.002784,-0.000109,  25.642,   95
   136.4,0.000061,0.000056, 21,-0.002909,-0.000099,  25.641,   94
   136.6,0.000051,0.000052, 21,-0.003015,-0.000125,  25.639,   94
   136.8,0.000046,0.000048, 21,-0.003128,-0.000161,  25.640,   94
   137.0,0.000038,0.000042, 21,-0.003278,-0.000125,  25.634,   91
   137.2,0.000032,0.000034, 21,-0.003453,-0.000138,  25.637,   88
   137.4,0.000021,0.000025, 21,-0.003653,-0.000174,  25.639,   90
   137.6,0.000020,0.000022, 21,-0.003984,-0.000138,  25.632,   92
   137.8,0.000015,0.000018, 21,-0.004427,-0.000151,  25.634,   94
   138.0,-0.000000,0.000009, 21,-0.004939,-0.000187,  25.630,   95
   138.2,-0.000002,0.000005, 21,-0.005132,-0.000164,  25.630,   95
   138.4,-0.000005,0.000003, 21,-0.005200,-0.000177,  25.630,   96
   138.6,-0.000017,-0.000007, 21,-0.005163,-0.000213,  25.630,   95
   138.8,-0.000015,-0.000007, 21,-0.005318,-0.000177,  25.623,   93
   139.0,-0.000021,-0.000010, 21,-0.005518,-0.000177,  25.624,   93
   139.2,-0.000030,-0.000017, 21,-0.005754,-0.000226,  25.618,   94
   139.4,-0.000032,-0.000021, 21,-0.006102,-0.000190,  25.617,   96
   139.6,-0.000037,-0.000026, 21,-0.006543,-0.000190,  25.619,   98
   139.8,-0.000047,-0.000030, 21,-0.007063,-0.000239,  25.615,   96
   140.0,-0.000045,-0.000035, 21,-0.007330,-0.000203,  25.611,   94
   140.2,-0.000051,-0.000041, 21,-0.007546,-0.000203,  25.610,   96
   140.4,-0.000060,-0.000046, 21,-0.007658,-0.000226,  25.610,   98
   140.6,-0.000059,-0.000049, 21,-0.007819,-0.000203,  25.607,   97
   140.8,-0.000064,-0.000058, 21,-0.007986,-0.000229,  25.602,   95
   141.0,-0.000070,-0.000064, 21,-0.008129,-0.000252,  25.594,   95
   141.2,-0.000081,-0.000067, 21,-0.008382,-0.000229,  25.588,   95
   141.4,-0.000092,-0.000076, 21,-0.008667,-0.000242,  25.588,   94
   141.6,-0.000103,-0.000083, 21,-0.009012,-0.000279,  25.586,   93
   141.8,-0.000120,-0.000086, 21,-0.009413,-0.000255,  25.582,   95
   142.0,-0.000124,-0.000097, 21,-0.009850,-0.000268,  25.579,   97
   142.2,-0.000130,-0.000096, 21,-0.010367,-0.000305,  25.573,   92
   142.4,-0.000138,-0.000098, 21,-0.010650,-0.000282,  25.567,   88
   142.6,-0.000142,-0.000109, 21,-0.010847,-0.000295,  25.567,   92
   142.8,-0.000148,-0.000109, 21,-0.010983,-0.000308,  25.561,   96
   143.0,-0.000162,-0.000117, 21,-0.011272,-0.000308,  25.556,   95
   143.2,-0.000173,-0.000125, 21,-0.011622,-0.000344,  25.555,   94
   143.4,-0.000179,-0.000133, 21,-0.012014,-0.000321,  25.552,   94
   143.6,-0.000194,-0.000139, 21,-0.012357,-0.000344,  25.547,   94
   143.8,-0.000198,-0.000148, 21,-0.012701,-0.000357,  25.542,   95
   144.0,-0.000203,-0.000159, 21,-0.013062,-0.000334,  25.534,   96
   144.2,-0.000218,-0.000161, 21,-0.013386,-0.000357,  25.531,   95
   144.4,-0.000219,-0.000172, 21,-0.013685,-0.000347,  25.521,   94
   144.6,-0.000225,-0.000182, 21,-0.014009,-0.000360,  25.520,   95
   144.8,-0.000245,-0.000190, 21,-0.014302,-0.000396,  25.510,   95
   145.0,-0.000249,-0.000203, 21,-0.014728,-0.000373,  25.504,   96
   145.2,-0.000258,-0.000204, 21,-0.015191,-0.000386,  25.497,   96
   145.4,-0.000272,-0.000205, 21,-0.015701,-0.000422,  25.489,   96
   145.6,-0.000277,-0.000214, 21,-0.016199,-0.000399,  25.485,   96
   145.8,-0.000285,-0.000222, 21,-0.016733,-0.000412,  25.476,   96
   146.0,-0.000300,-0.000229, 21,-0.017271,-0.000462,  25.466,   96
   146.2,-0.000304,-0.000238, 21,-0.017750,-0.000425,  25.461,   96
   146.4,-0.000312,-0.000251, 21,-0.018215,-0.000438,  25.453,   95
   146.6,-0.000320,-0.000256, 21,-0.018651,-0.000475,  25.445,   95
   146.8,-0.000322,-0.000262, 21,-0.019139,-0.000451,  25.438,   95
   147.0,-0.000333,-0.000268, 21,-0.019634,-0.000451,  25.425,   93
   147.2,-0.000346,-0.000275, 21,-0.020151,-0.000475,  25.410,   92
   147.4,-0.000360,-0.000276, 21,-0.020614,-0.000451,  25.401,   94
   147.6,-0.000365,-0.000284, 21,-0.021058,-0.000451,  25.393,   95
   147.8,-0.000377,-0.000286, 21,-0.021484,-0.000488,  25.379,   91
   148.0,-0.000377,-0.000280, 21,-0.021981,-0.000465,  25.375,   87
   148.2,-0.000383,-0.000289, 21,-0.022532,-0.000491,  25.365,   91
   148.4,-0.000397,-0.000297, 21,-0.023112,-0.000527,  25.355,   94
   148.6,-0.000404,-0.000307, 21,-0.023644,-0.000491,  25.340,   95
   148.8,-0.000413,-0.000320, 21,-0.024193,-0.000517,  25.325,   96
   149.0,-0.000422,-0.000330, 21,-0.024747,-0.000553,  25.312,   95
   149.2,-0.000423,-0.000338, 21,-0.025324,-0.000517,  25.296,   95
   149.4,-0.000426,-0.000344, 21,-0.025912,-0.000530,  25.288,   94
   149.6,-0.000433,-0.000348, 21,-0.026510,-0.000579,  25.273,   94
   149.8,-0.000429,-0.000340, 21,-0.027220,-0.000543,  25.254,   94
   150.0,-0.000434,-0.000347, 21,-0.027981,-0.000543,  25.241,   94
   150.2,-0.000446,-0.000351, 21,-0.028811,-0.000592,  25.227,   96
   150.4,-0.000451,-0.000356, 21,-0.029412,-0.000569,  25.215,   98
   150.6,-0.000456,-0.000362, 21,-0.029948,-0.000533,  25.201,   96
   150.8,-0.000465,-0.000364, 21,-0.030426,-0.000556,  25.180,   94
   151.0,-0.000459,-0.000369, 21,-0.030990,-0.000569,  25.167,   95
   151.2,-0.000459,-0.000375, 21,-0.031577,-0.000546,  25.147,   96
   151.4,-0.000462,-0.000373, 21,-0.032181,-0.000569,  25.132,   96
   151.6,-0.000464,-0.000372, 21,-0.032749,-0.000569,  25.113,   95
   151.8,-0.000467,-0.000374, 21,-0.033329,-0.000546,  25.091,   97
   152.0,-0.000464,-0.000378, 21,-0.033902,-0.000569,  25.078,   98
   152.2,-0.000474,-0.000382, 21,-0.034532,-0.000582,  25.052,   97
   152.4,-0.000470,-0.000395, 21,-0.035188,-0.000559,  25.036,   95
   152.6,-0.000467,-0.000407, 21,-0.035866,-0.000572,  25.016,   95
   152.8,-0.000474,-0.000421, 21,-0.036482,-0.000559,  24.994,   96
   153.0,-0.000464,-0.000422, 21,-0.037073,-0.000608,  24.968,   88
   153.2,-0.000462,-0.000414, 21,-0.037646,-0.000595,  24.944,   81
   153.4,-0.000468,-0.000402, 21,-0.038305,-0.000618,  24.931,   88
   153.6,-0.000459,-0.000399, 21,-0.039007,-0.000631,  24.910,   94
   153.8,-0.000453,-0.000390, 21,-0.039753,-0.000608,  24.890,   94
   154.0,-0.000457,-0.000388, 21,-0.040333,-0.000644,  24.865,   94
   154.2,-0.000445,-0.000384, 21,-0.040873,-0.000595,  24.836,   94
   154.4,-0.000434,-0.000376, 21,-0.041361,-0.000608,  24.820,   94
   154.6,-0.000436,-0.000366, 21,-0.041784,-0.000644,  24.797,   95
   154.8,-0.000421,-0.000358, 21,-0.042397,-0.000595,  24.774,   96
   155.0,-0.000411,-0.000348, 21,-0.043071,-0.000608,  24.754,   95
   155.2,-0.000397,-0.000334, 21,-0.043795,-0.000631,  24.718,   93
   155.4,-0.000378,-0.000323, 21,-0.044513,-0.000595,  24.702,   94
   155.6,-0.000369,-0.000312, 21,-0.045250,-0.000595,  24.677,   95
   155.8,-0.000349,-0.000303, 21,-0.046021,-0.000618,  24.649,   96
   156.0,-0.000338,-0.000298, 21,-0.046718,-0.000582,  24.622,   96
   156.2,-0.000328,-0.000281, 21,-0.047375,-0.000582,  24.593,   96
   156.4,-0.000302,-0.000266, 21,-0.048009,-0.000605,  24.571,   95
   156.6,-0.000286,-0.000251, 21,-0.048967,-0.000569,  24.547,   96
   156.8,-0.000274,-0.000242, 21,-0.050088,-0.000569,  24.515,   96
   157.0,-0.000245,-0.000229, 21,-0.051347,-0.000579,  24.485,   95
   157.2,-0.000221,-0.000223, 21,-0.052085,-0.000543,  24.449,   94
   157.4,-0.000203,-0.000209, 21,-0.052618,-0.000530,  24.427,   94
   157.6,-0.000172,-0.000187, 21,-0.052966,-0.000553,  24.398,   94
   157.8,-0.000145,-0.000172, 21,-0.053543,-0.000491,  24.375,   94
   158.0,-0.000119,-0.000168, 21,-0.054107,-0.000491,  24.342,   93
   158.2,-0.000077,-0.000168, 21,-0.054687,-0.000514,  24.303,   95
   158.4,-0.000044,-0.000167, 21,-0.055272,-0.000465,  24.278,   97
   158.6,-0.000008,-0.000140, 21,-0.055854,-0.000451,  24.245,   94
   158.8,0.000027,-0.000106, 21,-0.056452,-0.000462,  24.216,   91
   159.0,0.000069,-0.000056, 21,-0.057019,-0.000425,  24.197,   92
   159.2,0.000110,-0.000019, 21,-0.057552,-0.000412,  24.151,   94
   159.4,0.000144,0.000017, 21,-0.058073,-0.000422,  24.124,   94
   159.6,0.000197,0.000049, 21,-0.058637,-0.000360,  24.094,   95
   159.8,0.000246,0.000081, 21,-0.059214,-0.000347,  24.061,   95
   160.0,0.000286,0.000115, 21,-0.059834,-0.000357,  24.029,   96
   160.2,0.000341,0.000145, 21,-0.060340,-0.000308,  23.984,   94
   160.4,0.000385,0.000181, 21,-0.060819,-0.000295,  23.954,   93
   160.6,0.000422,0.000224, 21,-0.061265,-0.000305,  23.927,   93
   160.8,0.000472,0.000272, 21,-0.061758,-0.000242,  23.890,   94
   161.0,0.000510,0.000316, 21,-0.062270,-0.000229,  23.856,   96
   161.2,0.000570,0.000360, 21,-0.062784,-0.000239,  23.809,   99
   161.4,0.000633,0.000404, 21,-0.063230,-0.000177,  23.780,   96
   161.6,0.000701,0.000451, 21,-0.063664,-0.000151,  23.740,   94
   161.8,0.000769,0.000501, 21,-0.064064,-0.000161,  23.709,   97
   162.0,0.000833,0.000554, 21,-0.064395,-0.000099,  23.671,   99
   162.2,0.000914,0.000605, 21,-0.064688,-0.000072,  23.617,   97
   162.4,0.000975,0.000652, 21,-0.064955,-0.000082,  23.588,   96
   162.6,0.001043,0.000701, 21,-0.065194,-0.000020,  23.555,   96
   162.8,0.001112,0.000754, 21,-0.065389,0.000006,  23.515,   96
   163.0,0.001179,0.000801, 21,-0.065567,0.000032,  23.472,   95
   163.2,0.001262,0.000853, 21,-0.065651,0.000045,  23.426,   94
   163.4,0.001335,0.000901, 21,-0.065674,0.000022,  23.391,   95
   163.6,0.001402,0.000950, 21,-0.065632,0.000071,  23.355,   95
   163.8,0.001480,0.000995, 21,-0.065591,0.000061,  23.319,   86
   164.0,0.001548,0.001046, 21,-0.065527,0.000088,  23.275,   77
   164.2,0.001621,0.001108, 21,-0.065431,0.000150,  23.230,   86
   164.4,0.001712,0.001168, 21,-0.065303,0.000153,  23.214,   95
   164.6,0.001797,0.001219, 21,-0.065193,0.000215,  23.168,   95
   164.8,0.001875,0.001283, 21,-0.065087,0.000242,  23.132,   95
   165.0,0.001972,0.001339, 21,-0.064969,0.000245,  23.091,   94
   165.2,0.002059,0.001397, 21,-0.064698,0.000307,  23.046,   93
   165.4,0.002140,0.001453, 21,-0.064363,0.000307,  23.012,   94
   165.6,0.002234,0.001513, 21,-0.063947,0.000297,  22.977,   96
   165.8,0.002319,0.001570, 21,-0.063696,0.000359,  22.943,   95
   166.0,0.002406,0.001624, 21,-0.063492,0.000372,  22.907,   94
   166.2,0.002508,0.001686, 21,-0.063344,0.000362,  22.862,   94
   166.4,0.002601,0.001734, 21,-0.062758,0.000412,  22.832,   94
   166.6,0.002693,0.001789, 21,-0.061961,0.000438,  22.798,   95
   166.8,0.002796,0.001832, 21,-0.060968,0.000428,  22.758,   96
   167.0,0.002892,0.001878, 21,-0.060181,0.000477,  22.724,   95
   167.2,0.002984,0.001943, 21,-0.059406,0.000490,  22.679,   95
   167.4,0.003089,0.002003, 21,-0.058627,0.000480,  22.654,   94
   167.6,0.003182,0.002069, 21,-0.057773,0.000530,  22.627,   94
   167.8,0.003271,0.002128, 21,-0.056869,0.000556,  22.586,   94
   168.0,0.003371,0.002190, 21,-0.055941,0.000546,  22.561,   95
   168.2,0.003462,0.002250, 21,-0.054960,0.000595,  22.522,   95
   168.4,0.003551,0.002308, 21,-0.053937,0.000608,  22.497,   95
   168.6,0.003651,0.002365, 21,-0.052885,0.000572,  22.469,   95
   168.8,0.003744,0.002421, 21,-0.051868,0.000595,  22.434,   95
   169.0,0.003828,0.002468, 21,-0.050843,0.000569,  22.413,   96
   169.2,0.003914,0.002514, 21,-0.049838,0.000546,  22.383,   97
   169.4,0.003993,0.002553, 21,-0.048674,0.000608,  22.363,   95
   169.6,0.004077,0.002604, 21,-0.047404,0.000621,  22.342,   94
   169.8,0.004177,0.002667, 21,-0.046080,0.000611,  22.325,   94
   170.0,0.004280,0.002731, 21,-0.044776,0.000661,  22.302,   94
   170.2,0.004360,0.002787, 21,-0.043416,0.000661,  22.274,   95
   170.4,0.004437,0.002843, 21,-0.042040,0.000637,  22.264,   95
   170.6,0.004496,0.002901, 21,-0.040818,0.000687,  22.247,   95
   170.8,0.004557,0.002952, 21,-0.039677,0.000674,  22.235,   95
   171.0,0.004642,0.003004, 21,-0.038576,0.000651,  22.215,   94
   171.2,0.004730,0.003065, 21,-0.037104,0.000687,  22.200,   94
   171.4,0.004824,0.003114, 21,-0.035501,0.000700,  22.191,   94
   171.6,0.004908,0.003165, 21,-0.033718,0.000677,  22.179,   94
   171.8,0.005011,0.003215, 21,-0.032078,0.000713,  22.174,   97
   172.0,0.005111,0.003264, 21,-0.030425,0.000713,  22.164,  101
   172.2,0.005192,0.003319, 21,-0.028760,0.000690,  22.158,   98
   172.4,0.005287,0.003374, 21,-0.027282,0.000726,  22.156,   95
   172.6,0.005370,0.003419, 21,-0.025898,0.000713,  22.152,   96
   172.8,0.005451,0.003466, 21,-0.024622,0.000713,  22.152,   97
   173.0,0.005541,0.003515, 21,-0.023007,0.000713,  22.151,   96
   173.2,0.005624,0.003556, 21,-0.021255,0.000677,  22.156,   94
   173.4,0.005697,0.003601, 21,-0.019388,0.000713,  22.165,   95
   173.6,0.005783,0.003645, 21,-0.017892,0.000664,  22.163,   95
   173.8,0.005855,0.003684, 21,-0.016536,0.000664,  22.173,   95
   174.0,0.005923,0.003725, 21,-0.015273,0.000700,  22.183,   95
   174.2,0.006004,0.003763, 21,-0.014183,0.000664,  22.195,   94
   174.4,0.006076,0.003795, 21,-0.012589,0.000687,  22.205,   94
   174.6,0.006141,0.003828, 21,-0.010909,0.000674,  22.224,   89
   174.8,0.006219,0.003862, 21,-0.009099,0.000637,  22.237,   83
   175.0,0.006288,0.003892, 21,-0.007436,0.000661,  22.252,   89
   175.2,0.006356,0.003932, 21,-0.005816,0.000647,  22.275,   94
   175.4,0.006435,0.003973, 21,-0.004203,0.000598,  22.290,   94
   175.6,0.006507,0.004011, 21,-0.002797,0.000598,  22.316,   95
   175.8,0.006575,0.004048, 21,-0.001519,0.000598,  22.339,   94
   176.0,0.006653,0.004086, 21,-0.000370,0.000549,  22.365,   94
   176.2,0.006722,0.004115, 21,0.001269,0.000536,  22.392,   95
   176.4,0.006785,0.004140, 21,0.003112,0.000559,  22.414,   95
   176.6,0.006858,0.004164, 21,0.005116,0.000523,  22.444,   94
   176.8,0.006921,0.004185, 21,0.006899,0.000523,  22.469,   93
   177.0,0.006981,0.004216, 21,0.008657,0.000533,  22.497,   94
   177.2,0.007057,0.004252, 21,0.010390,0.000496,  22.538,   94
   177.4,0.007123,0.004288, 21,0.012077,0.000496,  22.567,   94
   177.6,0.007183,0.004320, 21,0.013693,0.000506,  22.598,   94
   177.8,0.007256,0.004358, 21,0.015276,0.000457,  22.637,   94
   178.0,0.007320,0.004390, 21,0.016944,0.000457,  22.677,   94
   178.2,0.007377,0.004417, 21,0.018612,0.000467,  22.720,   95
   178.4,0.007441,0.004452, 21,0.020314,0.000431,  22.751,   96
   178.6,0.007500,0.004483, 21,0.021889,0.000405,  22.794,   95
   178.8,0.007558,0.004508, 21,0.023396,0.000428,  22.830,   94
   179.0,0.007613,0.004537, 21,0.024848,0.000392,  22.871,   95
   179.2,0.007675,0.004564, 21,0.026332,0.000379,  22.922,   95
   179.4,0.007725,0.004586, 21,0.027793,0.000389,  22.959,   95
   179.6,0.007763,0.004616, 21,0.029232,0.000326,  23.003,   95
   179.8,0.007811,0.004641, 21,0.030604,0.000313,  23.038,   96
   180.0,0.007853,0.004653, 21,0.031940,0.000297,  23.085,   96
   180.2,0.007890,0.004671, 21,0.033232,0.000248,  23.137,   89
   180.4,0.007930,0.004677, 21,0.034318,0.000261,  23.179,   82
   180.6,0.007969,0.004698, 21,0.035277,0.000297,  23.212,   87
   180.8,0.008027,0.004732, 21,0.036085,0.000261,  23.252,   93
   181.0,0.008084,0.004771, 21,0.037449,0.000274,  23.292,   94
   181.2,0.008156,0.004800, 21,0.039050,0.000297,  23.353,   96
   181.4,0.008214,0.004833, 21,0.040849,0.000261,  23.389,   96
   181.6,0.008281,0.004866, 21,0.042323,0.000284,  23.429,   96
   181.8,0.008339,0.004893, 21,0.043718,0.000294,  23.472,   97
   182.0,0.008391,0.004918, 21,0.045068,0.000245,  23.525,   98
   182.2,0.008456,0.004945, 21,0.046421,0.000281,  23.575,   96
   182.4,0.008509,0.004972, 21,0.047729,0.000281,  23.613,   94
   182.6,0.008560,0.005002, 21,0.049011,0.000281,  23.658,   96
   182.8,0.008628,0.005036, 21,0.050305,0.000281,  23.701,   98
   183.0,0.008692,0.005062, 21,0.051552,0.000245,  23.750,   97
   183.2,0.008752,0.005096, 21,0.052821,0.000268,  23.806,   95
   183.4,0.008822,0.005128, 21,0.054112,0.000232,  23.840,   96
   183.6,0.008886,0.005152, 21,0.055372,0.000232,  23.891,   96
   183.8,0.008938,0.005186, 21,0.056650,0.000255,  23.933,   96
   184.0,0.009000,0.005220, 21,0.057656,0.000232,  23.981,   96
   184.2,0.009050,0.005245, 21,0.058506,0.000242,  24.028,   96
   184.4,0.009096,0.005265, 21,0.059226,0.000228,  24.066,   96
   184.6,0.009156,0.005292, 21,0.059788,0.000192,  24.110,   95
   184.8,0.009206,0.005312, 21,0.060758,0.000215,  24.157,   94
   185.0,0.009249,0.005337, 21,0.061782,0.000189,  24.194,   94
   185.2,0.009298,0.005363, 21,0.062902,0.000153,  24.252,   94
   185.4,0.009337,0.005387, 21,0.063931,0.000189,  24.279,   88
   185.6,0.009386,0.005414, 21,0.064955,0.000176,  24.318,   82
   185.8,0.009453,0.005446, 21,0.065951,0.000127,  24.360,   88
   186.0,0.009515,0.005472, 21,0.066958,0.000163,  24.393,   94
   186.2,0.009566,0.005503, 21,0.067959,0.000163,  24.441,   95
   186.4,0.009634,0.005533, 21,0.068948,0.000114,  24.478,   95
   186.6,0.009690,0.005558, 21,0.069903,0.000150,  24.507,   94
   186.8,0.009742,0.005576, 21,0.070858,0.000150,  24.544,   92
   187.0,0.009807,0.005599, 21,0.071770,0.000127,  24.582,   94
   187.2,0.009863,0.005616, 21,0.072672,0.000150,  24.621,   96
   187.4,0.009912,0.005641, 21,0.073573,0.000124,  24.649,   94
   187.6,0.009977,0.005671, 21,0.074425,0.000101,  24.676,   92
   187.8,0.010035,0.005700, 21,0.075308,0.000137,  24.711,   93
   188.0,0.010087,0.005734, 21,0.076208,0.000124,  24.744,   94
   188.2,0.010155,0.005768, 21,0.077102,0.000101,  24.778,   95
   188.4,0.010216,0.005795, 21,0.077984,0.000124,  24.806,   96
   188.6,0.010271,0.005822, 21,0.078884,0.000111,  24.840,   96
   188.8,0.010342,0.005855, 21,0.079786,0.000075,  24.867,   96
   189.0,0.010397,0.005889, 21,0.080595,0.000111,  24.890,   95
   189.2,0.010453,0.005917, 21,0.081328,0.000098,  24.927,   95
   189.4,0.010509,0.005946, 21,0.082001,0.000061,  24.945,   95
   189.6,0.010566,0.005974, 21,0.082777,0.000098,  24.975,   95
   189.8,0.010618,0.006003, 21,0.083550,0.000085,  24.999,   94
   190.0,0.010673,0.006031, 21,0.084348,0.000048,  25.026,   94
   190.2,0.010729,0.006056, 21,0.085098,0.000085,  25.060,   94
   190.4,0.010771,0.006072, 21,0.085810,0.000085,  25.077,   94
   190.6,0.010801,0.006094, 21,0.086514,0.000048,  25.097,   95
   190.8,0.010833,0.006106, 21,0.087293,0.000071,  25.123,   96
   191.0,0.010852,0.006129, 21,0.088045,0.000058,  25.147,   86
   191.2,0.010905,0.006167, 21,0.088824,0.000022,  25.174,   77
   191.4,0.010973,0.006203, 21,0.089539,0.000058,  25.185,   86
   191.6,0.011043,0.006233, 21,0.090243,0.000058,  25.204,   94
   191.8,0.011107,0.006269, 21,0.090907,0.000022,  25.222,   96
   192.0,0.011165,0.006306, 21,0.091585,0.000071,  25.243,   98
   192.2,0.011233,0.006337, 21,0.092261,0.000071,  25.263,   97
   192.4,0.011297,0.006370, 21,0.092907,0.000071,  25.274,   96
   192.6,0.011352,0.006409, 21,0.093572,0.000085,  25.295,   95
   192.8,0.011414,0.006442, 21,0.094214,0.000035,  25.306,   94
   193.0,0.011479,0.006478, 21,0.094863,0.000071,  25.324,   94
   193.2,0.011536,0.006524, 21,0.095588,0.000048,  25.344,   94
   193.4,0.011604,0.006557, 21,0.096308,0.000048,  25.356,   96
   193.6,0.011669,0.006592, 21,0.097083,0.000071,  25.375,   98
   193.8,0.011729,0.006634, 21,0.097692,0.000035,  25.380,   96
   194.0,0.011800,0.006669, 21,0.098251,0.000085,  25.399,   94
   194.2,0.011867,0.006701, 21,0.098719,0.000071,  25.415,   95
   194.4,0.011931,0.006739, 21,0.099133,0.000035,  25.426,   95
   194.6,0.012007,0.006768, 21,0.099688,0.000085,  25.435,   95
   194.8,0.012069,0.006797, 21,0.100272,0.000071,  25.449,   95
   195.0,0.012118,0.006827, 21,0.100856,0.000035,  25.462,   95
   195.2,0.012169,0.006853, 21,0.101310,0.000085,  25.469,   95
   195.4,0.012225,0.006885, 21,0.101679,0.000071,  25.479,   96
   195.6,0.012278,0.006923, 21,0.101968,0.000035,  25.492,   96
   195.8,0.012340,0.006948, 21,0.102500,0.000071,  25.503,   96
   196.0,0.012396,0.006978, 21,0.103100,0.000058,  25.513,   95
   196.2,0.012443,0.007005, 21,0.103753,0.000022,  25.524,   88
   196.4,0.012497,0.007033, 21,0.104407,0.000058,  25.531,   81
   196.6,0.012549,0.007062, 21,0.105094,0.000058,  25.540,   87
   196.8,0.012605,0.007082, 21,0.105798,0.000022,  25.552,   93
   197.0,0.012664,0.007111, 21,0.106183,0.000022,  25.557,   94
   197.2,0.012719,0.007140, 21,0.106413,0.000022,  25.559,   95
   197.4,0.012782,0.007172, 21,0.106513,-0.000027,  25.563,   94
   197.6,0.012841,0.007200, 21,0.107096,-0.000027,  25.567,   92
   197.8,0.012890,0.007222, 21,0.107859,0.000009,  25.581,   95
   198.0,0.012943,0.007255, 21,0.108797,-0.000040,  25.590,   97
   198.2,0.012994,0.007284, 21,0.109452,-0.000040,  25.591,   95
   198.4,0.013046,0.007310, 21,0.110053,0.000009,  25.598,   92
   198.6,0.013102,0.007345, 21,0.110611,-0.000027,  25.604,   94
   198.8,0.013168,0.007378, 21,0.111217,-0.000027,  25.605,   95
   199.0,0.013223,0.007407, 21,0.111797,0.000009,  25.620,   95
   199.2,0.013279,0.007441, 21,0.112362,-0.000027,  25.620,   96
   199.4,0.013344,0.007470, 21,0.113013,-0.000027,  25.625,   96
   199.6,0.013400,0.007501, 21,0.113665,0.000009,  25.630,   97
   199.8,0.013456,0.007541, 21,0.114345,-0.000027,  25.635,   96
   200.0,0.013521,0.007577, 21,0.114890,-0.000027,  25.643,   96
   200.2,0.013569,0.007604, 21,0.115389,0.000009,  25.652,   95
   200.4,0.013614,0.007636, 21,0.115813,-0.000027,  25.650,   95
   200.6,0.013638,0.007664, 21,0.116290,-0.000027,  25.657,   95
   200.8,0.013676,0.007690, 21,0.116781,0.000009,  25.664,   95
   201.0,0.013729,0.007719, 21,0.117255,-0.000027,  25.669,   95
   201.2,0.013780,0.007748, 21,0.117707,-0.000040,  25.673,   95
   201.4,0.013836,0.007773, 21,0.118127,-0.000017,  25.673,   95
   201.6,0.013883,0.007797, 21,0.118553,-0.000040,  25.678,   96
   201.8,0.013933,0.007816, 21,0.119077,-0.000053,  25.687,   91
   202.0,0.013985,0.007839, 21,0.119612,-0.000017,  25.688,   87
   202.2,0.014029,0.007877, 21,0.120191,-0.000040,  25.696,   91
   202.4,0.014082,0.007914, 21,0.120549,-0.000040,  25.697,   95
   202.6,0.014140,0.007942, 21,0.120775,-0.000004,  25.702,   95
   202.8,0.014189,0.007974, 21,0.120910,-0.000004,  25.705,   96
   203.0,0.014248,0.008005, 21,0.121377,0.000009,  25.709,   96
   203.2,0.014314,0.008034, 21,0.121948,-0.000004,  25.720,   96
   203.4,0.014363,0.008066, 21,0.122618,-0.000004,  25.721,   95
   203.6,0.014417,0.008097, 21,0.123107,-0.000040,  25.722,   94
   203.8,0.014477,0.008126, 21,0.123563,-0.000004,  25.727,   94
   204.0,0.014527,0.008155, 21,0.123947,0.000009,  25.728,   94
   204.2,0.014587,0.008185, 21,0.124303,-0.000027,  25.732,   97
   204.4,0.014650,0.008213, 21,0.124664,-0.000027,  25.731,   99
   204.6,0.014697,0.008243, 21,0.124953,0.000009,  25.738,   97
   204.8,0.014760,0.008279, 21,0.125205,-0.000027,  25.741,   96
   205.0,0.014810,0.008304, 21,0.125753,-0.000027,  25.740,   96
   205.2,0.014857,0.008336, 21,0.126419,0.000009,  25.744,   96
   205.4,0.014917,0.008369, 21,0.127185,-0.000027,  25.748,   96
   205.6,0.014968,0.008396, 21,0.127752,-0.000027,  25.752,   96
   205.8,0.015012,0.008419, 21,0.128269,0.000009,  25.757,   96
   206.0,0.015067,0.008447, 21,0.128724,-0.000027,  25.760,   96
   206.2,0.015112,0.008468, 21,0.129214,-0.000027,  25.761,   95
   206.4,0.015150,0.008487, 21,0.129694,0.000009,  25.758,   94
   206.6,0.015196,0.008506, 21,0.130136,-0.000027,  25.763,   94
   206.8,0.015233,0.008520, 21,0.130572,-0.000027,  25.766,   94
   207.0,0.015278,0.008541, 21,0.130987,-0.000004,  25.767,   89
   207.2,0.015326,0.008564, 21,0.131369,-0.000027,  25.764,   84
   207.4,0.015380,0.008590, 21,0.131817,-0.000027,  25.768,   89
   207.6,0.015422,0.008615, 21,0.132266,-0.000004,  25.771,   93
   207.8,0.015470,0.008638, 21,0.132732,-0.000027,  25.773,   94
   208.0,0.015518,0.008668, 21,0.133177,-0.000027,  25.774,   96
   208.2,0.015559,0.008690, 21,0.133578,-0.000004,  25.775,   95
   208.4,0.015614,0.008720, 21,0.133967,-0.000027,  25.777,   94
   208.6,0.015659,0.008749, 21,0.134386,-0.000027,  25.778,   95
   208.8,0.015700,0.008774, 21,0.134787,-0.000004,  25.776,   97
   209.0,0.015755,0.008799, 21,0.135148,-0.000027,  25.777,   95
   209.2,0.015800,0.008824, 21,0.135566,-0.000027,  25.782,   93
   209.4,0.015844,0.008847, 21,0.136014,-0.000004,  25.783,   93
   209.6,0.015901,0.008879, 21,0.136439,-0.000027,  25.779,   94
   209.8,0.015947,0.008907, 21,0.136864,-0.000027,  25.785,   95
   210.0,0.015989,0.008927, 21,0.137290,-0.000004,  25.787,   97
   210.2,0.016028,0.008955, 21,0.137712,-0.000027,  25.787,   96
   210.4,0.016062,0.008980, 21,0.138133,-0.000027,  25.787,   96
   210.6,0.016091,0.009002, 21,0.138532,-0.000004,  25.792,   96
   210.8,0.016133,0.009030, 21,0.138903,-0.000027,  25.791,   96
   211.0,0.016175,0.009059, 21,0.139114,-0.000027,  25.795,   96
   211.2,0.016223,0.009082, 21,0.139227,-0.000004,  25.794,   96
   211.4,0.016262,0.009105, 21,0.139202,-0.000027,  25.794,   95
   211.6,0.016314,0.009128, 21,0.139538,-0.000004,  25.796,   95
   211.8,0.016353,0.009144, 21,0.139995,0.000019,  25.796,   96
   212.0,0.016383,0.009168, 21,0.140562,-0.000004,  25.798,   97
   212.2,0.016427,0.009185, 21,0.140991,0.000032,  25.797,   97
   212.4,0.016455,0.009204, 21,0.141398,0.000032,  25.799,   97
   212.6,0.016488,0.009226, 21,0.141775,0.000032,  25.801,   93
   212.8,0.016540,0.009250, 21,0.142176,0.000045,  25.801,   90
   213.0,0.016585,0.009269, 21,0.142618,-0.000004,  25.803,   93
   213.2,0.016621,0.009289, 21,0.143032,0.000032,  25.802,   95
   213.4,0.016667,0.009316, 21,0.143348,-0.000004,  25.803,   95
   213.6,0.016707,0.009335, 21,0.143623,-0.000004,  25.801,   95
   213.8,0.016740,0.009360, 21,0.143823,0.000032,  25.806,   95
   214.0,0.016786,0.009385, 21,0.143970,0.000009,  25.801,   95
   214.2,0.016826,0.009401, 21,0.144293,0.000045,  25.804,   94
   214.4,0.016861,0.009427, 21,0.144638,0.000032,  25.802,   93
   214.6,0.016910,0.009446, 21,0.145019,0.000009,  25.803,   93
   214.8,0.016956,0.009467, 21,0.145411,0.000045,  25.806,   94
   215.0,0.016994,0.009497, 21,0.145780,0.000045,  25.803,   96
   215.2,0.017041,0.009520, 21,0.146209,0.000022,  25.800,   98
   215.4,0.017077,0.009540, 21,0.146602,0.000058,  25.801,   97
   215.6,0.017116,0.009572, 21,0.146979,0.000058,  25.801,   95
   215.8,0.017165,0.009598, 21,0.147350,0.000035,  25.799,   96
   216.0,0.017208,0.009617, 21,0.147716,0.000071,  25.803,   97
   216.2,0.017241,0.009631, 21,0.148052,0.000058,  25.802,   96
   216.4,0.017281,0.009646, 21,0.148360,0.000022,  25.802,   95
   216.6,0.017315,0.009657, 21,0.148538,0.000058,  25.802,   95
   216.8,0.017345,0.009676, 21,0.148653,0.000058,  25.803,   94
   217.0,0.017386,0.009692, 21,0.148656,0.000022,  25.804,   94
   217.2,0.017420,0.009715, 21,0.148940,0.000058,  25.804,   94
   217.4,0.017445,0.009725, 21,0.149306,0.000058,  25.807,   94
   217.6,0.017482,0.009738, 21,0.149779,0.000022,  25.801,   93
   217.8,0.017505,0.009752, 21,0.150170,0.000058,  25.805,   89
   218.0,0.017536,0.009764, 21,0.150555,0.000058,  25.807,   85
   218.2,0.017567,0.009787, 21,0.150964,0.000022,  25.803,   89
   218.4,0.017605,0.009810, 21,0.151285,0.000058,  25.807,   93
   218.6,0.017636,0.009825, 21,0.151553,0.000058,  25.809,   95
   218.8,0.017664,0.009848, 21,0.151780,0.000022,  25.810,   97
   219.0,0.017702,0.009870, 21,0.152066,0.000058,  25.810,   95
   219.2,0.017736,0.009882, 21,0.152364,0.000058,  25.810,   93
   219.4,0.017757,0.009899, 21,0.152674,0.000022,  25.814,   95
   219.6,0.017795,0.009921, 21,0.152966,0.000058,  25.814,   97
   219.8,0.017821,0.009933, 21,0.153276,0.000058,  25.813,   95
   220.0,0.017840,0.009954, 21,0.153611,0.000022,  25.812,   94
   220.2,0.017869,0.009976, 21,0.153934,0.000071,  25.816,   94
   220.4,0.017892,0.009994, 21,0.154251,0.000071,  25.815,   94
   220.6,0.017923,0.010011, 21,0.154562,0.000035,  25.819,   95
   220.8,0.017954,0.010027, 21,0.154802,0.000085,  25.817,   96
   221.0,0.017988,0.010041, 21,0.154989,0.000071,  25.818,   96
   221.2,0.018019,0.010065, 21,0.155117,0.000035,  25.821,   96
   221.4,0.018044,0.010084, 21,0.155280,0.000085,  25.821,   96
   221.6,0.018082,0.010094, 21,0.155461,0.000071,  25.824,   97
   221.8,0.018110,0.010112, 21,0.155630,0.000035,  25.823,   98
   222.0,0.018126,0.010124, 21,0.155906,0.000085,  25.825,   99
   222.2,0.018158,0.010134, 21,0.156242,0.000071,  25.826,   98
   222.4,0.018187,0.010154, 21,0.156620,0.000071,  25.829,   96
   222.6,0.018206,0.010166, 21,0.156921,0.000085,  25.831,   95
   222.8,0.018238,0.010176, 21,0.157210,0.000035,  25.831,   95
   223.0,0.018263,0.010194, 21,0.157463,0.000071,  25.830,   95
   223.2,0.018274,0.010202, 21,0.157674,0.000048,  25.835,   96
   223.4,0.018295,0.010208, 21,0.157831,0.000035,  25.834,   91
   223.6,0.018317,0.010226, 21,0.157988,0.000058,  25.835,   85
   223.8,0.018336,0.010241, 21,0.158079,0.000022,  25.837,   90
   224.0,0.018366,0.010251, 21,0.158255,0.000058,  25.836,   95
   224.2,0.018391,0.010262, 21,0.158425,0.000058,  25.838,   95
   224.4,0.018410,0.010280, 21,0.158576,0.000022,  25.838,   96
   224.6,0.018442,0.010288, 21,0.158770,0.000058,  25.837,   96
   224.8,0.018468,0.010303, 21,0.158970,0.000058,  25.837,   96
   225.0,0.018484,0.010313, 21,0.159182,0.000022,  25.840,   95
   225.2,0.018507,0.010323, 21,0.159345,0.000058,  25.837,   95
   225.4,0.018533,0.010338, 21,0.159497,0.000058,  25.837,   94
   225.6,0.018549,0.010353, 21,0.159643,0.000022,  25.839,   93
   225.8,0.018576,0.010365, 21,0.159843,0.000058,  25.845,   97
   226.0,0.018598,0.010376, 21,0.160062,0.000058,  25.839,  100
   226.2,0.018614,0.010386, 21,0.160311,0.000022,  25.841,   98
   226.4,0.018644,0.010395, 21,0.160493,0.000058,  25.841,   95
   226.6,0.018660,0.010407, 21,0.160664,0.000058,  25.840,   95
   226.8,0.018680,0.010420, 21,0.160804,0.000022,  25.840,   95
   227.0,0.018703,0.010431, 21,0.160962,0.000058,  25.846,   95
   227.2,0.018716,0.010439, 21,0.161138,0.000058,  25.847,   95
   227.4,0.018739,0.010449, 21,0.161315,0.000022,  25.850,   94
   227.6,0.018754,0.010460, 21,0.161491,0.000058,  25.850,   94
   227.8,0.018764,0.010470, 21,0.161674,0.000058,  25.852,   95
   228.0,0.018788,0.010480, 21,0.161820,0.000009,  25.851,   95
   228.2,0.018805,0.010488, 21,0.161961,0.000032,  25.853,   95
   228.4,0.018810,0.010494, 21,0.162107,0.000019,  25.856,   94
   228.6,0.018828,0.010496, 21,0.162260,-0.000017,  25.858,   90
   228.8,0.018833,0.010499, 21,0.162370,0.000006,  25.854,   87
   229.0,0.018841,0.010498, 21,0.162467,0.000019,  25.858,   88
   229.2,0.018858,0.010505, 21,0.162578,-0.000004,  25.858,   89
   229.4,0.018872,0.010514, 21,0.162737,0.000019,  25.860,   92
   229.6,0.018886,0.010518, 21,0.162859,0.000019,  25.862,   96
   229.8,0.018898,0.010531, 21,0.163024,-0.000004,  25.858,   95
   230.0,0.018900,0.010545, 21,0.163164,0.000019,  25.858,   95
   230.2,0.018915,0.010550, 21,0.163262,0.000019,  25.858,   95
   230.4,0.018925,0.010557, 21,0.163360,-0.000004,  25.855,   96
   230.6,0.018939,0.010563, 21,0.163470,0.000019,  25.863,   95
   230.8,0.018954,0.010569, 21,0.163568,0.000019,  25.861,   93
   231.0,0.018964,0.010582, 21,0.163654,-0.000004,  25.861,   94
   231.2,0.018988,0.010590, 21,0.163765,0.000032,  25.860,   95
   231.4,0.019006,0.010594, 21,0.163887,0.000032,  25.864,   96
   231.6,0.019016,0.010610, 21,0.164004,0.000009,  25.860,   96
   231.8,0.019033,0.010621, 21,0.163919,0.000045,  25.865,   96
   232.0,0.019051,0.010629, 21,0.163717,0.000032,  25.858,   96
   232.2,0.019059,0.010642, 21,0.163413,0.000032,  25.861,   97
   232.4,0.019076,0.010652, 21,0.163535,0.000045,  25.865,   97
   232.6,0.019094,0.010657, 21,0.163810,0.000009,  25.864,   97
   232.8,0.019099,0.010662, 21,0.164231,0.000045,  25.865,   97
   233.0,0.019107,0.010666, 21,0.164415,0.000009,  25.862,   96
   233.2,0.019119,0.010667, 21,0.164580,0.000009,  25.863,   96
   233.4,0.019124,0.010672, 21,0.164672,0.000045,  25.865,   95
   233.6,0.019127,0.010678, 21,0.164734,0.000009,  25.869,   94
   233.8,0.019137,0.010678, 21,0.164869,0.000032,  25.873,   94
   234.0,0.019138,0.010682, 21,0.165004,0.000019,  25.875,   95
   234.2,0.019148,0.010684, 21,0.165145,-0.000004,  25.876,   92
   234.4,0.019157,0.010686, 21,0.165274,0.000032,  25.874,   89
   234.6,0.019163,0.010688, 21,0.165396,0.000032,  25.875,   92
   234.8,0.019172,0.010695, 21,0.165507,0.000009,  25.877,   96
   235.0,0.019187,0.010695, 21,0.165593,0.000045,  25.874,   95
   235.2,0.019192,0.010699, 21,0.165648,0.000045,  25.877,   94
   235.4,0.019192,0.010706, 21,0.165710,0.000009,  25.878,   95
   235.6,0.019204,0.010708, 21,0.165735,0.000045,  25.879,   95
   235.8,0.019212,0.010714, 21,0.165747,0.000045,  25.874,   96
   236.0,0.019211,0.010714, 21,0.165741,0.000022,  25.881,   96
   236.2,0.019221,0.010716, 21,0.165606,0.000058,  25.884,   95
   236.4,0.019227,0.010719, 21,0.165416,0.000058,  25.877,   93
   236.6,0.019226,0.010721, 21,0.165128,0.000035,  25.884,   96
   236.8,0.019235,0.010719, 21,0.165153,0.000071,  25.884,   99
   237.0,0.019241,0.010716, 21,0.165288,0.000058,  25.880,   97
   237.2,0.019237,0.010721, 21,0.165503,0.000022,  25.880,   95
   237.4,0.019244,0.010723, 21,0.165644,0.000058,  25.876,   94
   237.6,0.019240,0.010721, 21,0.165773,0.000058,  25.879,   93
   237.8,0.019246,0.010725, 21,0.165908,0.000022,  25.878,   95
   238.0,0.019243,0.010728, 21,0.165988,0.000058,  25.879,   97
   238.2,0.019239,0.010725, 21,0.165988,0.000058,  25.877,   96
   238.4,0.019246,0.010730, 21,0.165963,0.000022,  25.877,   94
   238.6,0.019246,0.010735, 21,0.165828,0.000058,  25.880,   95
   238.8,0.019236,0.010732, 21,0.165613,0.000058,  25.877,   95
   239.0,0.019231,0.010728, 21,0.165307,0.000022,  25.881,   95
   239.2,0.019220,0.010728, 21,0.165337,0.000058,  25.880,   95
   239.4,0.019217,0.010723, 21,0.165503,0.000058,  25.880,   91
   239.6,0.019214,0.010719, 21,0.165797,0.000022,  25.880,   87
   239.8,0.019217,0.010720, 21,0.165718,0.000058,  25.882,   91
   240.0,0.019220,0.010718, 21,0.165497,0.000058,  25.884,   94
   240.2,0.019220,0.010716, 21,0.165141,0.000022,  25.885,   95
   240.4,0.019220,0.010721, 21,0.165000,0.000058,  25.886,   95
   240.6,0.019220,0.010716, 21,0.164872,0.000058,  25.884,   95
   240.8,0.019213,0.010716, 21,0.164761,0.000022,  25.890,   94
   241.0,0.019220,0.010718, 21,0.164841,0.000071,  25.886,   96
   241.2,0.019217,0.010716, 21,0.164988,0.000071,  25.891,   97
   241.4,0.019210,0.010718, 21,0.165257,0.000035,  25.893,   96
   241.6,0.019217,0.010718, 21,0.165362,0.000085,  25.890,   94
   241.8,0.019214,0.010716, 21,0.165441,0.000071,  25.894,   96
   242.0,0.019208,0.010716, 21,0.165466,0.000071,  25.894,   99
   242.2,0.019214,0.010718, 21,0.165502,0.000085,  25.893,   98
   242.4,0.019211,0.010713, 21,0.165533,0.000035,  25.895,   98
   242.6,0.019202,0.010707, 21,0.165527,0.000071,  25.894,   97
   242.8,0.019206,0.010708, 21,0.165576,0.000048,  25.897,   96
   243.0,0.019200,0.010701, 21,0.165643,0.000048,  25.897,   96
   243.2,0.019188,0.010697, 21,0.165692,0.000071,  25.898,   97
   243.4,0.019186,0.010697, 21,0.165698,0.000035,  25.900,   96
   243.6,0.019180,0.010692, 21,0.165692,0.000085,  25.901,   96
   243.8,0.019168,0.010692, 21,0.165655,0.000071,  25.901,   96
   244.0,0.019169,0.010689, 21,0.165587,0.000035,  25.903,   96
   244.2,0.019163,0.010678, 21,0.165397,0.000085,  25.903,   95
   244.4,0.019139,0.010671, 21,0.165096,0.000071,  25.903,   93
   244.6,0.019120,0.010661, 21,0.164747,0.000022,  25.905,   94
   244.8,0.019086,0.010647, 21,0.164692,0.000058,  25.905,   95
   245.0,0.019068,0.010641, 21,0.164778,0.000032,  25.902,   80
   245.2,0.019066,0.010635, 21,0.164967,-0.000004,  25.906,   65
   245.4,0.019066,0.010626, 21,0.164955,0.000032,  25.904,   79
   245.6,0.019064,0.010624, 21,0.164894,0.000032,  25.902,   94
   245.8,0.019061,0.010621, 21,0.164808,0.000009,  25.907,   94
   246.0,0.019065,0.010618, 21,0.164746,0.000045,  25.906,   95
   246.2,0.019059,0.010616, 21,0.164672,0.000045,  25.903,   96
   246.4,0.019056,0.010616, 21,0.164580,0.000022,  25.906,   98
   246.6,0.019051,0.010615, 21,0.164550,0.000058,  25.906,   96
   246.8,0.019046,0.010613, 21,0.164525,0.000058,  25.908,   94
   247.0,0.019033,0.010607, 21,0.164482,0.000035,  25.911,   94
   247.2,0.019025,0.010600, 21,0.164408,0.000071,  25.909,   94
   247.4,0.019019,0.010591, 21,0.164316,0.000058,  25.906,   95
   247.6,0.019004,0.010587, 21,0.164188,0.000022,  25.911,   95
   247.8,0.019002,0.010590, 21,0.164059,0.000058,  25.910,   96
   248.0,0.018996,0.010581, 21,0.163943,0.000058,  25.906,   98
   248.2,0.018975,0.010574, 21,0.163820,0.000022,  25.901,   96
   248.4,0.018971,0.010573, 21,0.163704,0.000071,  25.906,   95
   248.6,0.018962,0.010566, 21,0.163606,0.000071,  25.904,   95
   248.8,0.018941,0.010560, 21,0.163526,0.000035,  25.910,   96
   249.0,0.018934,0.010558, 21,0.163434,0.000085,  25.913,   95
   249.2,0.018922,0.010547, 21,0.163312,0.000071,  25.910,   95
   249.4,0.018904,0.010543, 21,0.163184,0.000035,  25.911,   95
   249.6,0.018900,0.010542, 21,0.162812,0.000085,  25.914,   95
   249.8,0.018888,0.010531, 21,0.162294,0.000071,  25.911,   95
   250.0,0.018873,0.010521, 21,0.161669,0.000035,  25.912,   95
   250.2,0.018871,0.010519, 21,0.161553,0.000071,  25.917,   92
   250.4,0.018860,0.010509, 21,0.161643,0.000058,  25.911,   89
   250.6,0.018848,0.010501, 21,0.161934,0.000022,  25.921,   92
   250.8,0.018825,0.010494, 21,0.161976,0.000058,  25.916,   94
   251.0,0.018808,0.010487, 21,0.161988,0.000058,  25.917,   95
   251.2,0.018787,0.010481, 21,0.161945,0.000022,  25.918,   96
   251.4,0.018779,0.010477, 21,0.161908,0.000022,  25.917,   96
   251.6,0.018765,0.010468, 21,0.161840,0.000022,  25.916,   95
   251.8,0.018747,0.010459, 21,0.161706,0.000022,  25.919,   96
   252.0,0.018737,0.010452, 21,0.161584,0.000022,  25.926,   98
   252.2,0.018722,0.010441, 21,0.161462,0.000022,  25.919,   96
   252.4,0.018702,0.010429, 21,0.161310,0.000022,  25.921,   95
   252.6,0.018691,0.010423, 21,0.161206,-0.000001,  25.924,   96
   252.8,0.018671,0.010412, 21,0.161103,0.000022,  25.919,   96
   253.0,0.018648,0.010406, 21,0.161035,0.000022,  25.924,   97
   253.2,0.018640,0.010399, 21,0.160920,-0.000014,  25.922,   97
   253.4,0.018623,0.010387, 21,0.160822,-0.000014,  25.922,   96
   253.6,0.018603,0.010376, 21,0.160719,0.000022,  25.922,   95
   253.8,0.018586,0.010366, 21,0.160609,-0.000014,  25.921,   96
   254.0,0.018573,0.010357, 21,0.160482,-0.000014,  25.926,   97
   254.2,0.018553,0.010343, 21,0.160336,0.000022,  25.921,   96
   254.4,0.018536,0.010341, 21,0.160190,-0.000014,  25.921,   95
   254.6,0.018526,0.010330, 21,0.160044,-0.000014,  25.921,   95
   254.8,0.018511,0.010317, 21,0.159905,0.000022,  25.921,   95
   255.0,0.018491,0.010304, 21,0.159711,-0.000027,  25.921,   94
   255.2,0.018472,0.010287, 21,0.159571,0.000009,  25.922,   93
   255.4,0.018454,0.010274, 21,0.159444,0.000045,  25.924,   94
   255.6,0.018432,0.010262, 21,0.159298,-0.000004,  25.918,   95
   255.8,0.018406,0.010251, 21,0.159183,0.000032,  25.919,   82
   256.0,0.018386,0.010241, 21,0.159068,0.000045,  25.919,   70
   256.2,0.018366,0.010232, 21,0.158940,0.000009,  25.919,   82
   256.4,0.018341,0.010224, 21,0.158752,0.000045,  25.920,   94
   256.6,0.018321,0.010216, 21,0.158547,0.000045,  25.921,   94
   256.8,0.018301,0.010204, 21,0.158275,0.000009,  25.921,   94
   257.0,0.018278,0.010187, 21,0.158094,0.000045,  25.913,   95
   257.2,0.018259,0.010174, 21,0.157912,0.000045,  25.911,   95
   257.4,0.018242,0.010161, 21,0.157731,0.000009,  25.916,   95
   257.6,0.018219,0.010154, 21,0.157568,0.000045,  25.916,   95
   257.8,0.018202,0.010143, 21,0.157405,0.000045,  25.915,   95
   258.0,0.018179,0.010130, 21,0.157242,0.000009,  25.909,   95
   258.2,0.018159,0.010122, 21,0.157091,0.000045,  25.913,   96
   258.4,0.018142,0.010104, 21,0.156934,0.000045,  25.911,   97
   258.6,0.018125,0.010096, 21,0.156788,0.000009,  25.912,   97
   258.8,0.018105,0.010091, 21,0.156601,0.000045,  25.912,   97
   259.0,0.018085,0.010074, 21,0.156373,0.000032,  25.907,   96
   259.2,0.018060,0.010063, 21,0.156144,0.000009,  25.909,   96
   259.4,0.018032,0.010055, 21,0.155946,0.000045,  25.907,   96
   259.6,0.018012,0.010037, 21,0.155717,0.000032,  25.907,   95
   259.8,0.017994,0.010032, 21,0.155520,0.000009,  25.907,   95
   260.0,0.017983,0.010020, 21,0.155339,0.000045,  25.909,   95
   260.2,0.017965,0.010005, 21,0.155159,0.000032,  25.906,   94
   260.4,0.017946,0.009993, 21,0.154985,0.000009,  25.907,   94
   260.6,0.017926,0.009985, 21,0.154829,0.000032,  25.906,   94
   260.8,0.017903,0.009974, 21,0.154667,0.000019,  25.905,   94
   261.0,0.017880,0.009957, 21,0.154488,-0.000004,  25.903,   92
   261.2,0.017845,0.009947, 21,0.154296,0.000019,  25.904,   90
   261.4,0.017826,0.009932, 21,0.154080,0.000019,  25.903,   89
   261.6,0.017807,0.009915, 21,0.153841,0.000019,  25.905,   87
   261.8,0.017774,0.009898, 21,0.153607,0.000032,  25.906,   92
   262.0,0.017758,0.009885, 21,0.153392,-0.000004,  25.907,   97
   262.2,0.017738,0.009875, 21,0.153159,0.000032,  25.900,   96
   262.4,0.017712,0.009863, 21,0.152985,-0.000004,  25.901,   95
   262.6,0.017699,0.009853, 21,0.152835,-0.000004,  25.905,   96
   262.8,0.017679,0.009840, 21,0.152697,0.000032,  25.904,   96
   263.0,0.017650,0.009831, 21,0.152530,0.000009,  25.905,   95
   263.2,0.017634,0.009818, 21,0.152351,0.000045,  25.904,   94
   263.4,0.017611,0.009805, 21,0.152184,0.000032,  25.905,   95
   263.6,0.017584,0.009796, 21,0.151988,0.000009,  25.903,   95
   263.8,0.017563,0.009783, 21,0.151792,0.000045,  25.904,   96
   264.0,0.017540,0.009772, 21,0.151571,0.000032,  25.904,   97
   264.2,0.017508,0.009758, 21,0.151339,0.000009,  25.899,   96
   264.4,0.017489,0.009739, 21,0.151113,0.000045,  25.897,   95
   264.6,0.017464,0.009725, 21,0.150845,0.000032,  25.893,   96
   264.8,0.017429,0.009705, 21,0.150548,0.000009,  25.896,   97
   265.0,0.017407,0.009690, 21,0.150370,0.000045,  25.891,   96
   265.2,0.017384,0.009677, 21,0.150198,0.000032,  25.886,   95
   265.4,0.017355,0.009670, 21,0.150043,0.000009,  25.888,   95
   265.6,0.017342,0.009655, 21,0.149841,0.000045,  25.890,   95
   265.8,0.017310,0.009649, 21,0.149627,0.000032,  25.885,   94
   266.0,0.017278,0.009633, 21,0.149373,-0.000004,  25.883,   94
   266.2,0.017244,0.009626, 21,0.149184,0.000019,  25.882,   95
   266.4,0.017210,0.009611, 21,0.149018,-0.000020,  25.884,   96
   266.6,0.017191,0.009594, 21,0.148842,-0.000043,  25.885,   82
   266.8,0.017160,0.009575, 21,0.148646,-0.000007,  25.886,   68
   267.0,0.017127,0.009556, 21,0.148392,-0.000007,  25.885,   81
   267.2,0.017106,0.009539, 21,0.148131,-0.000030,  25.889,   94
   267.4,0.017080,0.009522, 21,0.147912,0.000006,  25.886,   93
   267.6,0.017058,0.009500, 21,0.147676,0.000019,  25.889,   93
   267.8,0.017029,0.009493, 21,0.147439,-0.000004,  25.884,   94
   268.0,0.017008,0.009477, 21,0.147040,0.000032,  25.885,   95
   268.2,0.016985,0.009457, 21,0.146536,0.000032,  25.883,   96
   268.4,0.016956,0.009449, 21,0.145951,0.000009,  25.881,   96
   268.6,0.016937,0.009437, 21,0.145698,0.000045,  25.881,   95
   268.8,0.016914,0.009417, 21,0.145585,0.000032,  25.884,   94
   269.0,0.016886,0.009409, 21,0.145571,0.000009,  25.885,   95
   269.2,0.016861,0.009393, 21,0.145411,0.000045,  25.883,   95
   269.4,0.016839,0.009375, 21,0.145240,0.000032,  25.887,   96
   269.6,0.016816,0.009365, 21,0.145047,0.000009,  25.889,   96
   269.8,0.016794,0.009351, 21,0.144823,0.000045,  25.889,   96
   270.0,0.016774,0.009332, 21,0.144582,0.000032,  25.887,   95
   270.2,0.016748,0.009313, 21,0.144330,0.000009,  25.886,   95
   270.4,0.016717,0.009296, 21,0.144124,0.000045,  25.887,   95
   270.6,0.016683,0.009281, 21,0.143936,0.000032,  25.886,   95
   270.8,0.016658,0.009263, 21,0.143772,0.000009,  25.883,   95
   271.0,0.016635,0.009255, 21,0.143590,0.000045,  25.888,   95
   271.2,0.016613,0.009240, 21,0.143391,0.000032,  25.884,   96
   271.4,0.016584,0.009222, 21,0.143180,0.000032,  25.886,   95
   271.6,0.016550,0.009203, 21,0.142935,0.000045,  25.884,   94
   271.8,0.016511,0.009184, 21,0.142661,-0.000004,  25.882,   93
   272.0,0.016485,0.009170, 21,0.142365,0.000032,  25.881,   93
   272.2,0.016457,0.009158, 21,0.142120,-0.000004,  25.882,   93
   272.4,0.016432,0.009139, 21,0.141893,-0.000004,  25.880,   94
   272.6,0.016409,0.009128, 21,0.141659,0.000032,  25.885,   95
   272.8,0.016381,0.009115, 21,0.141461,0.000009,  25.879,   95
   273.0,0.016355,0.009098, 21,0.141287,0.000045,  25.880,   95
   273.2,0.016330,0.009085, 21,0.141117,0.000032,  25.876,   95
   273.4,0.016299,0.009068, 21,0.140978,0.000009,  25.877,   95
   273.6,0.016274,0.009049, 21,0.140556,0.000045,  25.876,   95
   273.8,0.016249,0.009030, 21,0.140037,0.000032,  25.879,   94
   274.0,0.016217,0.009021, 21,0.139393,0.000009,  25.875,   93
   274.2,0.016195,0.009004, 21,0.139167,0.000045,  25.873,   94
   274.4,0.016167,0.008990, 21,0.139049,0.000045,  25.878,   95
   274.6,0.016135,0.008982, 21,0.139069,0.000009,  25.874,   96
   274.8,0.016113,0.008967, 21,0.138855,0.000045,  25.870,   97
   275.0,0.016082,0.008951, 21,0.138589,0.000045,  25.871,   95
   275.2,0.016047,0.008934, 21,0.138274,0.000009,  25.870,   93
   275.4,0.016016,0.008920, 21,0.137986,0.000045,  25.868,   95
   275.6,0.015991,0.008907, 21,0.137674,0.000045,  25.870,   98
   275.8,0.015963,0.008897, 21,0.137393,0.000009,  25.870,   97
   276.0,0.015932,0.008887, 21,0.137173,0.000045,  25.870,   96
   276.2,0.015903,0.008877, 21,0.137005,0.000045,  25.869,   95
   276.4,0.015872,0.008863, 21,0.136876,0.000009,  25.871,   95
   276.6,0.015841,0.008846, 21,0.136685,0.000045,  25.871,   94
   276.8,0.015799,0.008822, 21,0.136483,0.000045,  25.869,   93
   277.0,0.015751,0.008804, 21,0.136252,0.000009,  25.872,   94
   277.2,0.015700,0.008781, 21,0.135926,0.000032,  25.875,   95
   277.4,0.015666,0.008759, 21,0.135526,0.000019,  25.879,   83
   277.6,0.015641,0.008740, 21,0.135038,-0.000004,  25.878,   70
   277.8,0.015624,0.008723, 21,0.134752,0.000019,  25.875,   82
   278.0,0.015601,0.008707, 21,0.134523,0.000019,  25.881,   94
   278.2,0.015579,0.008688, 21,0.134356,-0.000004,  25.878,   94
   278.4,0.015554,0.008678, 21,0.134148,0.000019,  25.879,   94
   278.6,0.015528,0.008664, 21,0.133947,0.000019,  25.878,   94
   278.8,0.015503,0.008647, 21,0.133740,-0.000004,  25.879,   95
   279.0,0.015469,0.008633, 21,0.133549,0.000032,  25.878,   95
   279.2,0.015444,0.008618, 21,0.133359,0.000032,  25.881,   96
   279.4,0.015424,0.008606, 21,0.133176,0.000009,  25.881,   95
   279.6,0.015404,0.008591, 21,0.132975,0.000045,  25.882,   93
   279.8,0.015384,0.008576, 21,0.132740,0.000032,  25.884,   94
   280.0,0.015362,0.008561, 21,0.132500,0.000009,  25.883,   95
   280.2,0.015331,0.008547, 21,0.132210,0.000045,  25.882,   95
   280.4,0.015300,0.008531, 21,0.131909,0.000032,  25.883,   95
   280.6,0.015269,0.008512, 21,0.131586,0.000009,  25.882,   95
   280.8,0.015241,0.008492, 21,0.131251,0.000045,  25.883,   95
   281.0,0.015204,0.008473, 21,0.130916,0.000045,  25.883,   95
   281.2,0.015173,0.008456, 21,0.130594,0.000009,  25.882,   95
   281.4,0.015145,0.008442, 21,0.130389,0.000045,  25.886,   95
   281.6,0.015116,0.008422, 21,0.130228,0.000045,  25.884,   94
   281.8,0.015088,0.008413, 21,0.130128,0.000045,  25.891,   96
   282.0,0.015054,0.008401, 21,0.129918,0.000058,  25.886,   97
   282.2,0.015028,0.008386, 21,0.129629,0.000022,  25.882,   96
   282.4,0.015003,0.008367, 21,0.129342,0.000045,  25.888,   95
   282.6,0.014969,0.008351, 21,0.129094,0.000009,  25.887,   94
   282.8,0.014942,0.008334, 21,0.128863,0.000009,  25.888,   93
   283.0,0.014911,0.008312, 21,0.128638,0.000032,  25.887,   94
   283.2,0.014877,0.008300, 21,0.128430,0.000009,  25.893,   95
   283.4,0.014840,0.008284, 21,0.128165,0.000045,  25.895,   95
   283.6,0.014807,0.008260, 21,0.127867,0.000032,  25.893,   94
   283.8,0.014776,0.008244, 21,0.127552,0.000009,  25.894,   94
   284.0,0.014745,0.008226, 21,0.127292,0.000045,  25.896,   95
   284.2,0.014714,0.008207, 21,0.127060,0.000032,  25.894,   95
   284.4,0.014683,0.008189, 21,0.126839,0.000009,  25.892,   96
   284.6,0.014655,0.008170, 21,0.126573,0.000045,  25.894,   94
   284.8,0.014624,0.008154, 21,0.126286,0.000032,  25.893,   93
   285.0,0.014587,0.008135, 21,0.126012,0.000009,  25.896,   94
   285.2,0.014553,0.008121, 21,0.125705,0.000045,  25.893,   94
   285.4,0.014522,0.008106, 21,0.125353,0.000032,  25.901,   96
   285.6,0.014489,0.008102, 21,0.124987,0.000009,  25.898,   97
   285.8,0.014458,0.008091, 21,0.124674,0.000045,  25.894,   96
   286.0,0.014427,0.008077, 21,0.124366,0.000045,  25.894,   94
   286.2,0.014389,0.008058, 21,0.124081,0.000009,  25.894,   96
   286.4,0.014355,0.008038, 21,0.123861,0.000045,  25.896,   97
   286.6,0.014327,0.008019, 21,0.123675,0.000045,  25.897,   96
   286.8,0.014290,0.007998, 21,0.123533,0.000009,  25.896,   94
   287.0,0.014262,0.007988, 21,0.123286,0.000045,  25.897,   94
   287.2,0.014232,0.007968, 21,0.123035,0.000045,  25.898,   94
   287.4,0.014194,0.007954, 21,0.122756,0.000009,  25.893,   93
   287.6,0.014172,0.007939, 21,0.122510,0.000045,  25.897,   93
   287.8,0.014139,0.007919, 21,0.122297,0.000045,  25.898,   94
   288.0,0.014098,0.007903, 21,0.122124,0.000009,  25.897,   96
   288.2,0.014071,0.007888, 21,0.121840,0.000045,  25.894,   91
   288.4,0.014040,0.007866, 21,0.121523,0.000045,  25.898,   87
   288.6,0.014006,0.007850, 21,0.121158,0.000009,  25.897,   91
   288.8,0.013981,0.007830, 21,0.120902,0.000045,  25.899,   95
   289.0,0.013953,0.007809, 21,0.120663,0.000045,  25.894,   94
   289.2,0.013921,0.007788, 21,0.120418,0.000009,  25.896,   94
   289.4,0.013905,0.007770, 21,0.120146,0.000045,  25.897,   94
   289.6,0.013880,0.007749, 21,0.119853,0.000045,  25.893,   94
   289.8,0.013849,0.007730, 21,0.119550,0.000009,  25.895,   95
   290.0,0.013818,0.007715, 21,0.119301,0.000045,  25.896,   96
   290.2,0.013785,0.007693, 21,0.119029,0.000045,  25.895,   94
   290.4,0.013754,0.007683, 21,0.118774,0.000009,  25.900,   93
   290.6,0.013716,0.007665, 21,0.118342,0.000045,  25.899,   93
   290.8,0.013689,0.007643, 21,0.117796,0.000045,  25.899,   94
   291.0,0.013661,0.007627, 21,0.117138,0.000009,  25.904,   95
   291.2,0.013623,0.007608, 21,0.116841,0.000045,  25.903,   96
   291.4,0.013596,0.007590, 21,0.116658,0.000045,  25.903,   96
   291.6,0.013566,0.007578, 21,0.116581,0.000045,  25.905,   95
   291.8,0.013528,0.007558, 21,0.116371,0.000058,  25.904,   96
   292.0,0.013498,0.007535, 21,0.116140,0.000022,  25.908,   96
   292.2,0.013467,0.007523, 21,0.115883,0.000045,  25.908,   96
   292.4,0.013430,0.007503, 21,0.115677,0.000009,  25.909,   96
   292.6,0.013408,0.007480, 21,0.115504,0.000009,  25.907,   95
   292.8,0.013377,0.007462, 21,0.115325,0.000045,  25.907,   95
   293.0,0.013337,0.007445, 21,0.115175,0.000009,  25.910,   94
   293.2,0.013310,0.007428, 21,0.115031,0.000032,  25.910,   94
   293.4,0.013279,0.007404, 21,0.114893,0.000019,  25.911,   94
   293.6,0.013233,0.007390, 21,0.114778,-0.000004,  25.915,   95
   293.8,0.013201,0.007375, 21,0.114542,0.000032,  25.912,   94
   294.0,0.013170,0.007351, 21,0.114247,0.000032,  25.913,   93
   294.2,0.013133,0.007334, 21,0.113893,0.000009,  25.914,   94
   294.4,0.013106,0.007314, 21,0.113588,0.000045,  25.913,   94
   294.6,0.013075,0.007295, 21,0.113267,0.000032,  25.917,   95
   294.8,0.013039,0.007278, 21,0.112926,0.000009,  25.918,   95
   295.0,0.013005,0.007257, 21,0.112641,0.000045,  25.918,   95
   295.2,0.012977,0.007238, 21,0.112374,0.000045,  25.919,   95
   295.4,0.012940,0.007220, 21,0.112113,0.000009,  25.915,   94
   295.6,0.012912,0.007203, 21,0.111829,0.000045,  25.919,   93
   295.8,0.012881,0.007188, 21,0.111503,0.000045,  25.914,   94
   296.0,0.012843,0.007176, 21,0.111200,0.000009,  25.918,   94
   296.2,0.012816,0.007164, 21,0.110917,0.000045,  25.915,   96
   296.4,0.012783,0.007149, 21,0.110624,0.000045,  25.921,   98
   296.6,0.012749,0.007132, 21,0.110354,0.000009,  25.919,   96
   296.8,0.012719,0.007116, 21,0.110035,0.000045,  25.916,   94
   297.0,0.012686,0.007094, 21,0.109691,0.000045,  25.916,   96
   297.2,0.012658,0.007082, 21,0.109320,0.000009,  25.917,   98
   297.4,0.012624,0.007061, 21,0.109018,0.000045,  25.916,   96
   297.6,0.012593,0.007044, 21,0.108739,0.000045,  25.920,   95
   297.8,0.012559,0.007026, 21,0.108454,0.000009,  25.916,   95
   298.0,0.012528,0.007012, 21,0.108189,0.000045,  25.919,   95
   298.2,0.012494,0.006995, 21,0.107947,0.000045,  25.920,   94
   298.4,0.012458,0.006973, 21,0.107698,0.000009,  25.923,   93
   298.6,0.012422,0.006963, 21,0.107313,0.000045,  25.926,   94
   298.8,0.012392,0.006945, 21,0.106883,0.000032,  25.923,   95
   299.0,0.012364,0.006922, 21,0.106369,0.000009,  25.921,   90
   299.2,0.012333,0.006903, 21,0.106089,0.000009,  25.924,   85
   299.4,0.012308,0.006884, 21,0.105910,0.000009,  25.923,   90
   299.6,0.012281,0.006866, 21,0.105808,-0.000027,  25.924,   94
   299.8,0.012263,0.006849, 21,0.105587,-0.000027,  25.923,   94
   300.0,0.012237,0.006828, 21,0.105330,0.000009,  25.923,   94
   300.2,0.012209,0.006814, 21,0.105047,-0.000027,  25.927,   93
   300.4,0.012178,0.006795, 21,0.104826,-0.000027,  25.930,   93
   300.6,0.012145,0.006777, 21,0.104595,0.000009,  25.927,   94
   300.8,0.012114,0.006763, 21,0.104364,-0.000027,  25.925,   96
   301.0,0.012087,0.006746, 21,0.104108,-0.000027,  25.923,   95
   301.2,0.012056,0.006730, 21,0.103826,0.000009,  25.924,   94
   301.4,0.012028,0.006715, 21,0.103512,0.000009,  25.928,   94
   301.6,0.012000,0.006705, 21,0.103224,0.000022,  25.929,   94
   301.8,0.011969,0.006689, 21,0.102937,0.000022,  25.927,   96
   302.0,0.011941,0.006665, 21,0.102649,0.000009,  25.931,   97
   302.2,0.011910,0.006653, 21,0.102388,-0.000027,  25.930,   97
   302.4,0.011874,0.006638, 21,0.102142,0.000009,  25.933,   97
   302.6,0.011846,0.006616, 21,0.101907,0.000009,  25.932,   96
   302.8,0.011815,0.006604, 21,0.101693,-0.000027,  25.930,   95
   303.0,0.011784,0.006588, 21,0.101502,-0.000027,  25.923,   95
   303.2,0.011756,0.006572, 21,0.101321,0.000009,  25.930,   94
   303.4,0.011726,0.006555, 21,0.101152,-0.000027,  25.928,   94
   303.6,0.011695,0.006533, 21,0.100888,-0.000027,  25.930,   94
   303.8,0.011661,0.006515, 21,0.100592,0.000009,  25.927,   94
   304.0,0.011625,0.006487, 21,0.100271,-0.000027,  25.927,   94
   304.2,0.011589,0.006461, 21,0.100001,-0.000027,  25.928,   94
   304.4,0.011555,0.006446, 21,0.099725,0.000009,  25.926,   95
   304.6,0.011524,0.006423, 21,0.099462,-0.000027,  25.930,   95
   304.8,0.011491,0.006400, 21,0.099234,-0.000027,  25.925,   95
   305.0,0.011460,0.006388, 21,0.099000,-0.000004,  25.928,   94
   305.2,0.011432,0.006375, 21,0.098782,-0.000027,  25.930,   94
   305.4,0.011404,0.006365, 21,0.098513,-0.000027,  25.927,   94
   305.6,0.011373,0.006348, 21,0.098209,-0.000004,  25.928,   95
   305.8,0.011346,0.006340, 21,0.097874,-0.000027,  25.926,   95
   306.0,0.011315,0.006330, 21,0.097590,-0.000027,  25.924,   95
   306.2,0.011287,0.006315, 21,0.097312,-0.000004,  25.927,   94
   306.4,0.011259,0.006303, 21,0.097057,-0.000027,  25.925,   93
   306.6,0.011225,0.006284, 21,0.096805,-0.000027,  25.922,   93
   306.8,0.011198,0.006267, 21,0.096515,-0.000004,  25.922,   93
   307.0,0.011170,0.006246, 21,0.096232,-0.000027,  25.928,   95
   307.2,0.011139,0.006235, 21,0.096015,-0.000027,  25.918,   98
   307.4,0.011111,0.006220, 21,0.095808,-0.000004,  25.927,   95
   307.6,0.011080,0.006201, 21,0.095616,-0.000027,  25.921,   93
   307.8,0.011044,0.006186, 21,0.095192,-0.000027,  25.923,   95
   308.0,0.011016,0.006172, 21,0.094671,0.000009,  25.920,   98
   308.2,0.010985,0.006155, 21,0.094047,-0.000027,  25.921,   97
   308.4,0.010955,0.006134, 21,0.093797,-0.000027,  25.922,   95
   308.6,0.010927,0.006117, 21,0.093663,0.000009,  25.921,   95
   308.8,0.010899,0.006104, 21,0.093660,-0.000027,  25.919,   95
   309.0,0.010868,0.006087, 21,0.093460,-0.000027,  25.926,   95
   309.2,0.010843,0.006068, 21,0.093222,0.000009,  25.921,   94
   309.4,0.010823,0.006045, 21,0.092907,-0.000027,  25.925,   94
   309.6,0.010804,0.006023, 21,0.092732,-0.000027,  25.920,   94
   309.8,0.010784,0.006004, 21,0.092582,0.000009,  25.923,   85
   310.0,0.010757,0.005982, 21,0.092458,-0.000027,  25.918,   77
   310.2,0.010723,0.005973, 21,0.092202,-0.000027,  25.922,   85
   310.4,0.010687,0.005958, 21,0.091909,0.000009,  25.922,   94
   310.6,0.010656,0.005941, 21,0.091567,-0.000027,  25.922,   94
   310.8,0.010625,0.005929, 21,0.091318,-0.000027,  25.917,   94
   311.0,0.010592,0.005919, 21,0.091047,0.000009,  25.919,   94
   311.2,0.010564,0.005902, 21,0.090808,0.000009,  25.923,   94
   311.4,0.010536,0.005893, 21,0.090584,0.000022,  25.920,   95
   311.6,0.010505,0.005879, 21,0.090330,0.000009,  25.918,   96
   311.8,0.010478,0.005860, 21,0.090091,-0.000004,  25.921,   94
   312.0,0.010450,0.005842, 21,0.089877,-0.000040,  25.921,   93
   312.2,0.010419,0.005823, 21,0.089647,-0.000004,  25.917,   94
   312.4,0.010391,0.005806, 21,0.089433,-0.000004,  25.919,   95
   312.6,0.010354,0.005790, 21,0.089226,-0.000027,  25.915,   95
   312.8,0.010323,0.005773, 21,0.089040,-0.000027,  25.916,   96
   313.0,0.010293,0.005751, 21,0.088848,-0.000004,  25.914,   96
   313.2,0.010258,0.005737, 21,0.088669,-0.000027,  25.914,   96
   313.4,0.010228,0.005719, 21,0.088413,-0.000027,  25.914,   95
   313.6,0.010198,0.005703, 21,0.088116,-0.000004,  25.917,   95
   313.8,0.010163,0.005690, 21,0.087795,-0.000027,  25.915,   94
   314.0,0.010142,0.005676, 21,0.087533,-0.000027,  25.911,   94
   314.2,0.010114,0.005660, 21,0.087308,-0.000004,  25.909,   94
   314.4,0.010080,0.005648, 21,0.087077,-0.000027,  25.911,   94
   314.6,0.010059,0.005636, 21,0.086864,-0.000027,  25.911,   94
   314.8,0.010033,0.005612, 21,0.086636,-0.000004,  25.910,   94
   315.0,0.010006,0.005601, 21,0.086439,-0.000027,  25.906,   95
   315.2,0.009979,0.005589, 21,0.086218,-0.000027,  25.910,   96
   315.4,0.009951,0.005571, 21,0.085966,-0.000004,  25.913,   95
   315.6,0.009920,0.005566, 21,0.085711,-0.000027,  25.909,   94
   315.8,0.009887,0.005551, 21,0.085441,-0.000027,  25.913,   94
   316.0,0.009859,0.005532, 21,0.085156,-0.000004,  25.910,   95
   316.2,0.009831,0.005520, 21,0.084852,-0.000027,  25.910,   95
   316.4,0.009803,0.005501, 21,0.084592,-0.000027,  25.906,   95
   316.6,0.009776,0.005484, 21,0.084347,-0.000004,  25.911,   95
   316.8,0.009751,0.005468, 21,0.084102,-0.000027,  25.911,   95
   317.0,0.009720,0.005454, 21,0.083827,-0.000027,  25.905,   95
   317.2,0.009695,0.005438, 21,0.083534,-0.000004,  25.910,   95
   317.4,0.009667,0.005418, 21,0.083223,-0.000027,  25.908,   94
   317.6,0.009639,0.005406, 21,0.082988,-0.000027,  25.909,   94
   317.8,0.009614,0.005394, 21,0.082762,-0.000004,  25.907,   96
   318.0,0.009586,0.005374, 21,0.082572,-0.000027,  25.912,   98
   318.2,0.009556,0.005363, 21,0.082338,-0.000027,  25.908,   96
   318.4,0.009531,0.005346, 21,0.082094,-0.000004,  25.909,   94
   318.6,0.009503,0.005332, 21,0.081811,-0.000027,  25.910,   95
   318.8,0.009475,0.005313, 21,0.081592,-0.000027,  25.905,   96
   319.0,0.009453,0.005298, 21,0.081388,-0.000004,  25.904,   96
   319.2,0.009433,0.005284, 21,0.081184,-0.000027,  25.906,   95
   319.4,0.009419,0.005268, 21,0.080932,-0.000040,  25.910,   95
   319.6,0.009403,0.005251, 21,0.080662,-0.000017,  25.906,   95
   319.8,0.009383,0.005238, 21,0.080353,-0.000040,  25.906,   95
   320.0,0.009355,0.005225, 21,0.080165,-0.000053,  25.911,   94
   320.2,0.009325,0.005208, 21,0.080010,-0.000030,  25.907,   95
   320.4,0.009297,0.005198, 21,0.079925,-0.000053,  25.907,   95
   320.6,0.009260,0.005181, 21,0.079722,-0.000053,  25.908,   86
   320.8,0.009229,0.005162, 21,0.079488,-0.000017,  25.903,   77
   321.0,0.009201,0.005148, 21,0.079231,-0.000017,  25.907,   86
   321.2,0.009167,0.005127, 21,0.078989,-0.000017,  25.912,   95
   321.4,0.009149,0.005109, 21,0.078717,-0.000004,  25.909,   95
   321.6,0.009114,0.005095, 21,0.078442,-0.000017,  25.908,   95
   321.8,0.009086,0.005083, 21,0.078240,-0.000053,  25.907,   95
   322.0,0.009056,0.005069, 21,0.078062,-0.000017,  25.905,   95
   322.2,0.009031,0.005054, 21,0.077886,-0.000017,  25.904,   96
   322.4,0.009003,0.005041, 21,0.077603,-0.000040,  25.908,   97
   322.6,0.008985,0.005029, 21,0.077251,-0.000053,  25.907,   95
   322.8,0.008962,0.005011, 21,0.076856,-0.000017,  25.903,   94
   323.0,0.008928,0.004995, 21,0.076392,-0.000040,  25.907,   94
   323.2,0.008907,0.004980, 21,0.076214,-0.000053,  25.906,   95
   323.4,0.008882,0.004961, 21,0.076123,-0.000017,  25.903,   96
   323.6,0.008848,0.004949, 21,0.076097,-0.000040,  25.903,   96
   323.8,0.008824,0.004931, 21,0.075913,-0.000053,  25.902,   96
   324.0,0.008796,0.004915, 21,0.075697,-0.000017,  25.905,   96
   324.2,0.008759,0.004902, 21,0.075448,-0.000040,  25.904,   96
   324.4,0.008735,0.004885, 21,0.075247,-0.000053,  25.901,   95
   324.6,0.008710,0.004873, 21,0.075061,-0.000017,  25.903,   95
   324.8,0.008675,0.004856, 21,0.074890,-0.000040,  25.903,   94
   325.0,0.008660,0.004849, 21,0.074680,-0.000053,  25.902,   95
   325.2,0.008638,0.004832, 21,0.074432,-0.000017,  25.903,   95
   325.4,0.008603,0.004826, 21,0.074182,-0.000040,  25.901,   95
   325.6,0.008582,0.004816, 21,0.074020,-0.000066,  25.902,   95
   325.8,0.008557,0.004799, 21,0.073879,-0.000043,  25.902,   96
   326.0,0.008520,0.004785, 21,0.073771,-0.000066,  25.904,   98
   326.2,0.008493,0.004766, 21,0.073532,-0.000066,  25.902,   96
   326.4,0.008465,0.004754, 21,0.073222,-0.000030,  25.900,   95
   326.6,0.008434,0.004739, 21,0.072880,-0.000053,  25.902,   94
   326.8,0.008413,0.004729, 21,0.072618,-0.000053,  25.899,   94
   327.0,0.008388,0.004718, 21,0.072348,-0.000030,  25.901,   95
   327.2,0.008356,0.004702, 21,0.072092,-0.000053,  25.895,   96
   327.4,0.008338,0.004687, 21,0.071878,-0.000053,  25.900,   96
   327.6,0.008316,0.004675, 21,0.071693,-0.000030,  25.898,   96
   327.8,0.008291,0.004660, 21,0.071502,-0.000053,  25.897,   95
   328.0,0.008270,0.004643, 21,0.071303,-0.000053,  25.896,   95
   328.2,0.008247,0.004629, 21,0.071104,-0.000030,  25.899,   95
   328.4,0.008220,0.004612, 21,0.070875,-0.000053,  25.897,   95
   328.6,0.008192,0.004597, 21,0.070670,-0.000053,  25.898,   97
   328.8,0.008170,0.004582, 21,0.070464,-0.000030,  25.899,   99
   329.0,0.008148,0.004570, 21,0.070251,-0.000053,  25.894,   97
   329.2,0.008138,0.004562, 21,0.070007,-0.000053,  25.895,   95
   329.4,0.008118,0.004548, 21,0.069762,-0.000030,  25.892,   95
   329.6,0.008096,0.004529, 21,0.069470,-0.000053,  25.895,   96
   329.8,0.008071,0.004513, 21,0.069257,-0.000053,  25.893,   96
   330.0,0.008043,0.004496, 21,0.069088,-0.000030,  25.893,   95
   330.2,0.008021,0.004480, 21,0.068913,-0.000053,  25.891,   96
   330.4,0.007989,0.004466, 21,0.068715,-0.000053,  25.889,   96
   330.6,0.007971,0.004456, 21,0.068529,-0.000030,  25.893,   95
   330.8,0.007943,0.004444, 21,0.068308,-0.000053,  25.895,   94
   331.0,0.007904,0.004427, 21,0.068110,-0.000053,  25.890,   95
   331.2,0.007874,0.004413, 21,0.067910,-0.000030,  25.893,   96
   331.4,0.007852,0.004400, 21,0.067689,-0.000030,  25.890,   87
   331.6,0.007820,0.004380, 21,0.067491,-0.000030,  25.888,   78
   331.8,0.007801,0.004364, 21,0.067285,-0.000030,  25.890,   86
   332.0,0.007779,0.004353, 21,0.067064,-0.000030,  25.894,   94
   332.2,0.007757,0.004346, 21,0.066873,-0.000066,  25.892,   96
   332.4,0.007732,0.004328, 21,0.066696,-0.000030,  25.889,   97
   332.6,0.007710,0.004308, 21,0.066535,-0.000030,  25.887,   97
   332.8,0.007687,0.004293, 21,0.066379,-0.000053,  25.885,   96
   333.0,0.007668,0.004275, 21,0.066006,-0.000053,  25.883,   98
   333.2,0.007646,0.004265, 21,0.065557,-0.000030,  25.886,   99
   333.4,0.007614,0.004259, 21,0.065034,-0.000053,  25.886,   97
   333.6,0.007592,0.004247, 21,0.064799,-0.000053,  25.883,   95
   333.8,0.007570,0.004235, 21,0.064678,-0.000017,  25.886,   95
   334.0,0.007541,0.004224, 21,0.064670,-0.000040,  25.882,   96
   334.2,0.007526,0.004211, 21,0.064566,-0.000053,  25.885,   97
   334.4,0.007504,0.004191, 21,0.064468,-0.000017,  25.886,   98
   334.6,0.007472,0.004185, 21,0.064370,-0.000040,  25.884,   98
   334.8,0.007451,0.004174, 21,0.064205,-0.000053,  25.882,   98
   335.0,0.007429,0.004158, 21,0.064015,-0.000017,  25.884,   97
   335.2,0.007404,0.004159, 21,0.063788,-0.000040,  25.884,   97
   335.4,0.007388,0.004148, 21,0.063606,-0.000040,  25.879,   96
   335.6,0.007366,0.004139, 21,0.063437,-0.000004,  25.885,   96
   335.8,0.007341,0.004123, 21,0.063233,-0.000027,  25.882,   96
   336.0,0.007319,0.004116, 21,0.063067,-0.000027,  25.885,   96
   336.2,0.007297,0.004097, 21,0.062915,-0.000004,  25.882,   97
   336.4,0.007269,0.004084, 21,0.062742,-0.000027,  25.883,   97
   336.6,0.007242,0.004069, 21,0.062553,-0.000040,  25.887,   98
   336.8,0.007220,0.004054, 21,0.062341,-0.000017,  25.880,   99
   337.0,0.007197,0.004037, 21,0.062114,-0.000040,  25.884,   97
   337.2,0.007172,0.004024, 21,0.061927,-0.000017,  25.885,   96
   337.4,0.007153,0.004013, 21,0.061767,0.000006,  25.887,   96
   337.6,0.007131,0.004001, 21,0.061616,-0.000017,  25.887,   96
   337.8,0.007106,0.003986, 21,0.061390,0.000019,  25.888,   97
   338.0,0.007087,0.003976, 21,0.061133,0.000006,  25.888,   97
   338.2,0.007065,0.003961, 21,0.060830,-0.000017,  25.885,   97
   338.4,0.007040,0.003952, 21,0.060656,0.000019,  25.890,   97
   338.6,0.007020,0.003940, 21,0.060513,0.000006,  25.890,   96
   338.8,0.007000,0.003923, 21,0.060401,-0.000017,  25.888,   96
   339.0,0.006990,0.003913, 21,0.060221,0.000019,  25.886,   96
   339.2,0.006969,0.003898, 21,0.060002,0.000006,  25.894,   96
   339.4,0.006947,0.003887, 21,0.059748,-0.000017,  25.897,   98
   339.6,0.006925,0.003875, 21,0.059568,0.000019,  25.899,  100
   339.8,0.006903,0.003860, 21,0.059389,0.000006,  25.899,   98
   340.0,0.006881,0.003849, 21,0.059223,-0.000017,  25.894,   96
   340.2,0.006852,0.003837, 21,0.058998,0.000019,  25.900,   98
   340.4,0.006831,0.003826, 21,0.058743,0.000006,  25.902,  100
   340.6,0.006809,0.003812, 21,0.058442,-0.000017,  25.900,   98
   340.8,0.006780,0.003807, 21,0.057959,0.000019,  25.899,   97
   341.0,0.006765,0.003792, 21,0.057378,0.000006,  25.904,   97
   341.2,0.006745,0.003779, 21,0.056679,0.000006,  25.907,   98
   341.4,0.006717,0.003769, 21,0.056303,0.000006,  25.904,   97
   341.6,0.006701,0.003752, 21,0.056051,-0.000017,  25.904,   96
   341.8,0.006682,0.003733, 21,0.055916,0.000019,  25.903,   96
   342.0,0.006656,0.003715, 21,0.055817,-0.000017,  25.906,   96
   342.2,0.006640,0.003705, 21,0.055821,-0.000017,  25.909,   90
   342.4,0.006618,0.003690, 21,0.055884,0.000006,  25.908,   84
   342.6,0.006591,0.003684, 21,0.056041,-0.000017,  25.908,   89
   342.8,0.006572,0.003671, 21,0.056002,0.000019,  25.909,   95
   343.0,0.006553,0.003665, 21,0.055911,0.000006,  25.914,   96
   343.2,0.006531,0.003657, 21,0.055799,-0.000017,  25.910,   97
   343.4,0.006509,0.003645, 21,0.055694,0.000019,  25.910,   96
   343.6,0.006490,0.003636, 21,0.055567,0.000006,  25.910,   95
   343.8,0.006467,0.003626, 21,0.055425,-0.000017,  25.909,   96
   344.0,0.006443,0.003613, 21,0.055321,0.000019,  25.913,   97
   344.2,0.006423,0.003602, 21,0.055202,0.000006,  25.914,   96
   344.4,0.006401,0.003592, 21,0.055097,-0.000017,  25.910,   94
   344.6,0.006382,0.003581, 21,0.054954,0.000019,  25.914,   95
   344.8,0.006363,0.003572, 21,0.054768,0.000006,  25.912,   96
   345.0,0.006343,0.003568, 21,0.054546,-0.000017,  25.912,   97
   345.2,0.006321,0.003557, 21,0.054366,0.000019,  25.916,   98
   345.4,0.006302,0.003540, 21,0.054158,0.000006,  25.912,   97
   345.6,0.006273,0.003528, 21,0.053951,-0.000017,  25.915,   97
   345.8,0.006251,0.003519, 21,0.053781,0.000019,  25.916,   97
   346.0,0.006232,0.003508, 21,0.053618,0.000006,  25.913,   97
   346.2,0.006206,0.003495, 21,0.053483,-0.000017,  25.910,   97
   346.4,0.006193,0.003487, 21,0.053343,0.000019,  25.915,   98
   346.6,0.006174,0.003474, 21,0.053216,0.000006,  25.915,   97
   346.8,0.006145,0.003461, 21,0.053096,-0.000017,  25.911,   96
   347.0,0.006132,0.003450, 21,0.052925,0.000019,  25.912,   96
   347.2,0.006113,0.003437, 21,0.052732,0.000006,  25.910,   96
   347.4,0.006087,0.003429, 21,0.052537,-0.000017,  25.914,   96
   347.6,0.006072,0.003423, 21,0.052177,0.000019,  25.911,   96
   347.8,0.006052,0.003411, 21,0.051715,0.000006,  25.912,   94
   348.0,0.006023,0.003392, 21,0.051200,-0.000017,  25.908,   91
   348.2,0.006008,0.003383, 21,0.051008,0.000019,  25.913,   94
   348.4,0.005989,0.003369, 21,0.050927,0.000006,  25.912,   96
   348.6,0.005966,0.003352, 21,0.050968,-0.000017,  25.914,   97
   348.8,0.005958,0.003340, 21,0.050929,0.000019,  25.907,   98
   349.0,0.005945,0.003330, 21,0.050884,0.000006,  25.910,   97
   349.2,0.005925,0.003317, 21,0.050818,-0.000017,  25.907,   97
   349.4,0.005906,0.003311, 21,0.050728,0.000019,  25.903,   96
   349.6,0.005881,0.003298, 21,0.050631,0.000006,  25.911,   95
   349.8,0.005862,0.003286, 21,0.050491,-0.000017,  25.902,   95
   350.0,0.005839,0.003273, 21,0.050309,0.000019,  25.908,   96
   350.2,0.005823,0.003259, 21,0.050131,0.000006,  25.911,   98
   350.4,0.005804,0.003247, 21,0.049917,-0.000017,  25.905,  100
   350.6,0.005785,0.003238, 21,0.049763,0.000019,  25.905,   98
   350.8,0.005769,0.003228, 21,0.049638,0.000006,  25.905,   96
   351.0,0.005750,0.003212, 21,0.049504,0.000006,  25.904,   97
   351.2,0.005731,0.003209, 21,0.049335,0.000006,  25.902,   98
   351.4,0.005708,0.003199, 21,0.049149,-0.000030,  25.904,   97
   351.6,0.005683,0.003190, 21,0.048935,0.000006,  25.908,   96
   351.8,0.005666,0.003184, 21,0.048779,-0.000030,  25.903,   97
   352.0,0.005643,0.003171, 21,0.048667,-0.000030,  25.907,   97
   352.2,0.005622,0.003160, 21,0.048562,0.000006,  25.906,   97
   352.4,0.005610,0.003148, 21,0.048471,-0.000017,  25.905,   97
   352.6,0.005588,0.003134, 21,0.048280,0.000006,  25.902,   96
   352.8,0.005562,0.003123, 21,0.048093,-0.000007,  25.901,   95
   353.0,0.005546,0.003117, 21,0.047865,-0.000030,  25.900,   89
   353.2,0.005522,0.003104, 21,0.047696,-0.000007,  25.904,   84
   353.4,0.005496,0.003094, 21,0.047548,-0.000007,  25.900,   87
   353.6,0.005480,0.003074, 21,0.047401,-0.000030,  25.901,   90
   353.8,0.005461,0.003059, 21,0.047284,-0.000007,  25.910,   93
   354.0,0.005447,0.003051, 21,0.047209,-0.000007,  25.909,   96
   354.2,0.005431,0.003046, 21,0.047114,-0.000030,  25.902,   95
   354.4,0.005421,0.003038, 21,0.046961,-0.000007,  25.908,   94
   354.6,0.005407,0.003031, 21,0.046784,-0.000007,  25.902,   96
   354.8,0.005384,0.003029, 21,0.046579,-0.000030,  25.902,   97
   355.0,0.005371,0.003022, 21,0.046382,-0.000007,  25.905,   96
   355.2,0.005357,0.003014, 21,0.046206,-0.000007,  25.900,   95
   355.4,0.005337,0.003002, 21,0.046015,-0.000030,  25.905,   95
   355.6,0.005327,0.002996, 21,0.045868,-0.000007,  25.902,   96
   355.8,0.005313,0.002983, 21,0.045737,-0.000007,  25.905,   97
   356.0,0.005285,0.002975, 21,0.045641,-0.000030,  25.905,   98
   356.2,0.005269,0.002964, 21,0.045259,-0.000007,  25.899,   98
   356.4,0.005250,0.002949, 21,0.044740,-0.000007,  25.900,   98
   356.6,0.005221,0.002941, 21,0.044114,-0.000030,  25.901,   97
   356.8,0.005206,0.002925, 21,0.043947,-0.000007,  25.903,   96
   357.0,0.005189,0.002915, 21,0.043951,-0.000007,  25.901,   96
   357.2,0.005166,0.002907, 21,0.044146,-0.000030,  25.900,   97
   357.4,0.005159,0.002906, 21,0.044078,-0.000007,  25.904,   96
   357.6,0.005142,0.002898, 21,0.043958,-0.000007,  25.902,   96
   357.8,0.005116,0.002885, 21,0.043796,-0.000030,  25.900,   96
   358.0,0.005101,0.002881, 21,0.043721,-0.000007,  25.901,   96
   358.2,0.005085,0.002872, 21,0.043689,-0.000007,  25.902,   96
   358.4,0.005067,0.002860, 21,0.043650,-0.000030,  25.900,   97
   358.6,0.005063,0.002845, 21,0.043526,-0.000007,  25.901,   96
   358.8,0.005054,0.002837, 21,0.043393,-0.000007,  25.900,   94
   359.0,0.005038,0.002831, 21,0.043218,-0.000030,  25.903,   95
   359.2,0.005021,0.002827, 21,0.043080,0.000006,  25.903,   97
   359.4,0.005005,0.002811, 21,0.042969,0.000006,  25.901,   96
   359.6,0.004991,0.002802, 21,0.042851,-0.000017,  25.903,   96
   359.8,0.004968,0.002795, 21,0.042720,0.000006,  25.904,   97
   360.0,0.004955,0.002784, 21,0.042575,-0.000007,  25.903,   97
   360.2,0.004941,0.002776, 21,0.042414,-0.000030,  25.902,   96
   360.4,0.004918,0.002770, 21,0.042261,0.000006,  25.902,   94
   360.6,0.004906,0.002760, 21,0.042088,0.000006,  25.904,   95
   360.8,0.004892,0.002751, 21,0.041942,0.000006,  25.897,   95
   361.0,0.004869,0.002741, 21,0.041803,0.000006,  25.899,   98
   361.2,0.004859,0.002734, 21,0.041666,-0.000030,  25.898,  100
   361.4,0.004845,0.002729, 21,0.041541,0.000006,  25.899,   98
   361.6,0.004825,0.002722, 21,0.041416,-0.000030,  25.900,   96
   361.8,0.004815,0.002714, 21,0.041291,-0.000030,  25.902,   97
   362.0,0.004801,0.002707, 21,0.041174,0.000006,  25.903,   98
   362.2,0.004783,0.002697, 21,0.041049,-0.000017,  25.896,   98
   362.4,0.004771,0.002684, 21,0.040932,0.000019,  25.898,   98
   362.6,0.004757,0.002680, 21,0.040814,0.000006,  25.894,   97
   362.8,0.004734,0.002670, 21,0.040689,-0.000017,  25.896,   96
   363.0,0.004724,0.002655, 21,0.040551,0.000006,  25.892,   96
   363.2,0.004698,0.002647, 21,0.040391,-0.000007,  25.898,   95
   363.4,0.004671,0.002635, 21,0.040210,-0.000056,  25.900,   95
   363.6,0.004643,0.002618, 21,0.040135,-0.000046,  25.897,   95
   363.8,0.004624,0.002606, 21,0.040088,-0.000072,  25.900,   90
   364.0,0.004605,0.002587, 21,0.040097,-0.000109,  25.899,   84
   364.2,0.004592,0.002575, 21,0.039817,-0.000059,  25.900,   88
   364.4,0.004575,0.002564, 21,0.039390,-0.000046,  25.899,   92
   364.6,0.004555,0.002562, 21,0.038844,-0.000069,  25.910,   94
   364.8,0.004545,0.002560, 21,0.038636,-0.000007,  25.906,   96
   365.0,0.004531,0.002555, 21,0.038533,-0.000020,  25.904,   95
   365.2,0.004511,0.002547, 21,0.038542,-0.000056,  25.898,   94
   365.4,0.004507,0.002540, 21,0.038482,-0.000007,  25.900,   96
   365.6,0.004496,0.002534, 21,0.038416,-0.000020,  25.898,   97
   365.8,0.004479,0.002526, 21,0.038397,-0.000056,  25.896,   95
   366.0,0.004472,0.002519, 21,0.038316,-0.000007,  25.894,   93
   366.2,0.004461,0.002510, 21,0.038221,-0.000020,  25.899,   96
   366.4,0.004441,0.002502, 21,0.038085,-0.000056,  25.897,   98
   366.6,0.004427,0.002491, 21,0.037757,-0.000007,  25.898,   98
   366.8,0.004413,0.002480, 21,0.037283,-0.000020,  25.897,   97
   367.0,0.004390,0.002472, 21,0.036705,-0.000056,  25.898,   97
   367.2,0.004383,0.002464, 21,0.036379,-0.000007,  25.892,   97
   367.4,0.004369,0.002450, 21,0.036124,-0.000020,  25.897,   97
   367.6,0.004343,0.002442, 21,0.035918,-0.000056,  25.898,   96
   367.8,0.004333,0.002439, 21,0.035872,-0.000007,  25.895,   96
   368.0,0.004322,0.002426, 21,0.035944,-0.000020,  25.894,   96
   368.2,0.004302,0.002417, 21,0.036127,-0.000056,  25.895,   96
   368.4,0.004298,0.002416, 21,0.036164,-0.000007,  25.894,   96
   368.6,0.004279,0.002406, 21,0.036166,-0.000020,  25.896,   96
   368.8,0.004250,0.002394, 21,0.036161,-0.000056,  25.888,   96
   369.0,0.004235,0.002385, 21,0.036191,-0.000020,  25.895,   96
   369.2,0.004204,0.002370, 21,0.036214,-0.000046,  25.894,   97
   369.4,0.004191,0.002359, 21,0.036216,-0.000082,  25.897,   79
   369.6,0.004177,0.002344, 21,0.036170,-0.000033,  25.899,   62
   369.8,0.004175,0.002333, 21,0.036068,-0.000033,  25.900,   78
   370.0,0.004167,0.002334, 21,0.035931,-0.000069,  25.903,   95
   370.2,0.004159,0.002330, 21,0.035808,-0.000020,  25.902,   95
   370.4,0.004150,0.002323, 21,0.035644,-0.000020,  25.895,   96
   370.6,0.004140,0.002323, 21,0.035478,-0.000020,  25.898,   96
   370.8,0.004129,0.002317, 21,0.035369,0.000006,  25.897,   96
   371.0,0.004118,0.002311, 21,0.035253,-0.000056,  25.895,   96
   371.2,0.004109,0.002310, 21,0.035165,-0.000007,  25.897,   95
   371.4,0.004098,0.002309, 21,0.035021,-0.000030,  25.897,   95
   371.6,0.004093,0.002301, 21,0.034842,-0.000030,  25.899,   94
   371.8,0.004087,0.002290, 21,0.034655,0.000006,  25.895,   97
   372.0,0.004074,0.002290, 21,0.034559,-0.000017,  25.899,   99
   372.2,0.004063,0.002283, 21,0.034506,0.000019,  25.895,   99
   372.4,0.004054,0.002279, 21,0.034495,0.000006,  25.897,   99
   372.6,0.004041,0.002274, 21,0.034524,-0.000017,  25.897,   98
   372.8,0.004027,0.002271, 21,0.034422,0.000019,  25.897,   96
   373.0,0.004016,0.002269, 21,0.034286,0.000006,  25.896,   97
   373.2,0.004005,0.002260, 21,0.034129,-0.000017,  25.902,   97
   373.4,0.003994,0.002251, 21,0.034027,0.000019,  25.897,   96
   373.6,0.003983,0.002248, 21,0.033939,0.000019,  25.900,   95
   373.8,0.003969,0.002240, 21,0.033884,-0.000004,  25.902,   95
   374.0,0.003955,0.002221, 21,0.033796,0.000019,  25.899,   94
   374.2,0.003944,0.002207, 21,0.033701,0.000019,  25.903,   95
   374.4,0.003927,0.002189, 21,0.033585,-0.000004,  25.900,   95
   374.6,0.003913,0.002181, 21,0.033497,-0.000017,  25.902,   90
   374.8,0.003902,0.002169, 21,0.033409,-0.000017,  25.898,   85
   375.0,0.003879,0.002178, 21,0.033341,-0.000040,  25.901,   89
   375.2,0.003872,0.002179, 21,0.033232,-0.000040,  25.902,   92
   375.4,0.003861,0.002179, 21,0.033088,-0.000004,  25.910,   94
   375.6,0.003843,0.002177, 21,0.032930,-0.000027,  25.910,   96
   375.8,0.003836,0.002173, 21,0.032801,-0.000027,  25.904,   95
   376.0,0.003825,0.002165, 21,0.032671,-0.000004,  25.907,   94
   376.2,0.003808,0.002159, 21,0.032520,-0.000027,  25.913,   96
   376.4,0.003803,0.002156, 21,0.032433,-0.000027,  25.906,   98
   376.6,0.003792,0.002147, 21,0.032372,-0.000004,  25.907,   96
   376.8,0.003772,0.002141, 21,0.032313,-0.000027,  25.911,   93
   377.0,0.003762,0.002138, 21,0.032211,-0.000027,  25.913,   95
   377.2,0.003751,0.002130, 21,0.032116,-0.000004,  25.914,   97
   377.4,0.003737,0.002126, 21,0.031980,-0.000027,  25.912,   97
   377.6,0.003730,0.002121, 21,0.031865,-0.000027,  25.914,   97
   377.8,0.003719,0.002112, 21,0.031756,-0.000004,  25.916,   97
   378.0,0.003706,0.002107, 21,0.031648,-0.000027,  25.916,   97
   378.2,0.003692,0.002101, 21,0.031539,-0.000027,  25.918,   96
   378.4,0.003681,0.002090, 21,0.031410,-0.000004,  25.919,   96
   378.6,0.003673,0.002087, 21,0.031294,-0.000027,  25.920,   96
   378.8,0.003664,0.002079, 21,0.031234,-0.000027,  25.919,   96
   379.0,0.003656,0.002068, 21,0.031167,-0.000004,  25.916,   96
   379.2,0.003645,0.002067, 21,0.031128,-0.000027,  25.916,   97
   379.4,0.003634,0.002058, 21,0.031040,-0.000040,  25.922,   95
   379.6,0.003617,0.002045, 21,0.030938,-0.000017,  25.918,   94
   379.8,0.003603,0.002042, 21,0.030815,-0.000040,  25.921,   96
   380.0,0.003584,0.002034, 21,0.030659,-0.000053,  25.920,   97
   380.2,0.003574,0.002018, 21,0.030489,-0.000017,  25.916,   87
   380.4,0.003563,0.002015, 21,0.030304,-0.000017,  25.920,   76
   380.6,0.003549,0.002005, 21,0.030182,-0.000017,  25.921,   86
   380.8,0.003535,0.001994, 21,0.030081,-0.000004,  25.921,   96
   381.0,0.003524,0.001994, 21,0.029994,-0.000017,  25.917,   96
   381.2,0.003507,0.001986, 21,0.029880,-0.000053,  25.918,   97
   381.4,0.003493,0.001977, 21,0.029758,-0.000017,  25.914,   96
   381.6,0.003482,0.001973, 21,0.029629,-0.000017,  25.918,   96
   381.8,0.003465,0.001962, 21,0.029562,-0.000040,  25.919,   96
   382.0,0.003460,0.001953, 21,0.029495,-0.000053,  25.919,   95
   382.2,0.003452,0.001952, 21,0.029462,-0.000017,  25.916,   96
   382.4,0.003434,0.001945, 21,0.029423,-0.000040,  25.918,   97
   382.6,0.003427,0.001936, 21,0.029328,-0.000053,  25.915,   98
   382.8,0.003416,0.001930, 21,0.029194,-0.000017,  25.913,   99
   383.0,0.003399,0.001924, 21,0.029071,-0.000040,  25.916,   98
   383.2,0.003392,0.001913, 21,0.028956,-0.000053,  25.917,   97
   383.4,0.003371,0.001910, 21,0.028821,-0.000017,  25.915,   96
   383.6,0.003358,0.001902, 21,0.028680,-0.000040,  25.916,   96
   383.8,0.003344,0.001891, 21,0.028599,-0.000053,  25.915,   96
   384.0,0.003326,0.001890, 21,0.028533,-0.000017,  25.917,   96
   384.2,0.003322,0.001879, 21,0.028493,-0.000040,  25.917,   96
   384.4,0.003311,0.001873, 21,0.028427,-0.000053,  25.917,   96
   384.6,0.003296,0.001867, 21,0.028347,-0.000017,  25.920,   96
   384.8,0.003289,0.001863, 21,0.028287,-0.000053,  25.921,   95
   385.0,0.003273,0.001862, 21,0.028199,-0.000066,  25.918,   96
   385.2,0.003255,0.001856, 21,0.028077,-0.000056,  25.920,   96
   385.4,0.003251,0.001848, 21,0.027934,-0.000079,  25.923,   91
   385.6,0.003237,0.001837, 21,0.027813,-0.000079,  25.921,   85
   385.8,0.003222,0.001826, 21,0.027700,-0.000043,  25.923,   90
   386.0,0.003218,0.001825, 21,0.027592,-0.000066,  25.928,   95
   386.2,0.003209,0.001816, 21,0.027479,-0.000079,  25.927,   97
   386.4,0.003195,0.001810, 21,0.027378,-0.000043,  25.929,   99
   386.6,0.003190,0.001808, 21,0.027298,-0.000066,  25.931,   97
   386.8,0.003177,0.001808, 21,0.027177,-0.000079,  25.926,   94
   387.0,0.003159,0.001799, 21,0.027049,-0.000043,  25.931,   96
   387.2,0.003157,0.001796, 21,0.026934,-0.000066,  25.926,   99
   387.4,0.003146,0.001795, 21,0.026860,-0.000043,  25.930,   95
   387.6,0.003129,0.001786, 21,0.026781,-0.000007,  25.925,   91
   387.8,0.003127,0.001782, 21,0.026715,-0.000030,  25.929,   93
   388.0,0.003122,0.001783, 21,0.026628,-0.000007,  25.938,   96
   388.2,0.003116,0.001774, 21,0.026547,-0.000007,  25.937,   97
   388.4,0.003111,0.001768, 21,0.026419,-0.000030,  25.935,   98
   388.6,0.003105,0.001768, 21,0.026353,0.000006,  25.936,   97
   388.8,0.003100,0.001759, 21,0.026293,0.000006,  25.938,   96
   389.0,0.003092,0.001755, 21,0.026254,-0.000017,  25.936,   97
   389.2,0.003083,0.001754, 21,0.026194,0.000019,  25.933,   98
   389.4,0.003070,0.001745, 21,0.026114,0.000006,  25.933,   97
   389.6,0.003055,0.001743, 21,0.026026,-0.000017,  25.939,   96
   389.8,0.003053,0.001739, 21,0.025966,0.000019,  25.936,   96
   390.0,0.003045,0.001730, 21,0.025885,0.000006,  25.939,   96
   390.2,0.003037,0.001724, 21,0.025792,-0.000007,  25.934,   95
   390.4,0.003020,0.001723, 21,0.025703,-0.000020,  25.934,   95
   390.6,0.003008,0.001708, 21,0.025581,-0.000069,  25.933,   96
   390.8,0.002994,0.001695, 21,0.025432,-0.000046,  25.937,   96
   391.0,0.002976,0.001683, 21,0.025367,-0.000082,  25.936,   86
   391.2,0.002967,0.001675, 21,0.025334,-0.000069,  25.932,   76
   391.4,0.002952,0.001672, 21,0.025322,-0.000020,  25.935,   85
   391.6,0.002946,0.001674, 21,0.025269,-0.000043,  25.936,   95
   391.8,0.002944,0.001669, 21,0.025237,-0.000007,  25.933,   95
   392.0,0.002934,0.001669, 21,0.025156,-0.000007,  25.929,   96
   392.2,0.002935,0.001665, 21,0.025090,-0.000030,  25.930,   97
   392.4,0.002930,0.001665, 21,0.024814,0.000006,  25.925,   98
   392.6,0.002921,0.001667, 21,0.024470,0.000006,  25.932,   97
   392.8,0.002924,0.001665, 21,0.024044,-0.000017,  25.925,   95
   393.0,0.002916,0.001658, 21,0.023931,0.000019,  25.930,   95
   393.2,0.002904,0.001658, 21,0.023911,0.000019,  25.927,   96
   393.4,0.002902,0.001656, 21,0.024012,-0.000004,  25.932,   97
   393.6,0.002894,0.001650, 21,0.024013,0.000019,  25.929,   97
   393.8,0.002882,0.001646, 21,0.023994,0.000019,  25.932,   96
   394.0,0.002878,0.001646, 21,0.023995,-0.000004,  25.929,   95
   394.2,0.002867,0.001639, 21,0.023983,0.000019,  25.928,   95
   394.4,0.002855,0.001635, 21,0.023944,0.000019,  25.928,   96
   394.6,0.002850,0.001633, 21,0.023885,-0.000004,  25.928,   96
   394.8,0.002839,0.001629, 21,0.023833,0.000032,  25.926,   96
   395.0,0.002825,0.001627, 21,0.023786,0.000032,  25.931,   96
   395.2,0.002823,0.001625, 21,0.023712,0.000009,  25.926,   96
   395.4,0.002812,0.001621, 21,0.023639,0.000045,  25.925,   95
   395.6,0.002789,0.001610, 21,0.023566,0.000032,  25.929,   95
   395.8,0.002776,0.001604, 21,0.023505,0.000009,  25.929,   95
   396.0,0.002752,0.001597, 21,0.023439,0.000019,  25.927,   95
   396.2,0.002731,0.001584, 21,0.023392,-0.000007,  25.925,   92
   396.4,0.002730,0.001578, 21,0.023338,-0.000030,  25.926,   89
   396.6,0.002727,0.001575, 21,0.023271,0.000006,  25.925,   90
   396.8,0.002715,0.001568, 21,0.023178,0.000006,  25.926,   91
   397.0,0.002719,0.001561, 21,0.023065,-0.000017,  25.927,   94
   397.2,0.002713,0.001556, 21,0.023026,0.000019,  25.930,   96
   397.4,0.002701,0.001542, 21,0.023014,0.000006,  25.927,   96
   397.6,0.002700,0.001540, 21,0.023029,-0.000017,  25.924,   95
   397.8,0.002686,0.001534, 21,0.022916,0.000006,  25.923,   95
   398.0,0.002678,0.001528, 21,0.022768,0.000029,  25.922,   96
   398.2,0.002672,0.001524, 21,0.022566,0.000006,  25.923,   95
   398.4,0.002667,0.001525, 21,0.022487,0.000006,  25.927,   95
   398.6,0.002664,0.001519, 21,0.022421,0.000006,  25.925,   95
   398.8,0.002659,0.001515, 21,0.022402,-0.000017,  25.920,   96
   399.0,0.002648,0.001506, 21,0.022356,-0.000017,  25.922,   96
   399.2,0.002637,0.001497, 21,0.022297,-0.000017,  25.921,   97
   399.4,0.002622,0.001495, 21,0.022231,-0.000040,  25.923,   96
   399.6,0.002614,0.001493, 21,0.022171,-0.000053,  25.921,   96
   399.8,0.002606,0.001486, 21,0.022092,-0.000017,  25.925,   96
   400.0,0.002591,0.001482, 21,0.021999,-0.000017,  25.921,   97
   400.2,0.002582,0.001480, 21,0.021933,-0.000017,  25.925,   97
   400.4,0.002581,0.001476, 21,0.021853,-0.000004,  25.923,   96
   400.6,0.002566,0.001470, 21,0.021787,-0.000017,  25.928,   97
   400.8,0.002564,0.001464, 21,0.021728,-0.000053,  25.923,   97
   401.0,0.002563,0.001457, 21,0.021668,-0.000017,  25.925,   96
   401.2,0.002545,0.001450, 21,0.021609,-0.000017,  25.921,   94
   401.4,0.002538,0.001434, 21,0.021369,-0.000040,  25.924,   95
   401.6,0.002525,0.001423, 21,0.021041,-0.000053,  25.923,   96
   401.8,0.002510,0.001424, 21,0.020613,-0.000017,  25.922,   87
   402.0,0.002508,0.001426, 21,0.020092,-0.000040,  25.923,   79
   402.2,0.002503,0.001421, 21,0.020074,-0.000053,  25.926,   89
   402.4,0.002493,0.001424, 21,0.020195,-0.000017,  25.928,   99
   402.6,0.002492,0.001422, 21,0.020476,-0.000040,  25.924,   97
   402.8,0.002483,0.001415, 21,0.020530,-0.000053,  25.924,   96
   403.0,0.002471,0.001418, 21,0.020544,-0.000017,  25.925,   96
   403.2,0.002473,0.001413, 21,0.020511,-0.000040,  25.926,   96
   403.4,0.002464,0.001409, 21,0.020511,-0.000053,  25.928,   95
   403.6,0.002452,0.001410, 21,0.020499,-0.000017,  25.928,   94
   403.8,0.002451,0.001411, 21,0.020472,-0.000040,  25.926,   95
   404.0,0.002445,0.001407, 21,0.020160,-0.000040,  25.927,   95
   404.2,0.002440,0.001402, 21,0.019713,-0.000004,  25.928,   97
   404.4,0.002434,0.001400, 21,0.019121,-0.000027,  25.928,   99
   404.6,0.002438,0.001397, 21,0.019075,-0.000027,  25.922,   98
   404.8,0.002433,0.001390, 21,0.019229,-0.000004,  25.926,   97
   405.0,0.002418,0.001391, 21,0.019609,-0.000027,  25.925,   96
   405.2,0.002416,0.001393, 21,0.019710,-0.000027,  25.927,   96
   405.4,0.002411,0.001393, 21,0.019804,-0.000004,  25.929,   96
   405.6,0.002399,0.001389, 21,0.019858,-0.000027,  25.929,   96
   405.8,0.002397,0.001393, 21,0.019892,-0.000027,  25.928,   95
   406.0,0.002392,0.001387, 21,0.019892,0.000009,  25.924,   95
   406.2,0.002379,0.001384, 21,0.019846,-0.000027,  25.927,   95
   406.4,0.002381,0.001380, 21,0.019626,-0.000027,  25.928,   96
   406.6,0.002375,0.001376, 21,0.019293,0.000009,  25.930,   96
   406.8,0.002367,0.001373, 21,0.018848,-0.000027,  25.926,   96
   407.0,0.002363,0.001369, 21,0.018815,-0.000027,  25.924,   92
   407.2,0.002357,0.001362, 21,0.018909,0.000009,  25.927,   89
   407.4,0.002349,0.001363, 21,0.019169,-0.000027,  25.926,   91
   407.6,0.002347,0.001360, 21,0.019223,-0.000027,  25.927,   93
   407.8,0.002346,0.001358, 21,0.019237,0.000009,  25.930,   94
   408.0,0.002336,0.001354, 21,0.019211,-0.000027,  25.924,   96
   408.2,0.002338,0.001354, 21,0.019258,-0.000027,  25.923,   96
   408.4,0.002332,0.001352, 21,0.019306,0.000009,  25.926,   96
   408.6,0.002323,0.001347, 21,0.019360,-0.000027,  25.924,   97
   408.8,0.002320,0.001348, 21,0.019361,-0.000027,  25.924,   97
   409.0,0.002313,0.001347, 21,0.019348,0.000009,  25.924,   96
   409.2,0.002307,0.001345, 21,0.019322,-0.000027,  25.925,   95
   409.4,0.002304,0.001346, 21,0.019296,-0.000027,  25.920,   96
   409.6,0.002292,0.001345, 21,0.019277,0.000009,  25.924,   97
   409.8,0.002283,0.001345, 21,0.019271,0.000009,  25.922,   97
   410.0,0.002286,0.001338, 21,0.019231,0.000022,  25.925,   98
   410.2,0.002281,0.001336, 21,0.019145,0.000022,  25.925,   96
   410.4,0.002272,0.001335, 21,0.019052,0.000009,  25.931,   95
   410.6,0.002263,0.001331, 21,0.019013,-0.000027,  25.924,   96
   410.8,0.002255,0.001325, 21,0.018967,0.000009,  25.928,   97
   411.0,0.002243,0.001320, 21,0.018935,0.000009,  25.930,   97
   411.2,0.002238,0.001312, 21,0.018915,-0.000027,  25.932,   96
   411.4,0.002233,0.001303, 21,0.018889,-0.000027,  25.931,   95
   411.6,0.002218,0.001298, 21,0.018889,0.000009,  25.931,   95
   411.8,0.002213,0.001290, 21,0.018883,-0.000027,  25.931,   94
   412.0,0.002211,0.001281, 21,0.018838,-0.000027,  25.933,   94
   412.2,0.002194,0.001277, 21,0.018778,0.000009,  25.938,   96
   412.4,0.002183,0.001280, 21,0.018698,-0.000027,  25.936,   99
   412.6,0.002176,0.001278, 21,0.018632,-0.000027,  25.938,   83
   412.8,0.002164,0.001270, 21,0.018580,0.000009,  25.941,   68
   413.0,0.002162,0.001260, 21,0.018520,-0.000027,  25.941,   82
   413.2,0.002163,0.001261, 21,0.018488,-0.000027,  25.939,   96
   413.4,0.002151,0.001258, 21,0.018468,0.000009,  25.941,   95
   413.6,0.002149,0.001252, 21,0.018449,-0.000014,  25.938,   94
   413.8,0.002140,0.001250, 21,0.018390,-0.000014,  25.941,   95
   414.0,0.002128,0.001247, 21,0.018324,0.000022,  25.940,   95
   414.2,0.002129,0.001247, 21,0.018252,-0.000001,  25.936,   95
   414.4,0.002131,0.001248, 21,0.018199,-0.000001,  25.943,   95
   414.6,0.002121,0.001245, 21,0.018120,0.000022,  25.949,   95
   414.8,0.002120,0.001245, 21,0.018054,-0.000014,  25.942,   95
   415.0,0.002114,0.001241, 21,0.017816,-0.000014,  25.947,   96
   415.2,0.002102,0.001236, 21,0.017472,0.000022,  25.944,   97
   415.4,0.002106,0.001234, 21,0.017067,-0.000014,  25.949,   97
   415.6,0.002098,0.001232, 21,0.017028,-0.000014,  25.945,   98
   415.8,0.002086,0.001230, 21,0.017089,0.000022,  25.946,   97
   416.0,0.002077,0.001226, 21,0.017308,-0.000014,  25.945,   96
   416.2,0.002069,0.001220, 21,0.017322,-0.000014,  25.947,   96
   416.4,0.002057,0.001216, 21,0.017282,0.000022,  25.946,   97
   416.6,0.002049,0.001212, 21,0.017210,-0.000027,  25.946,   96
   416.8,0.002047,0.001208, 21,0.017177,-0.000027,  25.948,   95
   417.0,0.002035,0.001206, 21,0.017138,0.000009,  25.944,   96
   417.2,0.002027,0.001199, 21,0.017105,-0.000040,  25.951,   96
   417.4,0.002023,0.001190, 21,0.017125,-0.000053,  25.950,   96
   417.6,0.002017,0.001188, 21,0.017146,-0.000017,  25.950,   96
   417.8,0.002009,0.001185, 21,0.017179,-0.000040,  25.948,   92
   418.0,0.001997,0.001175, 21,0.017180,-0.000040,  25.950,   89
   418.2,0.001998,0.001176, 21,0.017134,-0.000004,  25.950,   92
   418.4,0.001993,0.001170, 21,0.017063,-0.000027,  25.953,   95
   418.6,0.001984,0.001161, 21,0.016977,-0.000027,  25.952,   95
   418.8,0.001976,0.001155, 21,0.016859,-0.000004,  25.948,   96
   419.0,0.001964,0.001149, 21,0.016719,-0.000027,  25.949,   96
   419.2,0.001953,0.001141, 21,0.016654,-0.000027,  25.949,   95
   419.4,0.001949,0.001130, 21,0.016595,-0.000004,  25.950,   96
   419.6,0.001937,0.001124, 21,0.016589,-0.000004,  25.953,   97
   419.8,0.001935,0.001122, 21,0.016418,0.000009,  25.953,   96
   420.0,0.001934,0.001115, 21,0.016175,-0.000004,  25.957,   95
   420.2,0.001922,0.001109, 21,0.015865,-0.000004,  25.951,   96
   420.4,0.001920,0.001105, 21,0.015780,-0.000040,  25.953,   96
   420.6,0.001912,0.001101, 21,0.015748,-0.000004,  25.955,   97
   420.8,0.001906,0.001099, 21,0.015774,-0.000004,  25.954,   98
   421.0,0.001895,0.001093, 21,0.015775,-0.000027,  25.951,   97
   421.2,0.001891,0.001086, 21,0.015789,-0.000027,  25.952,   96
   421.4,0.001886,0.001078, 21,0.015796,-0.000004,  25.957,   96
   421.6,0.001871,0.001068, 21,0.015817,-0.000027,  25.949,   97
   421.8,0.001872,0.001062, 21,0.015778,-0.000027,  25.955,   97
   422.0,0.001864,0.001060, 21,0.015732,-0.000004,  25.952,   96
   422.2,0.001849,0.001055, 21,0.015667,-0.000027,  25.951,   98
   422.4,0.001847,0.001051, 21,0.015628,-0.000027,  25.955,  100
   422.6,0.001839,0.001047, 21,0.015609,-0.000004,  25.954,   97
   422.8,0.001819,0.001043, 21,0.015583,-0.000027,  25.956,   95
   423.0,0.001812,0.001039, 21,0.015564,-0.000027,  25.953,   96
   423.2,0.001806,0.001036, 21,0.015525,-0.000004,  25.953,   97
   423.4,0.001794,0.001032, 21,0.015486,-0.000027,  25.957,   93
   423.6,0.001798,0.001030, 21,0.015474,-0.000027,  25.956,   90
   423.8,0.001793,0.001030, 21,0.015435,-0.000004,  25.954,   93
   424.0,0.001790,0.001024, 21,0.015423,-0.000027,  25.955,   96
   424.2,0.001791,0.001029, 21,0.015364,-0.000027,  25.951,   96
   424.4,0.001788,0.001024, 21,0.015252,-0.000004,  25.952,   96
   424.6,0.001786,0.001022, 21,0.015121,-0.000027,  25.956,   96
   424.8,0.001780,0.001018, 21,0.015062,-0.000027,  25.956,   96
   425.0,0.001777,0.001016, 21,0.015003,-0.000004,  25.956,   96
   425.2,0.001775,0.001012, 21,0.014957,-0.000027,  25.957,   96
   425.4,0.001772,0.001016, 21,0.014865,-0.000027,  25.955,   96
   425.6,0.001772,0.001013, 21,0.014753,-0.000004,  25.957,   95
   425.8,0.001767,0.001013, 21,0.014608,-0.000027,  25.958,   96
   426.0,0.001758,0.001009, 21,0.014576,-0.000027,  25.958,   97
   426.2,0.001756,0.001007, 21,0.014584,-0.000004,  25.957,   98
   426.4,0.001753,0.001007, 21,0.014631,-0.000027,  25.957,   98
   426.6,0.001747,0.001007, 21,0.014611,-0.000027,  25.956,   97
   426.8,0.001742,0.001005, 21,0.014585,-0.000004,  25.954,   97
   427.0,0.001730,0.001001, 21,0.014526,-0.000027,  25.956,   97
   427.2,0.001724,0.000997, 21,0.014480,-0.000027,  25.953,   97
   427.4,0.001719,0.000993, 21,0.014421,-0.000004,  25.956,   96
   427.6,0.001710,0.000987, 21,0.014337,-0.000027,  25.958,   95
   427.8,0.001711,0.000980, 21,0.014297,-0.000027,  25.957,   95
   428.0,0.001708,0.000978, 21,0.014258,-0.000004,  25.955,   95
   428.2,0.001694,0.000972, 21,0.014213,-0.000040,  25.954,   95
   428.4,0.001675,0.000967, 21,0.014214,-0.000053,  25.954,   96
   428.6,0.001656,0.000965, 21,0.014227,-0.000056,  25.956,   93
   428.8,0.001648,0.000960, 21,0.014260,-0.000079,  25.953,   91
   429.0,0.001639,0.000954, 21,0.014215,-0.000079,  25.954,   89
   429.2,0.001645,0.000950, 21,0.014156,-0.000043,  25.956,   87
   429.4,0.001645,0.000947, 21,0.014057,-0.000043,  25.953,   91
   429.6,0.001640,0.000946, 21,0.013999,-0.000030,  25.955,   95
   429.8,0.001646,0.000943, 21,0.013927,-0.000030,  25.951,   95
   430.0,0.001646,0.000941, 21,0.013855,-0.000030,  25.954,   96
   430.2,0.001646,0.000946, 21,0.013796,-0.000066,  25.951,   96
   430.4,0.001644,0.000946, 21,0.013717,-0.000030,  25.947,   97
   430.6,0.001641,0.000942, 21,0.013646,-0.000017,  25.953,   96
   430.8,0.001638,0.000947, 21,0.013613,-0.000040,  25.950,   95
   431.0,0.001633,0.000943, 21,0.013594,-0.000053,  25.952,   96
   431.2,0.001627,0.000943, 21,0.013601,-0.000017,  25.950,   97
   431.4,0.001624,0.000943, 21,0.013615,-0.000040,  25.950,   97
   431.6,0.001619,0.000936, 21,0.013570,-0.000053,  25.950,   98
   431.8,0.001616,0.000939, 21,0.013511,-0.000017,  25.951,   96
   432.0,0.001614,0.000936, 21,0.013426,-0.000040,  25.951,   95
   432.2,0.001615,0.000930, 21,0.013341,-0.000053,  25.951,   98
   432.4,0.001612,0.000934, 21,0.013230,-0.000017,  25.949,  101
   432.6,0.001603,0.000936, 21,0.013105,-0.000040,  25.953,   99
   432.8,0.001609,0.000932, 21,0.013086,-0.000040,  25.951,   97
   433.0,0.001609,0.000932, 21,0.013087,-0.000004,  25.948,   97
   433.2,0.001597,0.000932, 21,0.013127,-0.000027,  25.949,   97
   433.4,0.001592,0.000928, 21,0.013095,-0.000027,  25.952,   95
   433.6,0.001589,0.000923, 21,0.013029,-0.000004,  25.953,   93
   433.8,0.001583,0.000913, 21,0.012950,-0.000027,  25.947,   94
   434.0,0.001575,0.000903, 21,0.012911,-0.000040,  25.949,   96
   434.2,0.001573,0.000901, 21,0.012885,-0.000017,  25.950,   83
   434.4,0.001570,0.000898, 21,0.012878,-0.000040,  25.951,   69
   434.6,0.001564,0.000897, 21,0.012728,-0.000004,  25.954,   83
   434.8,0.001562,0.000892, 21,0.012480,0.000032,  25.957,   96
   435.0,0.001562,0.000895, 21,0.012154,0.000009,  25.953,   95
   435.2,0.001556,0.000899, 21,0.012121,0.000045,  25.951,   94
   435.4,0.001556,0.000899, 21,0.012180,0.000032,  25.953,   95
   435.6,0.001553,0.000899, 21,0.012305,0.000009,  25.953,   96
   435.8,0.001553,0.000906, 21,0.012136,0.000009,  25.949,   97
   436.0,0.001553,0.000903, 21,0.011836,0.000009,  25.951,   98
   436.2,0.001548,0.000898, 21,0.011425,-0.000027,  25.946,   97
   436.4,0.001543,0.000897, 21,0.011458,-0.000027,  25.948,   96
   436.6,0.001540,0.000897, 21,0.011635,0.000009,  25.947,   95
   436.8,0.001537,0.000901, 21,0.011987,-0.000027,  25.946,   95
   437.0,0.001534,0.000903, 21,0.012086,-0.000027,  25.949,   96
   437.2,0.001532,0.000898, 21,0.012125,0.000009,  25.942,   97
   437.4,0.001529,0.000898, 21,0.012112,-0.000027,  25.946,   97
   437.6,0.001529,0.000892, 21,0.012152,-0.000027,  25.944,   96
   437.8,0.001526,0.000887, 21,0.012204,0.000009,  25.940,   96
   438.0,0.001526,0.000882, 21,0.012257,-0.000027,  25.940,   96
   438.2,0.001521,0.000887, 21,0.012107,-0.000027,  25.943,   96
   438.4,0.001515,0.000887, 21,0.011840,0.000009,  25.941,   96
   438.6,0.001512,0.000878, 21,0.011494,-0.000027,  25.939,   96
   438.8,0.001503,0.000877, 21,0.011475,-0.000027,  25.943,   95
   439.0,0.001498,0.000868, 21,0.011573,0.000009,  25.938,   96
   439.2,0.001492,0.000851, 21,0.011788,0.000009,  25.938,   97
   439.4,0.001472,0.000839, 21,0.011808,0.000022,  25.938,   94
   439.6,0.001468,0.000833, 21,0.011782,0.000009,  25.932,   92
   439.8,0.001462,0.000826, 21,0.011736,-0.000004,  25.940,   91
   440.0,0.001447,0.000831, 21,0.011743,-0.000040,  25.935,   90
   440.2,0.001446,0.000834, 21,0.011743,-0.000004,  25.939,   93
   440.4,0.001443,0.000830, 21,0.011770,-0.000004,  25.939,   96
   440.6,0.001436,0.000833, 21,0.011796,-0.000027,  25.940,   96
   440.8,0.001440,0.000833, 21,0.011822,-0.000027,  25.938,   96
   441.0,0.001438,0.000835, 21,0.011843,-0.000004,  25.940,   97
   441.2,0.001428,0.000833, 21,0.011876,-0.000027,  25.936,   97
   441.4,0.001429,0.000824, 21,0.011863,-0.000027,  25.937,   96
   441.6,0.001427,0.000826, 21,0.011850,-0.000004,  25.933,   94
   441.8,0.001417,0.000826, 21,0.011818,-0.000027,  25.932,   95
   442.0,0.001421,0.000821, 21,0.011752,-0.000027,  25.932,   96
   442.2,0.001421,0.000823, 21,0.011648,-0.000004,  25.935,   98
   442.4,0.001412,0.000828, 21,0.011518,-0.000027,  25.937,  101
   442.6,0.001410,0.000831, 21,0.011427,-0.000027,  25.935,   97
   442.8,0.001410,0.000828, 21,0.011349,-0.000004,  25.932,   94
   443.0,0.001404,0.000824, 21,0.011271,-0.000027,  25.934,   96
   443.2,0.001408,0.000820, 21,0.011271,-0.000027,  25.932,   98
   443.4,0.001405,0.000818, 21,0.011291,0.000009,  25.932,   97
   443.6,0.001395,0.000819, 21,0.011351,-0.000027,  25.932,   96
   443.8,0.001397,0.000822, 21,0.011371,-0.000027,  25.931,   96
   444.0,0.001394,0.000822, 21,0.011384,0.000009,  25.933,   96
   444.2,0.001384,0.000819, 21,0.011391,-0.000027,  25.931,   95
   444.4,0.001388,0.000816, 21,0.011365,-0.000027,  25.930,   94
   444.6,0.001386,0.000814, 21,0.011320,-0.000004,  25.932,   95
   444.8,0.001374,0.000810, 21,0.011261,-0.000027,  25.930,   96
   445.0,0.001375,0.000809, 21,0.011215,-0.000027,  25.930,   92
   445.2,0.001372,0.000802, 21,0.011150,0.000009,  25.931,   89
   445.4,0.001363,0.000802, 21,0.011066,-0.000027,  25.928,   92
   445.6,0.001367,0.000801, 21,0.010773,-0.000027,  25.932,   95
   445.8,0.001360,0.000794, 21,0.010377,0.000009,  25.927,   95
   446.0,0.001357,0.000797, 21,0.009857,-0.000027,  25.928,   94
   446.2,0.001352,0.000791, 21,0.009806,-0.000027,  25.930,   95
   446.4,0.001342,0.000788, 21,0.009955,0.000009,  25.928,   96
   446.6,0.001340,0.000792, 21,0.010254,-0.000027,  25.927,   96
   446.8,0.001337,0.000791, 21,0.010365,-0.000027,  25.919,   96
   447.0,0.001334,0.000791, 21,0.010462,-0.000004,  25.917,   95
   447.2,0.001331,0.000791, 21,0.010541,-0.000027,  25.920,   94
   447.4,0.001322,0.000787, 21,0.010600,-0.000027,  25.922,   94
   447.6,0.001326,0.000785, 21,0.010639,-0.000004,  25.920,   94
   447.8,0.001323,0.000783, 21,0.010646,-0.000027,  25.919,   95
   448.0,0.001327,0.000781, 21,0.010672,-0.000027,  25.921,   95
   448.2,0.001328,0.000781, 21,0.010672,-0.000004,  25.915,   96
   448.4,0.001326,0.000779, 21,0.010666,-0.000027,  25.917,   96
   448.6,0.001323,0.000773, 21,0.010621,-0.000027,  25.918,   96
   448.8,0.001324,0.000771, 21,0.010543,0.000009,  25.920,   96
   449.0,0.001321,0.000769, 21,0.010438,0.000009,  25.912,   95
   449.2,0.001319,0.000767, 21,0.010394,0.000022,  25.918,   95
   449.4,0.001313,0.000759, 21,0.010387,0.000022,  25.916,   95
   449.6,0.001305,0.000761, 21,0.010420,0.000009,  25.917,   95
   449.8,0.001297,0.000766, 21,0.010420,-0.000027,  25.913,   95
   450.0,0.001289,0.000760, 21,0.010400,-0.000004,  25.912,   95
   450.2,0.001283,0.000751, 21,0.010381,-0.000030,  25.912,   94
   450.4,0.001275,0.000747, 21,0.010374,-0.000053,  25.910,   93
   450.6,0.001267,0.000747, 21,0.010362,-0.000053,  25.914,   93
   450.8,0.001264,0.000743, 21,0.010356,-0.000030,  25.915,   92
   451.0,0.001261,0.000740, 21,0.010343,-0.000053,  25.913,   93
   451.2,0.001259,0.000739, 21,0.010311,-0.000053,  25.914,   94
   451.4,0.001259,0.000739, 21,0.010272,-0.000017,  25.912,   95
   451.6,0.001253,0.000734, 21,0.010227,-0.000040,  25.911,   96
   451.8,0.001253,0.000729, 21,0.010046,-0.000040,  25.909,   96
   452.0,0.001256,0.000727, 21,0.009799,-0.000004,  25.911,   96
   452.2,0.001246,0.000721, 21,0.009475,-0.000027,  25.911,   96
   452.4,0.001246,0.000716, 21,0.009410,-0.000027,  25.910,   97
   452.6,0.001246,0.000719, 21,0.009430,0.000009,  25.913,   97
   452.8,0.001240,0.000724, 21,0.009547,-0.000027,  25.910,   96
   453.0,0.001244,0.000724, 21,0.009605,-0.000027,  25.909,   97
   453.2,0.001241,0.000719, 21,0.009645,0.000009,  25.911,   98
   453.4,0.001236,0.000726, 21,0.009716,-0.000027,  25.913,   96
   453.6,0.001231,0.000726, 21,0.009528,-0.000027,  25.910,   94
   453.8,0.001229,0.000723, 21,0.009198,0.000009,  25.914,   95
   454.0,0.001226,0.000721, 21,0.008745,-0.000027,  25.910,   97
   454.2,0.001223,0.000719, 21,0.008745,-0.000027,  25.909,   96
   454.4,0.001220,0.000716, 21,0.008888,-0.000004,  25.915,   95
   454.6,0.001218,0.000709, 21,0.009167,-0.000027,  25.912,   95
   454.8,0.001215,0.000709, 21,0.009257,-0.000027,  25.912,   95
   455.0,0.001207,0.000705, 21,0.009296,-0.000004,  25.914,   95
   455.2,0.001199,0.000701, 21,0.009296,-0.000027,  25.913,   94
   455.4,0.001188,0.000701, 21,0.009355,-0.000040,  25.909,   95
   455.6,0.001188,0.000694, 21,0.009394,-0.000030,  25.913,   95
   455.8,0.001182,0.000692, 21,0.009472,-0.000053,  25.912,   85
   456.0,0.001179,0.000688, 21,0.009524,-0.000053,  25.914,   75
   456.2,0.001182,0.000686, 21,0.009557,-0.000017,  25.912,   85
   456.4,0.001175,0.000691, 21,0.009590,-0.000040,  25.912,   95
   456.6,0.001175,0.000694, 21,0.009603,-0.000040,  25.912,   95
   456.8,0.001175,0.000692, 21,0.009603,-0.000004,  25.911,   94
   457.0,0.001169,0.000694, 21,0.009577,-0.000027,  25.915,   95
   457.2,0.001175,0.000692, 21,0.009571,-0.000027,  25.911,   95
   457.4,0.001173,0.000690, 21,0.009571,-0.000004,  25.913,   96
   457.6,0.001173,0.000689, 21,0.009565,-0.000027,  25.911,   98
   457.8,0.001167,0.000687, 21,0.009409,-0.000027,  25.911,   95
   458.0,0.001165,0.000683, 21,0.009183,-0.000004,  25.911,   93
   458.2,0.001162,0.000681, 21,0.008872,-0.000027,  25.910,   94
   458.4,0.001152,0.000683, 21,0.008840,-0.000027,  25.911,   95
   458.6,0.001154,0.000676, 21,0.008924,-0.000004,  25.912,   96
   458.8,0.001151,0.000679, 21,0.009093,-0.000027,  25.909,   97
   459.0,0.001139,0.000675, 21,0.008976,-0.000027,  25.904,   97
   459.2,0.001143,0.000666, 21,0.008776,-0.000004,  25.907,   97
   459.4,0.001136,0.000669, 21,0.008472,-0.000004,  25.905,   96
   459.6,0.001133,0.000670, 21,0.008453,0.000009,  25.902,   96
   459.8,0.001131,0.000665, 21,0.008524,-0.000004,  25.907,   95
   460.0,0.001121,0.000660, 21,0.008679,-0.000004,  25.905,   95
   460.2,0.001125,0.000660, 21,0.008718,-0.000040,  25.903,   95
   460.4,0.001120,0.000655, 21,0.008725,-0.000017,  25.907,   95
   460.6,0.001102,0.000653, 21,0.008744,0.000019,  25.906,   95
   460.8,0.001090,0.000647, 21,0.008732,-0.000004,  25.904,   94
   461.0,0.001068,0.000640, 21,0.008758,0.000006,  25.900,   94
   461.2,0.001059,0.000638, 21,0.008797,-0.000007,  25.905,   94
   461.4,0.001065,0.000632, 21,0.008868,-0.000030,  25.903,   89
   461.6,0.001071,0.000632, 21,0.008913,0.000006,  25.901,   84
   461.8,0.001069,0.000632, 21,0.008946,0.000006,  25.906,   89
   462.0,0.001079,0.000641, 21,0.008992,-0.000017,  25.905,   95
   462.2,0.001082,0.000643, 21,0.008966,0.000019,  25.905,   97
   462.4,0.001087,0.000648, 21,0.008927,0.000019,  25.904,  100
   462.6,0.001092,0.000648, 21,0.008856,-0.000004,  25.902,   98
   462.8,0.001102,0.000650, 21,0.008695,0.000019,  25.901,   97
   463.0,0.001107,0.000652, 21,0.008507,0.000019,  25.903,   96
   463.2,0.001103,0.000652, 21,0.008261,-0.000004,  25.900,   94
   463.4,0.001113,0.000654, 21,0.008261,0.000019,  25.902,   95
   463.6,0.001115,0.000656, 21,0.008326,0.000019,  25.899,   95
   463.8,0.001112,0.000659, 21,0.008474,-0.000004,  25.901,   97
   464.0,0.001115,0.000654, 21,0.008526,0.000032,  25.899,   98
   464.2,0.001115,0.000650, 21,0.008565,0.000032,  25.895,   97
   464.4,0.001112,0.000657, 21,0.008572,0.000009,  25.897,   96
   464.6,0.001115,0.000660, 21,0.008372,0.000045,  25.900,   97
   464.8,0.001113,0.000657, 21,0.008074,0.000045,  25.901,   98
   465.0,0.001103,0.000659, 21,0.007648,0.000009,  25.900,   97
   465.2,0.001102,0.000659, 21,0.007610,0.000045,  25.896,   96
   465.4,0.001099,0.000654, 21,0.007719,0.000045,  25.896,   96
   465.6,0.001092,0.000654, 21,0.007964,0.000009,  25.896,   96
   465.8,0.001096,0.000655, 21,0.008035,0.000045,  25.896,   95
   466.0,0.001087,0.000646, 21,0.008087,0.000045,  25.896,   94
   466.2,0.001084,0.000639, 21,0.008113,0.000009,  25.892,   95
   466.4,0.001079,0.000633, 21,0.008191,0.000045,  25.896,   97
   466.6,0.001076,0.000624, 21,0.008275,0.000032,  25.892,   85
   466.8,0.001067,0.000627, 21,0.008366,0.000009,  25.893,   74
   467.0,0.001071,0.000632, 21,0.008411,0.000045,  25.893,   85
   467.2,0.001068,0.000630, 21,0.008431,0.000032,  25.898,   96
   467.4,0.001065,0.000632, 21,0.008431,0.000009,  25.901,   95
   467.6,0.001062,0.000639, 21,0.008425,0.000045,  25.896,   95
   467.8,0.001062,0.000634, 21,0.008418,0.000032,  25.894,   94
   468.0,0.001053,0.000634, 21,0.008393,0.000009,  25.894,   93
   468.2,0.001057,0.000630, 21,0.008367,0.000045,  25.893,   95
   468.4,0.001052,0.000623, 21,0.008335,0.000032,  25.889,   97
   468.6,0.001045,0.000621, 21,0.008302,0.000009,  25.892,   96
   468.8,0.001046,0.000621, 21,0.008277,0.000045,  25.895,   96
   469.0,0.001043,0.000618, 21,0.008251,0.000032,  25.894,   96
   469.2,0.001037,0.000614, 21,0.008225,0.000032,  25.896,   96
   469.4,0.001038,0.000617, 21,0.008212,0.000045,  25.896,   96
   469.6,0.001032,0.000610, 21,0.008187,-0.000004,  25.893,   96
   469.8,0.001030,0.000606, 21,0.008148,0.000032,  25.893,   97
   470.0,0.001027,0.000604, 21,0.008135,-0.000004,  25.894,   97
   470.2,0.001028,0.000595, 21,0.008123,-0.000017,  25.892,   96
   470.4,0.001019,0.000597, 21,0.008123,0.000019,  25.893,   96
   470.6,0.001016,0.000598, 21,0.008117,-0.000004,  25.893,   96
   470.8,0.001013,0.000591, 21,0.008143,0.000019,  25.894,   95
   471.0,0.001004,0.000594, 21,0.008175,0.000019,  25.893,   95
   471.2,0.001005,0.000592, 21,0.008214,-0.000004,  25.889,   95
   471.4,0.001000,0.000589, 21,0.008175,0.000019,  25.887,   95
   471.6,0.000990,0.000591, 21,0.008066,0.000019,  25.892,   95
   471.8,0.000991,0.000589, 21,0.007936,-0.000004,  25.885,   96
   472.0,0.000986,0.000584, 21,0.007884,0.000019,  25.891,   96
   472.2,0.000979,0.000580, 21,0.007820,0.000006,  25.885,   96
   472.4,0.000989,0.000575, 21,0.007769,-0.000017,  25.886,   97
   472.6,0.000986,0.000576, 21,0.007724,0.000019,  25.888,   97
   472.8,0.000979,0.000574, 21,0.007711,0.000006,  25.891,   96
   473.0,0.000986,0.000578, 21,0.007685,-0.000017,  25.882,   96
   473.2,0.000983,0.000576, 21,0.007718,0.000019,  25.885,   96
   473.4,0.000974,0.000574, 21,0.007770,0.000006,  25.884,   97
   473.6,0.000978,0.000574, 21,0.007854,-0.000017,  25.885,   97
   473.8,0.000972,0.000571, 21,0.007680,0.000019,  25.884,   95
   474.0,0.000963,0.000571, 21,0.007390,0.000006,  25.885,   94
   474.2,0.000967,0.000569, 21,0.006971,-0.000017,  25.885,   94
   474.4,0.000964,0.000572, 21,0.006978,0.000019,  25.887,   95
   474.6,0.000964,0.000569, 21,0.007133,0.000006,  25.883,   97
   474.8,0.000962,0.000567, 21,0.007410,-0.000017,  25.884,   99
   475.0,0.000965,0.000566, 21,0.007462,0.000019,  25.883,   97
   475.2,0.000965,0.000563, 21,0.007475,0.000006,  25.881,   95
   475.4,0.000959,0.000565, 21,0.007410,-0.000017,  25.879,   97
   475.6,0.000965,0.000564, 21,0.007410,0.000019,  25.878,   99
   475.8,0.000965,0.000562, 21,0.007410,0.000019,  25.875,   98
   476.0,0.000959,0.000570, 21,0.007397,-0.000004,  25.874,   96
   476.2,0.000965,0.000573, 21,0.007404,0.000019,  25.878,   98
   476.4,0.000965,0.000573, 21,0.007423,0.000019,  25.874,   99
   476.6,0.000962,0.000579, 21,0.007443,-0.000004,  25.872,   97
   476.8,0.000963,0.000578, 21,0.007249,0.000006,  25.871,   94
   477.0,0.000963,0.000573, 21,0.006959,-0.000007,  25.872,   95
   477.2,0.000957,0.000574, 21,0.006566,-0.000030,  25.872,   95
   477.4,0.000949,0.000571, 21,0.006566,-0.000007,  25.872,   85
   477.6,0.000945,0.000562, 21,0.006689,-0.000007,  25.864,   75
   477.8,0.000942,0.000558, 21,0.006959,-0.000043,  25.867,   85
   478.0,0.000942,0.000558, 21,0.007024,-0.000007,  25.874,   94
   478.2,0.000942,0.000551, 21,0.007063,0.000016,  25.871,   95
   478.4,0.000945,0.000552, 21,0.007076,-0.000007,  25.870,   95
   478.6,0.000946,0.000551, 21,0.006966,-0.000007,  25.869,   95
   478.8,0.000947,0.000546, 21,0.006767,-0.000007,  25.866,   95
   479.0,0.000950,0.000551, 21,0.006497,-0.000007,  25.861,   96
   479.2,0.000941,0.000549, 21,0.006523,0.000006,  25.861,   97
   479.4,0.000941,0.000542, 21,0.006658,-0.000030,  25.858,   96
   479.6,0.000943,0.000547, 21,0.006883,0.000006,  25.859,   94
   479.8,0.000937,0.000547, 21,0.006987,-0.000030,  25.857,   95
   480.0,0.000937,0.000542, 21,0.007077,-0.000030,  25.861,   96
   480.2,0.000939,0.000551, 21,0.007129,-0.000030,  25.860,   96
   480.4,0.000937,0.000555, 21,0.007174,-0.000053,  25.857,   97
   480.6,0.000934,0.000552, 21,0.007187,-0.000053,  25.859,   97
   480.8,0.000934,0.000557, 21,0.007187,-0.000017,  25.854,   97
   481.0,0.000931,0.000553, 21,0.007148,-0.000040,  25.855,   97
   481.2,0.000926,0.000548, 21,0.007135,-0.000017,  25.853,   96
   481.4,0.000923,0.000548, 21,0.007116,0.000019,  25.854,   96
   481.6,0.000923,0.000548, 21,0.007071,-0.000004,  25.855,   96
   481.8,0.000920,0.000543, 21,0.007058,0.000019,  25.852,   96
   482.0,0.000918,0.000545, 21,0.007065,0.000019,  25.854,   95
   482.2,0.000912,0.000550, 21,0.007065,-0.000017,  25.853,   98
   482.4,0.000909,0.000543, 21,0.007116,0.000006,  25.851,  100
   482.6,0.000909,0.000544, 21,0.007175,-0.000020,  25.851,   99
   482.8,0.000904,0.000540, 21,0.007265,-0.000043,  25.852,   98
   483.0,0.000898,0.000538, 21,0.007265,0.000006,  25.853,   95
   483.2,0.000898,0.000531, 21,0.007226,0.000006,  25.850,   91
   483.4,0.000898,0.000533, 21,0.007149,-0.000017,  25.852,   93
   483.6,0.000898,0.000530, 21,0.007130,0.000019,  25.851,   96
   483.8,0.000896,0.000532, 21,0.007104,0.000006,  25.850,   96
   484.0,0.000889,0.000530, 21,0.007078,-0.000017,  25.847,   96
   484.2,0.000886,0.000525, 21,0.007066,0.000019,  25.849,   97
   484.4,0.000886,0.000527, 21,0.007060,0.000019,  25.842,   97
   484.6,0.000880,0.000528, 21,0.007072,-0.000004,  25.846,   96
   484.8,0.000886,0.000529, 21,0.007060,0.000019,  25.846,   96
   485.0,0.000889,0.000524, 21,0.007008,0.000019,  25.844,   95
   485.2,0.000880,0.000525, 21,0.006963,-0.000004,  25.844,   95
   485.4,0.000881,0.000525, 21,0.006957,0.000019,  25.841,   97
   485.6,0.000881,0.000520, 21,0.006944,0.000019,  25.843,   99
   485.8,0.000874,0.000523, 21,0.006951,-0.000004,  25.840,   97
   486.0,0.000875,0.000525, 21,0.006938,0.000019,  25.838,   95
   486.2,0.000875,0.000520, 21,0.006899,0.000019,  25.839,   97
   486.4,0.000869,0.000525, 21,0.006854,-0.000004,  25.839,   98
   486.6,0.000873,0.000525, 21,0.006835,0.000019,  25.839,   97
   486.8,0.000873,0.000520, 21,0.006803,0.000019,  25.836,   96
   487.0,0.000863,0.000521, 21,0.006758,-0.000004,  25.840,   96
   487.2,0.000867,0.000523, 21,0.006771,0.000019,  25.837,   96
   487.4,0.000865,0.000516, 21,0.006797,0.000019,  25.838,   95
   487.6,0.000859,0.000509, 21,0.006848,-0.000004,  25.835,   94
   487.8,0.000848,0.000507, 21,0.006855,0.000019,  25.837,   95
   488.0,0.000832,0.000498, 21,0.006829,0.000019,  25.837,   95
   488.2,0.000832,0.000501, 21,0.006803,-0.000004,  25.835,   86
   488.4,0.000825,0.000499, 21,0.006739,0.000019,  25.835,   78
   488.6,0.000832,0.000492, 21,0.006643,0.000019,  25.836,   87
   488.8,0.000834,0.000492, 21,0.006507,0.000019,  25.834,   96
   489.0,0.000828,0.000492, 21,0.006469,0.000019,  25.837,   96
   489.2,0.000832,0.000487, 21,0.006449,-0.000004,  25.834,   97
   489.4,0.000834,0.000487, 21,0.006437,0.000019,  25.833,   96
   489.6,0.000828,0.000492, 21,0.006443,-0.000017,  25.835,   95
   489.8,0.000832,0.000485, 21,0.006462,-0.000017,  25.838,   96
   490.0,0.000832,0.000483, 21,0.006469,0.000019,  25.835,   97
   490.2,0.000832,0.000486, 21,0.006463,-0.000004,  25.832,   96
   490.4,0.000833,0.000479, 21,0.006457,0.000019,  25.833,   94
   490.6,0.000833,0.000479, 21,0.006438,0.000019,  25.834,   95
   490.8,0.000833,0.000486, 21,0.006424,-0.000004,  25.838,   95
   491.0,0.000830,0.000481, 21,0.006367,0.000019,  25.835,   96
   491.2,0.000830,0.000484, 21,0.006290,0.000019,  25.833,   97
   491.4,0.000830,0.000485, 21,0.006212,-0.000004,  25.836,   97
   491.6,0.000830,0.000482, 21,0.006180,0.000019,  25.839,   97
   491.8,0.000824,0.000482, 21,0.006148,0.000019,  25.834,   97
   492.0,0.000824,0.000482, 21,0.006136,-0.000004,  25.836,   96
   492.2,0.000817,0.000479, 21,0.006155,0.000019,  25.836,   96
   492.4,0.000810,0.000480, 21,0.006200,0.000019,  25.840,   97
   492.6,0.000817,0.000483, 21,0.006252,-0.000004,  25.834,   96
   492.8,0.000814,0.000481, 21,0.006253,0.000019,  25.836,   96
   493.0,0.000805,0.000474, 21,0.006246,0.000019,  25.837,   96
   493.2,0.000809,0.000470, 21,0.006201,-0.000004,  25.837,   96
   493.4,0.000803,0.000463, 21,0.006195,0.000019,  25.839,   96
   493.6,0.000801,0.000463, 21,0.006214,0.000006,  25.839,   97
   493.8,0.000795,0.000463, 21,0.006234,-0.000017,  25.840,   95
   494.0,0.000799,0.000461, 21,0.006189,0.000019,  25.840,   93
   494.2,0.000799,0.000458, 21,0.006118,0.000006,  25.838,   94
   494.4,0.000792,0.000465, 21,0.005996,-0.000017,  25.839,   95
   494.6,0.000799,0.000466, 21,0.005977,0.000019,  25.839,   95
   494.8,0.000802,0.000465, 21,0.005990,0.000006,  25.843,   96
   495.0,0.000795,0.000472, 21,0.006028,-0.000017,  25.841,   97
   495.2,0.000805,0.000471, 21,0.006035,0.000019,  25.837,   97
   495.4,0.000807,0.000468, 21,0.006041,0.000006,  25.841,   96
   495.6,0.000801,0.000475, 21,0.006028,-0.000017,  25.843,   94
   495.8,0.000807,0.000471, 21,0.006016,0.000019,  25.845,   95
   496.0,0.000807,0.000466, 21,0.006003,0.000006,  25.845,   96
   496.2,0.000801,0.000473, 21,0.005971,-0.000017,  25.847,   98
   496.4,0.000802,0.000476, 21,0.005958,0.000019,  25.845,  101
   496.6,0.000799,0.000471, 21,0.005932,0.000006,  25.845,   98
   496.8,0.000795,0.000474, 21,0.005900,-0.000017,  25.846,   95
   497.0,0.000792,0.000474, 21,0.005907,0.000019,  25.848,   97
   497.2,0.000795,0.000472, 21,0.005939,0.000006,  25.850,   98
   497.4,0.000798,0.000475, 21,0.005971,-0.000017,  25.849,   97
   497.6,0.000792,0.000476, 21,0.005810,0.000019,  25.850,   96
   497.8,0.000790,0.000471, 21,0.005567,0.000006,  25.851,   96
   498.0,0.000780,0.000473, 21,0.005227,-0.000017,  25.848,   96
   498.2,0.000787,0.000470, 21,0.005201,0.000019,  25.851,   96
   498.4,0.000784,0.000468, 21,0.005285,0.000006,  25.854,   96
   498.6,0.000772,0.000463, 21,0.005464,0.000006,  25.856,   96
   498.8,0.000776,0.000458, 21,0.005522,0.000006,  25.855,   96
   499.0,0.000771,0.000453, 21,0.005561,-0.000030,  25.855,   88
   499.2,0.000768,0.000451, 21,0.005599,0.000006,  25.858,   80
   499.4,0.000765,0.000454, 21,0.005612,-0.000030,  25.857,   87
   499.6,0.000766,0.000450, 21,0.005625,-0.000030,  25.858,   95
   499.8,0.000764,0.000454, 21,0.005593,0.000006,  25.863,   96
   500.0,0.000757,0.000461, 21,0.005452,-0.000017,  25.859,   96
   500.2,0.000766,0.000463, 21,0.005253,0.000019,  25.857,   96
   500.4,0.000766,0.000457, 21,0.004984,0.000006,  25.856,   95
   500.6,0.000760,0.000461, 21,0.004671,-0.000017,  25.862,   96
   500.8,0.000764,0.000460, 21,0.004754,0.000019,  25.861,   97
   501.0,0.000769,0.000461, 21,0.004946,0.000006,  25.861,   96
   501.2,0.000762,0.000461, 21,0.005279,-0.000017,  25.859,   94
   501.4,0.000769,0.000458, 21,0.005382,0.000019,  25.859,   95
   501.6,0.000772,0.000463, 21,0.005452,0.000006,  25.866,   96
   501.8,0.000765,0.000463, 21,0.005440,-0.000017,  25.863,   96
   502.0,0.000769,0.000458, 21,0.005465,0.000019,  25.866,   97
   502.2,0.000760,0.000465, 21,0.005478,0.000019,  25.870,   98
   502.4,0.000760,0.000468, 21,0.005472,-0.000004,  25.866,  100
   502.6,0.000760,0.000468, 21,0.005517,0.000019,  25.868,   98
   502.8,0.000753,0.000463, 21,0.005581,0.000019,  25.867,   97
   503.0,0.000760,0.000464, 21,0.005639,-0.000004,  25.863,   96
   503.2,0.000762,0.000462, 21,0.005665,0.000019,  25.865,   95
   503.4,0.000758,0.000459, 21,0.005697,0.000006,  25.865,   95
   503.6,0.000765,0.000461, 21,0.005716,-0.000017,  25.868,   95
   503.8,0.000762,0.000463, 21,0.005710,0.000019,  25.865,   96
   504.0,0.000753,0.000463, 21,0.005690,0.000006,  25.862,   96
   504.2,0.000754,0.000459, 21,0.005671,-0.000017,  25.864,   97
   504.4,0.000749,0.000465, 21,0.005645,0.000019,  25.866,   97
   504.6,0.000739,0.000465, 21,0.005620,0.000006,  25.870,   96
   504.8,0.000746,0.000460, 21,0.005575,-0.000017,  25.862,   95
   505.0,0.000746,0.000465, 21,0.005601,0.000019,  25.864,   95
   505.2,0.000739,0.000465, 21,0.005658,0.000006,  25.867,   95
   505.4,0.000746,0.000460, 21,0.005729,-0.000017,  25.866,   96
   505.6,0.000743,0.000463, 21,0.005556,0.000019,  25.867,   97
   505.8,0.000737,0.000456, 21,0.005274,0.000006,  25.865,   97
   506.0,0.000746,0.000456, 21,0.004877,-0.000017,  25.873,   97
   506.2,0.000746,0.000454, 21,0.004851,0.000019,  25.872,   97
   506.4,0.000746,0.000447, 21,0.004954,0.000019,  25.870,   97
   506.6,0.000749,0.000452, 21,0.005197,-0.000004,  25.864,   96
   506.8,0.000743,0.000452, 21,0.005255,0.000019,  25.871,   95
   507.0,0.000743,0.000449, 21,0.005287,0.000019,  25.865,   97
   507.2,0.000743,0.000449, 21,0.005306,-0.000004,  25.866,   99
   507.4,0.000743,0.000447, 21,0.005338,0.000019,  25.866,   97
   507.6,0.000741,0.000442, 21,0.005345,0.000019,  25.867,   96
   507.8,0.000738,0.000445, 21,0.005358,-0.000004,  25.866,   97
   508.0,0.000738,0.000444, 21,0.005390,0.000019,  25.862,   98
   508.2,0.000739,0.000441, 21,0.005409,0.000019,  25.866,   98
   508.4,0.000732,0.000439, 21,0.005409,-0.000004,  25.863,   97
   508.6,0.000730,0.000438, 21,0.005409,0.000019,  25.863,   97
   508.8,0.000727,0.000439, 21,0.005403,0.000019,  25.863,   97
   509.0,0.000720,0.000435, 21,0.005377,0.000019,  25.863,   97
   509.2,0.000727,0.000435, 21,0.005396,0.000019,  25.861,   96
   509.4,0.000722,0.000432, 21,0.005422,-0.000030,  25.859,   96
   509.6,0.000712,0.000433, 21,0.005473,-0.000007,  25.859,   96
   509.8,0.000716,0.000425, 21,0.005461,-0.000030,  25.856,   88
   510.0,0.000711,0.000419, 21,0.005454,-0.000043,  25.859,   81
   510.2,0.000708,0.000421, 21,0.005397,-0.000007,  25.859,   88
   510.4,0.000705,0.000421, 21,0.005320,-0.000030,  25.860,   96
   510.6,0.000709,0.000417, 21,0.005268,-0.000007,  25.864,   96
   510.8,0.000712,0.000417, 21,0.005198,-0.000007,  25.859,   96
   511.0,0.000705,0.000418, 21,0.005108,-0.000030,  25.859,   95
   511.2,0.000709,0.000411, 21,0.005109,-0.000007,  25.859,   94
   511.4,0.000709,0.000414, 21,0.005160,-0.000007,  25.859,   96
   511.6,0.000702,0.000417, 21,0.005237,-0.000030,  25.862,   98
   511.8,0.000704,0.000414, 21,0.005244,0.000006,  25.860,   96
   512.0,0.000706,0.000413, 21,0.005250,0.000006,  25.861,   94
   512.2,0.000702,0.000417, 21,0.005237,-0.000017,  25.858,   96
   512.4,0.000709,0.000419, 21,0.005077,0.000019,  25.859,   97
   512.6,0.000712,0.000418, 21,0.004808,0.000006,  25.861,   98
   512.8,0.000705,0.000419, 21,0.004469,-0.000017,  25.857,   98
   513.0,0.000709,0.000419, 21,0.004443,0.000006,  25.861,   98
   513.2,0.000712,0.000421, 21,0.004507,-0.000007,  25.858,   97
   513.4,0.000702,0.000423, 21,0.004693,-0.000030,  25.861,   97
   513.6,0.000706,0.000423, 21,0.004763,-0.000007,  25.866,   97
   513.8,0.000709,0.000418, 21,0.004840,-0.000007,  25.862,   96
   514.0,0.000700,0.000421, 21,0.004904,-0.000030,  25.865,   95
   514.2,0.000706,0.000419, 21,0.004969,0.000006,  25.861,   96
   514.4,0.000706,0.000417, 21,0.005039,0.000006,  25.865,   96
   514.6,0.000697,0.000426, 21,0.005077,-0.000030,  25.864,   96
   514.8,0.000698,0.000430, 21,0.005090,-0.000007,  25.865,   96
   515.0,0.000695,0.000425, 21,0.005096,-0.000046,  25.864,   97
   515.2,0.000686,0.000423, 21,0.005057,-0.000082,  25.862,   98
   515.4,0.000685,0.000415, 21,0.005044,-0.000020,  25.864,   86
   515.6,0.000687,0.000412, 21,0.005051,-0.000020,  25.865,   74
   515.8,0.000683,0.000416, 21,0.005032,-0.000043,  25.860,   85
   516.0,0.000695,0.000420, 21,0.005013,0.000006,  25.865,   96
   516.2,0.000698,0.000420, 21,0.005012,0.000006,  25.870,   98
   516.4,0.000692,0.000428, 21,0.004980,-0.000017,  25.866,  100
   516.6,0.000701,0.000431, 21,0.005019,0.000019,  25.860,   98
   516.8,0.000698,0.000428, 21,0.005057,0.000006,  25.863,   96
   517.0,0.000698,0.000430, 21,0.005134,-0.000017,  25.863,   96
   517.2,0.000695,0.000430, 21,0.004929,0.000032,  25.864,   95
   517.4,0.000695,0.000429, 21,0.004584,0.000032,  25.861,   95
   517.6,0.000689,0.000433, 21,0.004111,0.000009,  25.862,   95
   517.8,0.000692,0.000433, 21,0.004118,0.000045,  25.859,   97
   518.0,0.000692,0.000429, 21,0.004277,0.000032,  25.859,   99
   518.2,0.000685,0.000435, 21,0.004603,0.000009,  25.854,   98
   518.4,0.000697,0.000440, 21,0.004712,0.000045,  25.857,   96
   518.6,0.000697,0.000440, 21,0.004795,0.000032,  25.860,   97
   518.8,0.000690,0.000437, 21,0.004834,0.000032,  25.855,   97
   519.0,0.000700,0.000440, 21,0.004879,0.000045,  25.859,   97
   519.2,0.000697,0.000437, 21,0.004898,-0.000004,  25.856,   97
   519.4,0.000690,0.000437, 21,0.004911,0.000032,  25.858,   97
   519.6,0.000697,0.000437, 21,0.004764,-0.000004,  25.858,   97
   519.8,0.000692,0.000430, 21,0.004514,-0.000004,  25.855,   96
   520.0,0.000677,0.000431, 21,0.004182,0.000032,  25.857,   95
   520.2,0.000672,0.000421, 21,0.004156,-0.000004,  25.857,   96
   520.4,0.000656,0.000410, 21,0.004201,0.000019,  25.857,   96
   520.6,0.000651,0.000413, 21,0.004380,-0.000020,  25.856,   89
   520.8,0.000648,0.000406, 21,0.004636,-0.000043,  25.859,   82
   521.0,0.000655,0.000402, 21,0.004713,0.000006,  25.856,   86
   521.2,0.000651,0.000404, 21,0.004789,0.000006,  25.854,   91
   521.4,0.000656,0.000406, 21,0.004853,-0.000017,  25.856,   94
   521.6,0.000659,0.000405, 21,0.004879,0.000019,  25.862,   97
   521.8,0.000664,0.000409, 21,0.004879,0.000019,  25.860,   96
   522.0,0.000670,0.000411, 21,0.004847,-0.000004,  25.856,   94
   522.2,0.000679,0.000410, 21,0.004642,0.000032,  25.856,   98
   522.4,0.000685,0.000415, 21,0.004316,0.000032,  25.860,  101
   522.6,0.000678,0.000417, 21,0.003875,0.000009,  25.861,   98
   522.8,0.000682,0.000419, 21,0.003882,0.000045,  25.861,   95
   523.0,0.000685,0.000414, 21,0.004042,0.000045,  25.858,   96
   523.2,0.000675,0.000419, 21,0.004355,0.000009,  25.861,   97
   523.4,0.000682,0.000417, 21,0.004463,0.000045,  25.857,   97
   523.6,0.000678,0.000419, 21,0.004502,0.000045,  25.861,   98
   523.8,0.000678,0.000417, 21,0.004521,0.000009,  25.858,   98
   524.0,0.000678,0.000417, 21,0.004611,0.000045,  25.860,   98
   524.2,0.000681,0.000414, 21,0.004700,0.000045,  25.861,   97
   524.4,0.000681,0.000419, 21,0.004803,0.000009,  25.862,   97
   524.6,0.000685,0.000424, 21,0.004675,0.000009,  25.861,   97
   524.8,0.000681,0.000421, 21,0.004419,0.000009,  25.861,   96
   525.0,0.000678,0.000426, 21,0.004048,-0.000027,  25.863,   97
   525.2,0.000675,0.000424, 21,0.004048,-0.000027,  25.864,   97
   525.4,0.000675,0.000419, 21,0.004169,0.000009,  25.861,   97
   525.6,0.000672,0.000419, 21,0.004400,-0.000027,  25.866,   96
   525.8,0.000674,0.000413, 21,0.004476,-0.000027,  25.860,   97
   526.0,0.000674,0.000406, 21,0.004508,0.000009,  25.862,   97
   526.2,0.000670,0.000410, 21,0.004515,-0.000027,  25.865,   96
   526.4,0.000674,0.000411, 21,0.004579,-0.000027,  25.865,   94
   526.6,0.000674,0.000408, 21,0.004636,0.000009,  25.865,   95
   526.8,0.000670,0.000408, 21,0.004701,-0.000027,  25.869,   97
   527.0,0.000676,0.000410, 21,0.004739,-0.000027,  25.871,   97
   527.2,0.000676,0.000412, 21,0.004758,0.000009,  25.865,   97
   527.4,0.000676,0.000412, 21,0.004758,-0.000027,  25.866,   97
   527.6,0.000676,0.000413, 21,0.004790,-0.000027,  25.868,   97
   527.8,0.000676,0.000415, 21,0.004810,0.000009,  25.867,   96
   528.0,0.000679,0.000414, 21,0.004841,-0.000027,  25.869,   95
   528.2,0.000672,0.000418, 21,0.004822,-0.000027,  25.865,   96
   528.4,0.000682,0.000423, 21,0.004784,0.000009,  25.866,   97
   528.6,0.000685,0.000426, 21,0.004713,-0.000014,  25.868,   99
   528.8,0.000675,0.000424, 21,0.004496,-0.000014,  25.864,  100
   529.0,0.000682,0.000427, 21,0.004202,0.000022,  25.869,   99
   529.2,0.000682,0.000430, 21,0.003806,0.000035,  25.866,   97
   529.4,0.000675,0.000424, 21,0.003800,0.000035,  25.864,   97
   529.6,0.000679,0.000419, 21,0.003946,0.000035,  25.868,   98
   529.8,0.000679,0.000424, 21,0.004221,0.000022,  25.869,   97
   530.0,0.000672,0.000426, 21,0.004304,-0.000001,  25.868,   97
   530.2,0.000674,0.000423, 21,0.004355,0.000022,  25.871,   97
   530.4,0.000674,0.000425, 21,0.004381,0.000022,  25.871,   97
   530.6,0.000674,0.000427, 21,0.004374,-0.000014,  25.869,   96
   530.8,0.000678,0.000424, 21,0.004298,-0.000014,  25.873,   95
   531.0,0.000675,0.000422, 21,0.004163,0.000022,  25.871,   95
   531.2,0.000675,0.000423, 21,0.003991,-0.000014,  25.873,   95
   531.4,0.000675,0.000415, 21,0.004010,-0.000014,  25.873,   90
   531.6,0.000675,0.000415, 21,0.004106,0.000022,  25.878,   85
   531.8,0.000668,0.000419, 21,0.004272,-0.000014,  25.876,   90
   532.0,0.000671,0.000416, 21,0.004362,-0.000001,  25.875,   95
   532.2,0.000674,0.000416, 21,0.004451,0.000035,  25.877,   97
   532.4,0.000667,0.000424, 21,0.004541,-0.000001,  25.878,   99
   532.6,0.000671,0.000424, 21,0.004579,0.000012,  25.879,   97
   532.8,0.000671,0.000419, 21,0.004611,0.000035,  25.882,   96
   533.0,0.000667,0.000421, 21,0.004624,-0.000001,  25.880,   97
   533.2,0.000674,0.000421, 21,0.004624,0.000012,  25.883,   98
   533.4,0.000674,0.000417, 21,0.004618,0.000035,  25.886,   97
   533.6,0.000670,0.000419, 21,0.004598,-0.000001,  25.890,   95
   533.8,0.000674,0.000419, 21,0.004624,0.000012,  25.885,   96
   534.0,0.000674,0.000424, 21,0.004669,0.000035,  25.888,   96
   534.2,0.000667,0.000424, 21,0.004714,-0.000001,  25.897,   97
   534.4,0.000671,0.000420, 21,0.004720,0.000012,  25.898,   98
   534.6,0.000668,0.000420, 21,0.004707,0.000035,  25.899,   98
   534.8,0.000662,0.000422, 21,0.004669,-0.000001,  25.899,   98
   535.0,0.000665,0.000415, 21,0.004650,0.000012,  25.900,   97
   535.2,0.000663,0.000413, 21,0.004618,0.000035,  25.898,   97
   535.4,0.000653,0.000409, 21,0.004554,-0.000001,  25.905,   97
   535.6,0.000655,0.000408, 21,0.004528,-0.000001,  25.904,   96
   535.8,0.000655,0.000410, 21,0.004522,0.000022,  25.908,   97
   536.0,0.000648,0.000406, 21,0.004496,-0.000027,  25.901,   97
   536.2,0.000652,0.000404, 21,0.004471,-0.000027,  25.905,   97
   536.4,0.000649,0.000395, 21,0.004458,0.000009,  25.911,   98
   536.6,0.000640,0.000396, 21,0.004445,-0.000040,  25.908,   98
   536.8,0.000641,0.000400, 21,0.004470,-0.000040,  25.911,   97
   537.0,0.000636,0.000391, 21,0.004509,0.000009,  25.910,   95
   537.2,0.000633,0.000389, 21,0.004586,-0.000027,  25.914,   94
   537.4,0.000627,0.000389, 21,0.004599,-0.000027,  25.914,   96
   537.6,0.000625,0.000382, 21,0.004541,0.000009,  25.910,   98
   537.8,0.000625,0.000386, 21,0.004471,-0.000027,  25.910,   97
   538.0,0.000621,0.000389, 21,0.004286,-0.000027,  25.909,   97
   538.2,0.000625,0.000384, 21,0.004018,0.000009,  25.907,   97
   538.4,0.000622,0.000384, 21,0.003673,-0.000027,  25.908,   98
   538.6,0.000619,0.000382, 21,0.003628,-0.000027,  25.903,   95
   538.8,0.000620,0.000380, 21,0.003686,0.000009,  25.906,   92
   539.0,0.000620,0.000374, 21,0.003852,0.000009,  25.905,   94
   539.2,0.000615,0.000376, 21,0.003922,0.000022,  25.901,   96
   539.4,0.000615,0.000371, 21,0.004005,0.000022,  25.907,   98
   539.6,0.000618,0.000371, 21,0.004082,0.000009,  25.907,  100
   539.8,0.000615,0.000376, 21,0.004120,-0.000027,  25.905,   99
   540.0,0.000615,0.000373, 21,0.004146,0.000009,  25.908,   97
   540.2,0.000615,0.000376, 21,0.004152,0.000009,  25.908,   97
   540.4,0.000612,0.000376, 21,0.004120,-0.000027,  25.909,   97
   540.6,0.000607,0.000373, 21,0.004127,-0.000027,  25.911,   97
   540.8,0.000607,0.000373, 21,0.004127,0.000009,  25.911,   97
   541.0,0.000607,0.000371, 21,0.004114,-0.000027,  25.913,   96
   541.2,0.000604,0.000369, 21,0.004140,-0.000027,  25.914,   96
   541.4,0.000601,0.000371, 21,0.004191,0.000009,  25.919,   96
   541.6,0.000595,0.000373, 21,0.004236,-0.000027,  25.918,   96
   541.8,0.000592,0.000370, 21,0.004255,-0.000027,  25.917,   96
   542.0,0.000592,0.000370, 21,0.004255,-0.000004,  25.918,   96
   542.2,0.000585,0.000368, 21,0.004249,-0.000027,  25.915,   93
   542.4,0.000592,0.000368, 21,0.004242,-0.000027,  25.919,   90
   542.6,0.000595,0.000365, 21,0.004210,0.000009,  25.917,   93
   542.8,0.000588,0.000367, 21,0.004178,-0.000027,  25.919,   97
   543.0,0.000592,0.000369, 21,0.004185,-0.000027,  25.918,   97
   543.2,0.000595,0.000374, 21,0.004217,0.000009,  25.917,   98
   543.4,0.000588,0.000373, 21,0.004249,-0.000027,  25.915,   97
   543.6,0.000595,0.000369, 21,0.004268,-0.000027,  25.918,   96
   543.8,0.000597,0.000364, 21,0.004268,0.000009,  25.920,   97
   544.0,0.000597,0.000369, 21,0.004249,-0.000027,  25.915,   99
   544.2,0.000604,0.000375, 21,0.004262,-0.000027,  25.917,   97
   544.4,0.000607,0.000369, 21,0.004243,0.000009,  25.921,   95
   544.6,0.000609,0.000369, 21,0.004217,-0.000027,  25.919,   96
   544.8,0.000607,0.000370, 21,0.004211,-0.000027,  25.923,   96
   545.0,0.000607,0.000372, 21,0.004166,0.000009,  25.923,   98
   545.2,0.000609,0.000373, 21,0.004115,-0.000027,  25.929,   99
   545.4,0.000607,0.000376, 21,0.004108,-0.000027,  25.929,   98
   545.6,0.000609,0.000376, 21,0.004096,0.000009,  25.930,   97
   545.8,0.000612,0.000381, 21,0.004083,-0.000027,  25.931,   97
   546.0,0.000615,0.000376, 21,0.004096,-0.000027,  25.931,   97
   546.2,0.000615,0.000373, 21,0.004134,0.000009,  25.934,   97
   546.4,0.000618,0.000380, 21,0.004179,-0.000027,  25.937,   96
   546.6,0.000618,0.000382, 21,0.004205,-0.000027,  25.934,   97
   546.8,0.000618,0.000380, 21,0.004243,0.000009,  25.935,   98
   547.0,0.000615,0.000386, 21,0.004281,-0.000027,  25.938,   97
   547.2,0.000607,0.000392, 21,0.004070,-0.000027,  25.936,   96
   547.4,0.000599,0.000389, 21,0.003732,0.000009,  25.935,   97
   547.6,0.000601,0.000384, 21,0.003266,-0.000027,  25.937,   98
   547.8,0.000601,0.000383, 21,0.003234,-0.000027,  25.936,   95
   548.0,0.000604,0.000382, 21,0.003355,0.000009,  25.939,   91
   548.2,0.000607,0.000382, 21,0.003623,-0.000027,  25.939,   95
   548.4,0.000609,0.000384, 21,0.003693,-0.000027,  25.940,   98
   548.6,0.000609,0.000378, 21,0.003763,0.000009,  25.942,   98
   548.8,0.000612,0.000382, 21,0.003789,0.000009,  25.938,   97
   549.0,0.000615,0.000386, 21,0.003827,0.000022,  25.941,   98
   549.2,0.000618,0.000384, 21,0.003859,0.000022,  25.940,   98
   549.4,0.000620,0.000384, 21,0.003897,0.000009,  25.936,   97
   549.6,0.000620,0.000382, 21,0.003942,-0.000014,  25.937,   95
   549.8,0.000618,0.000386, 21,0.003993,0.000022,  25.940,   95
   550.0,0.000620,0.000383, 21,0.004051,0.000022,  25.935,   95
   550.2,0.000620,0.000382, 21,0.004076,-0.000001,  25.938,   97
   550.4,0.000618,0.000384, 21,0.004096,-0.000001,  25.936,   99
   550.6,0.000620,0.000386, 21,0.004115,0.000022,  25.936,   98
   550.8,0.000620,0.000387, 21,0.004121,-0.000014,  25.937,   97
   551.0,0.000618,0.000387, 21,0.003974,-0.000001,  25.936,   96
   551.2,0.000620,0.000389, 21,0.003744,0.000035,  25.933,   96
   551.4,0.000620,0.000389, 21,0.003445,-0.000001,  25.938,   97
   551.6,0.000620,0.000389, 21,0.003438,0.000012,  25.935,   98
   551.8,0.000623,0.000389, 21,0.003547,0.000035,  25.938,   97
   552.0,0.000620,0.000389, 21,0.003764,-0.000001,  25.936,   96
   552.2,0.000620,0.000385, 21,0.003840,0.000012,  25.935,   96
   552.4,0.000618,0.000381, 21,0.003872,0.000035,  25.938,   97
   552.6,0.000609,0.000378, 21,0.003891,-0.000001,  25.937,   97
   552.8,0.000599,0.000378, 21,0.003942,0.000012,  25.939,   97
   553.0,0.000599,0.000369, 21,0.004006,0.000035,  25.935,   93
   553.2,0.000599,0.000374, 21,0.004070,-0.000001,  25.933,   89
   553.4,0.000599,0.000374, 21,0.004064,-0.000001,  25.937,   92
   553.6,0.000601,0.000370, 21,0.004038,0.000022,  25.933,   95
   553.8,0.000601,0.000375, 21,0.003993,-0.000014,  25.931,   96
   554.0,0.000601,0.000374, 21,0.003993,-0.000014,  25.935,   97
   554.2,0.000601,0.000372, 21,0.004000,0.000022,  25.933,   97
   554.4,0.000595,0.000375, 21,0.003993,-0.000014,  25.936,   97
   554.6,0.000595,0.000371, 21,0.004032,-0.000014,  25.936,   97
   554.8,0.000595,0.000366, 21,0.004096,0.000022,  25.936,   98
   555.0,0.000588,0.000364, 21,0.004179,-0.000014,  25.935,   97
   555.2,0.000592,0.000371, 21,0.003962,-0.000014,  25.935,   95
   555.4,0.000595,0.000368, 21,0.003611,0.000022,  25.935,   95
   555.6,0.000585,0.000364, 21,0.003114,-0.000014,  25.935,   96
   555.8,0.000586,0.000367, 21,0.003108,-0.000014,  25.932,   97
   556.0,0.000586,0.000364, 21,0.003299,0.000022,  25.930,   98
   556.2,0.000577,0.000364, 21,0.003637,-0.000027,  25.929,   98
   556.4,0.000578,0.000364, 21,0.003605,-0.000027,  25.931,   97
   556.6,0.000576,0.000361, 21,0.003458,0.000009,  25.929,   97
   556.8,0.000573,0.000361, 21,0.003210,-0.000040,  25.928,   98
   557.0,0.000570,0.000361, 21,0.003229,-0.000040,  25.931,   97
   557.2,0.000574,0.000356, 21,0.003331,0.000009,  25.928,   97
   557.4,0.000571,0.000359, 21,0.003503,-0.000027,  25.926,   97
   557.6,0.000571,0.000360, 21,0.003592,-0.000027,  25.926,   97
   557.8,0.000571,0.000349, 21,0.003694,0.000009,  25.929,   96
   558.0,0.000560,0.000345, 21,0.003771,-0.000027,  25.925,   95
   558.2,0.000539,0.000333, 21,0.003861,-0.000027,  25.925,   96
   558.4,0.000511,0.000322, 21,0.003950,-0.000004,  25.933,   97
   558.6,0.000509,0.000321, 21,0.004020,-0.000027,  25.929,   81
   558.8,0.000511,0.000316, 21,0.003835,-0.000027,  25.925,   64
   559.0,0.000522,0.000314, 21,0.003535,-0.000004,  25.928,   80
   559.2,0.000528,0.000320, 21,0.003083,-0.000004,  25.928,   96
   559.4,0.000530,0.000328, 21,0.003057,0.000009,  25.928,   97
   559.6,0.000533,0.000327, 21,0.003179,-0.000004,  25.926,   97
   559.8,0.000539,0.000329, 21,0.003440,-0.000004,  25.928,   97
   560.0,0.000544,0.000334, 21,0.003529,-0.000040,  25.927,   97
   560.2,0.000544,0.000336, 21,0.003612,-0.000004,  25.929,   96
   560.4,0.000547,0.000338, 21,0.003663,-0.000004,  25.928,   94
   560.6,0.000549,0.000337, 21,0.003708,-0.000027,  25.929,   95
   560.8,0.000549,0.000330, 21,0.003714,-0.000040,  25.933,   95
   561.0,0.000552,0.000335, 21,0.003708,-0.000017,  25.928,   97
   561.2,0.000552,0.000336, 21,0.003682,-0.000040,  25.930,  100
   561.4,0.000549,0.000331, 21,0.003714,-0.000053,  25.936,   98
   561.6,0.000555,0.000329, 21,0.003772,-0.000030,  25.933,   97
   561.8,0.000555,0.000332, 21,0.003817,-0.000053,  25.938,   97
   562.0,0.000555,0.000329, 21,0.003842,-0.000053,  25.936,   96
   562.2,0.000555,0.000331, 21,0.003855,-0.000017,  25.935,   98
   562.4,0.000555,0.000338, 21,0.003842,-0.000040,  25.934,   99
   562.6,0.000552,0.000338, 21,0.003798,-0.000053,  25.940,   98
   562.8,0.000549,0.000340, 21,0.003746,-0.000017,  25.939,   97
   563.0,0.000547,0.000338, 21,0.003657,-0.000040,  25.941,   97
   563.2,0.000547,0.000336, 21,0.003631,-0.000053,  25.941,   96
   563.4,0.000549,0.000338, 21,0.003638,-0.000017,  25.943,   97
   563.6,0.000547,0.000341, 21,0.003631,-0.000040,  25.936,   97
   563.8,0.000544,0.000337, 21,0.003676,-0.000053,  25.941,   93
   564.0,0.000547,0.000334, 21,0.003759,-0.000017,  25.940,   89
   564.2,0.000540,0.000332, 21,0.003849,-0.000040,  25.941,   93
   564.4,0.000537,0.000334, 21,0.003881,-0.000053,  25.939,   96
   564.6,0.000540,0.000335, 21,0.003900,-0.000017,  25.940,   97
   564.8,0.000536,0.000332, 21,0.003894,-0.000040,  25.943,   97
   565.0,0.000546,0.000334, 21,0.003843,-0.000053,  25.938,   96
   565.2,0.000546,0.000338, 21,0.003760,-0.000017,  25.937,   96
   565.4,0.000536,0.000336, 21,0.003625,-0.000040,  25.940,   97
   565.6,0.000540,0.000334, 21,0.003619,-0.000053,  25.938,   98
   565.8,0.000543,0.000334, 21,0.003683,-0.000017,  25.935,   97
   566.0,0.000531,0.000334, 21,0.003779,-0.000040,  25.937,   95
   566.2,0.000535,0.000336, 21,0.003798,-0.000040,  25.937,   95
   566.4,0.000535,0.000331, 21,0.003824,-0.000004,  25.935,   96
   566.6,0.000528,0.000336, 21,0.003836,-0.000027,  25.932,   97
   566.8,0.000535,0.000337, 21,0.003875,-0.000027,  25.932,   98
   567.0,0.000537,0.000332, 21,0.003900,-0.000004,  25.933,   97
   567.2,0.000540,0.000334, 21,0.003920,-0.000027,  25.935,   96
   567.4,0.000540,0.000334, 21,0.003900,-0.000027,  25.937,   97
   567.6,0.000537,0.000329, 21,0.003849,-0.000004,  25.936,   99
   567.8,0.000540,0.000332, 21,0.003754,-0.000027,  25.935,   98
   568.0,0.000531,0.000340, 21,0.003766,-0.000040,  25.937,   96
   568.2,0.000535,0.000333, 21,0.003779,-0.000017,  25.935,   98
   568.4,0.000537,0.000338, 21,0.003818,-0.000040,  25.930,   99
   568.6,0.000531,0.000340, 21,0.003626,-0.000053,  25.936,   97
   568.8,0.000537,0.000334, 21,0.003320,-0.000030,  25.933,   95
   569.0,0.000535,0.000332, 21,0.002899,-0.000030,  25.936,   96
   569.2,0.000520,0.000327, 21,0.002906,-0.000030,  25.932,   97
   569.4,0.000516,0.000321, 21,0.003052,-0.000030,  25.933,   82
   569.6,0.000516,0.000318, 21,0.003345,-0.000030,  25.937,   66
   569.8,0.000506,0.000319, 21,0.003441,-0.000066,  25.930,   81
   570.0,0.000513,0.000314, 21,0.003498,-0.000030,  25.935,   96
   570.2,0.000516,0.000314, 21,0.003511,-0.000030,  25.934,   96
   570.4,0.000512,0.000318, 21,0.003505,-0.000053,  25.932,   97
   570.6,0.000521,0.000317, 21,0.003409,-0.000053,  25.931,   96
   570.8,0.000524,0.000319, 21,0.003243,-0.000030,  25.927,   95
   571.0,0.000517,0.000324, 21,0.003027,-0.000053,  25.933,   95
   571.2,0.000524,0.000321, 21,0.003046,-0.000053,  25.930,   94
   571.4,0.000526,0.000321, 21,0.003148,-0.000017,  25.927,   95
   571.6,0.000525,0.000326, 21,0.003333,-0.000040,  25.932,   96
   571.8,0.000532,0.000323, 21,0.003422,-0.000053,  25.924,   98
   572.0,0.000535,0.000328, 21,0.003518,-0.000017,  25.928,   99
   572.2,0.000531,0.000333, 21,0.003601,-0.000040,  25.924,   99
   572.4,0.000537,0.000335, 21,0.003620,-0.000004,  25.924,   98
   572.6,0.000540,0.000337, 21,0.003620,0.000032,  25.925,   98
   572.8,0.000533,0.000341, 21,0.003575,0.000009,  25.925,   97
   573.0,0.000540,0.000341, 21,0.003600,0.000045,  25.924,   97
   573.2,0.000543,0.000341, 21,0.003639,0.000032,  25.920,   97
   573.4,0.000533,0.000339, 21,0.003709,0.000009,  25.921,   97
   573.6,0.000540,0.000340, 21,0.003735,0.000045,  25.924,   97
   573.8,0.000540,0.000333, 21,0.003722,0.000032,  25.923,   97
   574.0,0.000531,0.000336, 21,0.003683,0.000009,  25.920,   96
   574.2,0.000532,0.000336, 21,0.003537,0.000032,  25.919,   97
   574.4,0.000532,0.000332, 21,0.003345,0.000019,  25.919,   97
   574.6,0.000525,0.000336, 21,0.003058,-0.000004,  25.920,   93
   574.8,0.000529,0.000336, 21,0.003058,0.000019,  25.920,   89
   575.0,0.000529,0.000336, 21,0.003154,0.000019,  25.920,   93
   575.2,0.000523,0.000340, 21,0.003358,-0.000004,  25.914,   96
   575.4,0.000529,0.000337, 21,0.003409,0.000032,  25.918,   96
   575.6,0.000529,0.000336, 21,0.003434,0.000032,  25.920,   97
   575.8,0.000523,0.000338, 21,0.003415,0.000009,  25.916,   97
   576.0,0.000529,0.000334, 21,0.003434,0.000045,  25.914,   97
   576.2,0.000529,0.000329, 21,0.003460,0.000032,  25.916,   97
   576.4,0.000523,0.000331, 21,0.003472,0.000009,  25.917,   98
   576.6,0.000529,0.000330, 21,0.003498,0.000045,  25.917,   97
   576.8,0.000529,0.000323, 21,0.003518,0.000032,  25.918,   96
   577.0,0.000532,0.000328, 21,0.003569,0.000009,  25.916,   96
   577.2,0.000532,0.000330, 21,0.003613,0.000045,  25.911,   97
   577.4,0.000532,0.000325, 21,0.003646,0.000032,  25.916,   98
   577.6,0.000532,0.000332, 21,0.003697,0.000009,  25.914,   99
   577.8,0.000523,0.000332, 21,0.003697,0.000009,  25.912,   98
   578.0,0.000524,0.000327, 21,0.003658,-0.000004,  25.912,   96
   578.2,0.000521,0.000330, 21,0.003588,-0.000027,  25.912,   97
   578.4,0.000514,0.000326, 21,0.003346,-0.000027,  25.911,   99
   578.6,0.000518,0.000323, 21,0.003002,-0.000004,  25.914,   97
   578.8,0.000512,0.000323, 21,0.002550,-0.000004,  25.917,   96
   579.0,0.000512,0.000322, 21,0.002334,0.000009,  25.923,   97
   579.2,0.000512,0.000317, 21,0.002194,-0.000004,  25.921,   98
   579.4,0.000502,0.000317, 21,0.002124,-0.000004,  25.918,   97
   579.6,0.000501,0.000313, 21,0.002168,-0.000040,  25.922,   96
   579.8,0.000487,0.000311, 21,0.002302,-0.000030,  25.915,   96
   580.0,0.000487,0.000309, 21,0.002524,-0.000043,  25.915,   96
   580.2,0.000487,0.000305, 21,0.002830,-0.000066,  25.913,   89
   580.4,0.000494,0.000303, 21,0.002932,-0.000066,  25.913,   81
   580.6,0.000499,0.000301, 21,0.003014,-0.000030,  25.913,   89
   580.8,0.000493,0.000305, 21,0.003072,-0.000053,  25.912,   96
   581.0,0.000499,0.000305, 21,0.003129,-0.000053,  25.913,   96
   581.2,0.000502,0.000306, 21,0.003180,-0.000017,  25.911,   96
   581.4,0.000498,0.000316, 21,0.003218,-0.000040,  25.909,   96
   581.6,0.000502,0.000314, 21,0.003295,-0.000040,  25.904,   97
   581.8,0.000502,0.000309, 21,0.003384,-0.000004,  25.909,   97
   582.0,0.000498,0.000311, 21,0.003461,-0.000027,  25.912,   97
   582.2,0.000505,0.000308, 21,0.003467,-0.000027,  25.910,   97
   582.4,0.000507,0.000310, 21,0.003448,-0.000004,  25.912,   98
   582.6,0.000501,0.000314, 21,0.003365,-0.000027,  25.909,   98
   582.8,0.000510,0.000318, 21,0.003340,-0.000027,  25.910,   99
   583.0,0.000513,0.000321, 21,0.003327,-0.000004,  25.909,   99
   583.2,0.000506,0.000318, 21,0.003321,-0.000027,  25.910,   98
   583.4,0.000516,0.000321, 21,0.003333,-0.000027,  25.906,   97
   583.6,0.000518,0.000316, 21,0.003340,-0.000004,  25.906,   97
   583.8,0.000516,0.000321, 21,0.003378,-0.000027,  25.907,   98
   584.0,0.000522,0.000326, 21,0.003391,-0.000027,  25.908,   98
   584.2,0.000525,0.000323, 21,0.003397,-0.000004,  25.905,   97
   584.4,0.000522,0.000323, 21,0.003391,-0.000027,  25.906,   96
   584.6,0.000522,0.000324, 21,0.003276,-0.000027,  25.907,   96
   584.8,0.000522,0.000318, 21,0.003091,-0.000004,  25.907,   96
   585.0,0.000517,0.000318, 21,0.002843,-0.000027,  25.908,   96
   585.2,0.000509,0.000321, 21,0.002856,-0.000027,  25.904,   96
   585.4,0.000509,0.000319, 21,0.002945,-0.000004,  25.910,   94
   585.6,0.000514,0.000314, 21,0.003142,-0.000027,  25.912,   91
   585.8,0.000514,0.000320, 21,0.003212,-0.000027,  25.908,   93
   586.0,0.000517,0.000319, 21,0.003263,-0.000004,  25.910,   95
   586.2,0.000520,0.000316, 21,0.003295,-0.000027,  25.911,   96
   586.4,0.000526,0.000319, 21,0.003308,-0.000027,  25.915,   97
   586.6,0.000529,0.000316, 21,0.003295,-0.000004,  25.914,   97
   586.8,0.000522,0.000321, 21,0.003237,-0.000027,  25.913,   96
   587.0,0.000525,0.000324, 21,0.003276,-0.000027,  25.913,   97
   587.2,0.000525,0.000321, 21,0.003352,0.000009,  25.917,   98
   587.4,0.000534,0.000330, 21,0.003448,-0.000014,  25.916,   97
   587.6,0.000534,0.000332, 21,0.003461,-0.000014,  25.920,   96
   587.8,0.000537,0.000334, 21,0.003467,0.000022,  25.925,   96
   588.0,0.000540,0.000342, 21,0.003435,-0.000001,  25.922,   96
   588.2,0.000536,0.000341, 21,0.003416,-0.000001,  25.921,   98
   588.4,0.000540,0.000340, 21,0.003384,0.000022,  25.924,  101
   588.6,0.000540,0.000349, 21,0.003314,0.000022,  25.926,   99
   588.8,0.000539,0.000349, 21,0.003282,0.000022,  25.922,   97
   589.0,0.000545,0.000347, 21,0.003263,0.000022,  25.925,   98
   589.2,0.000548,0.000356, 21,0.003224,0.000022,  25.922,   99
   589.4,0.000544,0.000359, 21,0.003256,-0.000001,  25.921,   98
   589.6,0.000551,0.000358, 21,0.003314,0.000022,  25.923,   97
   589.8,0.000553,0.000358, 21,0.003403,0.000022,  25.925,   97
   590.0,0.000547,0.000355, 21,0.003454,-0.000014,  25.928,   97
   590.2,0.000553,0.000352, 21,0.003499,-0.000014,  25.929,   96
   590.4,0.000556,0.000352, 21,0.003543,0.000022,  25.926,   96
   590.6,0.000544,0.000348, 21,0.003582,-0.000014,  25.930,   96
   590.8,0.000541,0.000346, 21,0.003569,-0.000014,  25.924,   97
   591.0,0.000544,0.000347, 21,0.003531,0.000022,  25.924,   92
   591.2,0.000541,0.000345, 21,0.003467,-0.000014,  25.929,   88
   591.4,0.000541,0.000340, 21,0.003441,-0.000014,  25.928,   93
   591.6,0.000544,0.000347, 21,0.003429,0.000022,  25.927,   97
   591.8,0.000544,0.000354, 21,0.003435,-0.000014,  25.927,   97
   592.0,0.000544,0.000353, 21,0.003473,-0.000001,  25.927,   96
   592.2,0.000547,0.000356, 21,0.003486,0.000035,  25.933,   97
   592.4,0.000547,0.000356, 21,0.003518,-0.000001,  25.930,   97
   592.6,0.000547,0.000356, 21,0.003562,0.000012,  25.930,   97
   592.8,0.000549,0.000358, 21,0.003594,0.000035,  25.925,   96
   593.0,0.000547,0.000356, 21,0.003626,-0.000001,  25.932,   97
   593.2,0.000547,0.000360, 21,0.003652,0.000012,  25.932,   97
   593.4,0.000549,0.000360, 21,0.003684,0.000035,  25.931,   98
   593.6,0.000547,0.000360, 21,0.003690,-0.000001,  25.932,   98
   593.8,0.000547,0.000356, 21,0.003665,0.000012,  25.926,   98
   594.0,0.000549,0.000351, 21,0.003626,0.000035,  25.929,   98
   594.2,0.000547,0.000358, 21,0.003550,-0.000001,  25.931,   97
   594.4,0.000551,0.000356, 21,0.003562,0.000012,  25.931,   97
   594.6,0.000553,0.000349, 21,0.003569,0.000035,  25.933,   97
   594.8,0.000547,0.000354, 21,0.003607,-0.000001,  25.932,   97
   595.0,0.000551,0.000353, 21,0.003588,0.000012,  25.932,   96
   595.2,0.000553,0.000350, 21,0.003518,0.000035,  25.930,   96
   595.4,0.000544,0.000352, 21,0.003435,-0.000001,  25.930,   96
   595.6,0.000548,0.000353, 21,0.003435,0.000012,  25.934,   96
   595.8,0.000545,0.000340, 21,0.003479,0.000035,  25.929,   96
   596.0,0.000528,0.000324, 21,0.003562,-0.000001,  25.936,   96
   596.2,0.000523,0.000301, 21,0.003575,-0.000001,  25.934,   95
   596.4,0.000521,0.000290, 21,0.003588,0.000022,  25.933,   94
   596.6,0.000511,0.000293, 21,0.003582,-0.000014,  25.933,   89
   596.8,0.000515,0.000302, 21,0.003594,-0.000014,  25.934,   84
   597.0,0.000513,0.000299, 21,0.003614,0.000022,  25.929,   91
   597.2,0.000506,0.000308, 21,0.003620,-0.000014,  25.932,   97
   597.4,0.000509,0.000317, 21,0.003620,-0.000014,  25.931,   97
   597.6,0.000509,0.000316, 21,0.003582,0.000022,  25.936,   98
   597.8,0.000509,0.000318, 21,0.003556,-0.000014,  25.933,   98
   598.0,0.000511,0.000321, 21,0.003544,-0.000014,  25.930,   98
   598.2,0.000509,0.000318, 21,0.003544,0.000022,  25.936,   96
   598.4,0.000509,0.000325, 21,0.003531,0.000022,  25.932,   94
   598.6,0.000509,0.000323, 21,0.003506,0.000022,  25.939,   96
   598.8,0.000506,0.000318, 21,0.003474,0.000022,  25.937,   98
   599.0,0.000506,0.000321, 21,0.003442,0.000022,  25.935,   99
   599.2,0.000506,0.000321, 21,0.003480,-0.000001,  25.932,  100
   599.4,0.000506,0.000318, 21,0.003512,0.000022,  25.936,   98
   599.6,0.000503,0.000321, 21,0.003582,0.000022,  25.938,   97
   599.8,0.000503,0.000325, 21,0.003601,-0.000014,  25.937,   98
   600.0,0.000503,0.000322, 21,0.003601,-0.000014,  25.938,   99
   600.2,0.000500,0.000320, 21,0.003576,0.000022,  25.937,   98
   600.4,0.000500,0.000320, 21,0.003544,-0.000014,  25.940,   97
   600.6,0.000510,0.000315, 21,0.003518,-0.000014,  25.941,   97
   600.8,0.000510,0.000316, 21,0.003480,0.000022,  25.939,   97
   601.0,0.000500,0.000316, 21,0.003448,-0.000027,  25.942,   96
   601.2,0.000504,0.000310, 21,0.003423,-0.000027,  25.945,   96
   601.4,0.000504,0.000312, 21,0.003404,-0.000004,  25.947,   96
   601.6,0.000492,0.000310, 21,0.003378,-0.000040,  25.947,   97
   601.8,0.000493,0.000305, 21,0.003372,-0.000040,  25.944,   91
   602.0,0.000496,0.000308, 21,0.003385,0.000009,  25.945,   85
   602.2,0.000490,0.000313, 21,0.003410,-0.000027,  25.948,   92
   602.4,0.000499,0.000313, 21,0.003194,-0.000027,  25.947,   99
   602.6,0.000502,0.000313, 21,0.002869,0.000009,  25.949,   98
   602.8,0.000495,0.000318, 21,0.002411,-0.000027,  25.946,   98
