Run Name,50 salt
Run Date,05:58:15 PM   03-18-12
Method Name,group 032012
Export Format Version, 1.00
Method ID, 1385
Points/Second, 5.00
Number of Records,   3090
Offset from Run Start Time,00:00:00
Run End Time,00:10:18
Time,Second
QuadTec 1, (280.0 nm), AU
QuadTec 2, (260.0 nm), AU
Gradient Pump,<Not Selected>
QuadTec 3, (214.0 nm), AU
QuadTec 4, (405.0 nm), AU
Conductivity,mS/cm
Trace 6,<Not Available>
GP Pressure,<Not Selected>
Volume,<Not Selected>
Fraction,<Not Available>
Time,QuadTec 1,QuadTec 2,QuadTec 3,QuadTec 4,Conductivity
     0.0,0.009527,0.000000,0.170556,0.000000,  48.221
     0.2,0.009583,0.000000,0.170556,0.000000,  48.216
     0.4,0.009389,0.000000,0.170556,0.000000,  48.217
     0.6,0.008021,0.000000,0.170556,0.000000,  48.217
     0.8,0.000000,0.000000,0.000000,0.000000,  48.213
     1.0,0.000000,0.000000,0.000000,0.000000,  48.215
     1.2,0.000000,0.000000,0.000000,0.000000,  48.218
     1.4,0.000000,0.000000,0.000000,0.000000,  48.212
     1.6,0.000000,0.000000,0.000000,0.000000,  48.213
     1.8,0.000000,0.000000,0.000000,0.000000,  48.211
     2.0,0.000000,0.000000,0.000000,0.000000,  48.204
     2.2,0.000000,0.000000,0.000000,0.000000,  48.202
     2.4,0.000000,0.000000,0.000000,0.000000,  48.183
     2.6,0.000000,0.000000,0.000000,0.000000,  48.180
     2.8,0.000000,0.000000,0.000000,0.000000,  48.179
     3.0,0.000000,0.000000,0.000000,0.000000,  48.178
     3.2,0.000000,0.000000,0.000000,0.000000,  48.182
     3.4,0.000000,0.000000,0.000000,0.000000,  48.176
     3.6,0.000000,0.000000,0.000000,0.000000,  48.175
     3.8,0.000000,0.000000,0.000000,0.000000,  48.172
     4.0,0.000000,0.000000,0.000000,0.000000,  48.175
     4.2,0.000000,0.000000,0.000000,0.000000,  48.168
     4.4,0.000000,0.000000,0.000000,0.000000,  48.171
     4.6,0.000000,-0.000002,-0.000019,0.000000,  48.170
     4.8,0.000001,-0.000008,-0.000001,0.000000,  48.167
     5.0,0.000004,-0.000012,-0.000006,0.000040,  48.165
     5.2,0.000004,-0.000010,-0.000014,0.000018,  48.162
     5.4,0.000010,-0.000012,-0.000038,0.000005,  48.159
     5.6,0.000016,-0.000012,-0.000067,0.000005,  48.163
     5.8,0.000019,-0.000008,-0.000135,-0.000030,  48.157
     6.0,0.000010,-0.000012,-0.000172,-0.000017,  48.161
     6.2,0.000004,-0.000016,-0.000182,-0.000030,  48.159
     6.4,0.000006,-0.000016,-0.000198,-0.000065,  48.154
     6.6,0.000004,-0.000018,-0.000209,-0.000052,  48.154
     6.8,0.000004,-0.000016,-0.000206,-0.000030,  48.154
     7.0,0.000006,-0.000020,-0.000201,-0.000065,  48.154
     7.2,0.000010,-0.000018,-0.000217,-0.000052,  48.154
     7.4,0.000016,-0.000022,-0.000241,-0.000017,  48.151
     7.6,0.000016,-0.000024,-0.000277,-0.000038,  48.147
     7.8,0.000013,-0.000028,-0.000291,-0.000038,  48.148
     8.0,0.000007,-0.000031,-0.000298,0.000010,  48.143
     8.2,0.000010,-0.000031,-0.000312,-0.000012,  48.138
     8.4,0.000016,-0.000021,-0.000343,-0.000025,  48.138
     8.6,0.000012,-0.000021,-0.000369,0.000010,  48.137
     8.8,0.000018,-0.000024,-0.000414,-0.000012,  48.135
     9.0,0.000029,-0.000023,-0.000466,-0.000025,  48.131
     9.2,0.000032,-0.000017,-0.000521,0.000010,  48.129
     9.4,0.000028,-0.000008,-0.000597,-0.000012,  48.125
     9.6,0.000034,0.000004,-0.000610,-0.000025,  48.124
     9.8,0.000032,0.000008,-0.000589,0.000010,  48.123
    10.0,0.000028,0.000018,-0.000550,-0.000012,  48.121
    10.2,0.000034,0.000022,-0.000551,-0.000012,  48.116
    10.4,0.000040,0.000022,-0.000556,0.000023,  48.113
    10.6,0.000036,0.000032,-0.000564,0.000002,  48.107
    10.8,0.000039,0.000033,-0.000551,0.000002,  48.106
    11.0,0.000048,0.000035,-0.000531,0.000037,  48.105
    11.2,0.000044,0.000043,-0.000497,0.000015,  48.103
    11.4,0.000048,0.000047,-0.000494,0.000015,  48.104
    11.6,0.000054,0.000051,-0.000510,0.000050,  48.097
    11.8,0.000056,0.000055,-0.000544,0.000063,  48.098
    12.0,0.000064,0.000055,-0.000552,0.000063,  48.099
    12.2,0.000078,0.000061,-0.000560,0.000063,  48.095
    12.4,0.000078,0.000069,-0.000565,0.000050,  48.095
    12.6,0.000078,0.000081,-0.000570,0.000050,  48.095
    12.8,0.000081,0.000085,-0.000570,0.000037,  48.090
    13.0,0.000078,0.000079,-0.000554,0.000037,  48.089
    13.2,0.000084,0.000076,-0.000554,0.000015,  48.088
    13.4,0.000087,0.000078,-0.000562,0.000037,  48.083
    13.6,0.000084,0.000082,-0.000562,0.000058,  48.084
    13.8,0.000092,0.000082,-0.000578,0.000037,  48.083
    14.0,0.000092,0.000083,-0.000576,0.000072,  48.084
    14.2,0.000098,0.000083,-0.000568,0.000058,  48.083
    14.4,0.000098,0.000085,-0.000568,0.000037,  48.082
    14.6,0.000104,0.000082,-0.000594,0.000072,  48.079
    14.8,0.000107,0.000086,-0.000646,0.000058,  48.057
    15.0,0.000103,0.000095,-0.000711,0.000037,  48.057
    15.2,0.000109,0.000097,-0.000706,0.000072,  48.053
    15.4,0.000112,0.000098,-0.000675,0.000058,  48.051
    15.6,0.000112,0.000104,-0.000618,0.000037,  48.053
    15.8,0.000121,0.000110,-0.000595,0.000072,  48.051
    16.0,0.000126,0.000106,-0.000566,0.000058,  48.052
    16.2,0.000129,0.000110,-0.000527,0.000037,  48.053
    16.4,0.000140,0.000113,-0.000514,0.000085,  48.051
    16.6,0.000143,0.000121,-0.000511,0.000085,  48.047
    16.8,0.000148,0.000128,-0.000498,0.000063,  48.045
    17.0,0.000154,0.000132,-0.000488,0.000098,  48.047
    17.2,0.000160,0.000129,-0.000485,0.000085,  48.044
    17.4,0.000163,0.000129,-0.000491,0.000063,  48.042
    17.6,0.000160,0.000127,-0.000509,0.000098,  48.040
    17.8,0.000169,0.000124,-0.000553,0.000085,  48.041
    18.0,0.000172,0.000120,-0.000608,0.000063,  48.042
    18.2,0.000172,0.000121,-0.000525,0.000098,  48.041
    18.4,0.000174,0.000123,-0.000402,0.000085,  48.038
    18.6,0.000168,0.000128,-0.000217,0.000063,  48.041
    18.8,0.000177,0.000134,-0.000199,0.000098,  48.043
    19.0,0.000177,0.000135,-0.000246,0.000098,  48.039
    19.2,0.000173,0.000138,-0.000356,0.000063,  48.036
    19.4,0.000179,0.000144,-0.000382,0.000098,  48.035
    19.6,0.000182,0.000143,-0.000405,0.000098,  48.035
    19.8,0.000179,0.000149,-0.000400,0.000063,  48.033
    20.0,0.000181,0.000160,-0.000426,0.000098,  48.038
    20.2,0.000187,0.000159,-0.000463,0.000085,  48.034
    20.4,0.000179,0.000160,-0.000507,0.000063,  48.035
    20.6,0.000182,0.000162,-0.000509,0.000098,  48.040
    20.8,0.000186,0.000158,-0.000504,0.000085,  48.035
    21.0,0.000177,0.000161,-0.000491,0.000085,  48.034
    21.2,0.000177,0.000158,-0.000493,0.000063,  48.034
    21.4,0.000179,0.000158,-0.000527,0.000050,  48.031
    21.6,0.000176,0.000158,-0.000575,0.000085,  48.032
    21.8,0.000176,0.000162,-0.000601,0.000050,  48.034
    22.0,0.000182,0.000168,-0.000611,0.000085,  48.037
    22.2,0.000181,0.000173,-0.000643,0.000085,  48.035
    22.4,0.000187,0.000181,-0.000655,0.000063,  48.040
    22.6,0.000192,0.000183,-0.000647,0.000098,  48.037
    22.8,0.000195,0.000174,-0.000647,0.000085,  48.039
    23.0,0.000192,0.000170,-0.000624,0.000063,  48.041
    23.2,0.000189,0.000170,-0.000613,0.000098,  48.039
    23.4,0.000195,0.000170,-0.000601,0.000098,  48.041
    23.6,0.000200,0.000175,-0.000588,0.000077,  48.040
    23.8,0.000203,0.000177,-0.000567,0.000112,  48.038
    24.0,0.000208,0.000181,-0.000541,0.000112,  48.046
    24.2,0.000219,0.000187,-0.000517,0.000090,  48.047
    24.4,0.000225,0.000192,-0.000497,0.000138,  48.047
    24.6,0.000225,0.000191,-0.000476,0.000125,  48.047
    24.8,0.000236,0.000197,-0.000458,0.000090,  48.051
    25.0,0.000239,0.000195,-0.000431,0.000138,  48.046
    25.2,0.000238,0.000195,-0.000424,0.000125,  48.048
    25.4,0.000249,0.000198,-0.000416,0.000090,  48.055
    25.6,0.000252,0.000202,-0.000421,0.000138,  48.056
    25.8,0.000248,0.000204,-0.000439,0.000125,  48.054
    26.0,0.000254,0.000212,-0.000466,0.000090,  48.061
    26.2,0.000257,0.000218,-0.000481,0.000138,  48.060
    26.4,0.000260,0.000220,-0.000510,0.000138,  48.058
    26.6,0.000259,0.000230,-0.000525,0.000103,  48.065
    26.8,0.000268,0.000233,-0.000507,0.000138,  48.062
    27.0,0.000270,0.000238,-0.000481,0.000125,  48.067
    27.2,0.000271,0.000249,-0.000431,0.000090,  48.074
    27.4,0.000288,0.000260,-0.000387,0.000152,  48.072
    27.6,0.000296,0.000270,-0.000334,0.000152,  48.069
    27.8,0.000301,0.000281,-0.000282,0.000152,  48.074
    28.0,0.000308,0.000300,-0.000240,0.000165,  48.076
    28.2,0.000320,0.000309,-0.000204,0.000187,  48.080
    28.4,0.000327,0.000324,-0.000167,0.000200,  48.078
    28.6,0.000340,0.000337,-0.000143,0.000200,  48.083
    28.8,0.000357,0.000348,-0.000127,0.000235,  48.079
    29.0,0.000369,0.000365,-0.000116,0.000248,  48.084
    29.2,0.000388,0.000380,-0.000074,0.000213,  48.086
    29.4,0.000413,0.000399,-0.000024,0.000227,  48.088
    29.6,0.000425,0.000422,0.000049,0.000240,  48.085
    29.8,0.000438,0.000448,0.000091,0.000205,  48.091
    30.0,0.000454,0.000472,0.000120,0.000253,  48.089
    30.2,0.000475,0.000489,0.000128,0.000240,  48.095
    30.4,0.000497,0.000511,0.000147,0.000218,  48.096
    30.6,0.000524,0.000536,0.000173,0.000267,  48.097
    30.8,0.000539,0.000558,0.000196,0.000293,  48.098
    31.0,0.000555,0.000583,0.000220,0.000320,  48.104
    31.2,0.000574,0.000598,0.000210,0.000285,  48.122
    31.4,0.000587,0.000606,0.000187,0.000320,  48.124
    31.6,0.000606,0.000619,0.000161,0.000333,  48.124
    31.8,0.000628,0.000628,0.000182,0.000298,  48.125
    32.0,0.000633,0.000639,0.000234,0.000347,  48.130
    32.2,0.000641,0.000654,0.000299,0.000360,  48.131
    32.4,0.000648,0.000662,0.000304,0.000325,  48.132
    32.6,0.000639,0.000658,0.000302,0.000360,  48.130
    32.8,0.000633,0.000660,0.000265,0.000373,  48.131
    33.0,0.000626,0.000648,0.000254,0.000325,  48.135
    33.2,0.000604,0.000635,0.000243,0.000333,  48.137
    33.4,0.000594,0.000618,0.000238,0.000347,  48.136
    33.6,0.000577,0.000593,0.000225,0.000298,  48.137
    33.8,0.000555,0.000572,0.000203,0.000320,  48.138
    34.0,0.000536,0.000553,0.000177,0.000320,  48.144
    34.2,0.000518,0.000531,0.000146,0.000258,  48.143
    34.4,0.000493,0.000512,0.000104,0.000267,  48.146
    34.6,0.000469,0.000487,0.000054,0.000218,  48.144
    34.8,0.000449,0.000462,0.000025,0.000218,  48.147
    35.0,0.000427,0.000442,-0.000002,0.000218,  48.147
    35.2,0.000408,0.000421,-0.000021,0.000205,  48.147
    35.4,0.000398,0.000402,-0.000060,0.000178,  48.150
    35.6,0.000385,0.000387,-0.000118,0.000200,  48.154
    35.8,0.000371,0.000372,-0.000181,0.000200,  48.153
    36.0,0.000364,0.000353,-0.000212,0.000165,  48.154
    36.2,0.000356,0.000341,-0.000247,0.000187,  48.148
    36.4,0.000348,0.000330,-0.000247,0.000187,  48.152
    36.6,0.000334,0.000318,-0.000271,0.000165,  48.150
    36.8,0.000326,0.000306,-0.000305,0.000187,  48.153
    37.0,0.000315,0.000294,-0.000333,0.000187,  48.156
    37.2,0.000313,0.000289,-0.000331,0.000187,  48.156
    37.4,0.000308,0.000281,-0.000334,0.000195,  48.155
    37.6,0.000297,0.000269,-0.000321,0.000182,  48.155
    37.8,0.000289,0.000265,-0.000337,0.000182,  48.154
    38.0,0.000287,0.000260,-0.000357,0.000168,  48.158
    38.2,0.000273,0.000250,-0.000396,0.000168,  48.160
    38.4,0.000265,0.000248,-0.000404,0.000155,  48.153
    38.6,0.000263,0.000245,-0.000410,0.000133,  48.159
    38.8,0.000254,0.000239,-0.000407,0.000168,  48.156
    39.0,0.000252,0.000236,-0.000397,0.000133,  48.158
    39.2,0.000255,0.000233,-0.000392,0.000133,  48.157
    39.4,0.000252,0.000237,-0.000374,0.000147,  48.157
    39.6,0.000252,0.000237,-0.000361,0.000147,  48.153
    39.8,0.000249,0.000231,-0.000335,0.000112,  48.155
    40.0,0.000243,0.000229,-0.000327,0.000133,  48.153
    40.2,0.000249,0.000229,-0.000311,0.000133,  48.155
    40.4,0.000244,0.000225,-0.000705,0.000098,  48.156
    40.6,0.000238,0.000229,-0.001318,0.000147,  48.157
    40.8,0.000244,0.000233,-0.002131,0.000160,  48.154
    41.0,0.000241,0.000233,-0.002175,0.000125,  48.154
    41.2,0.000232,0.000233,-0.001934,0.000147,  48.153
    41.4,0.000242,0.000229,-0.001411,0.000147,  48.151
    41.6,0.000246,0.000225,-0.001232,0.000147,  48.151
    41.8,0.000239,0.000221,-0.001083,0.000182,  48.154
    42.0,0.000246,0.000223,-0.000964,0.000182,  48.152
    42.2,0.000248,0.000221,-0.000865,0.000147,  48.152
    42.4,0.000245,0.000219,-0.000786,0.000147,  48.151
    42.6,0.000253,0.000221,-0.000758,0.000147,  48.149
    42.8,0.000251,0.000223,-0.000755,0.000112,  48.148
    43.0,0.000245,0.000221,-0.000776,0.000147,  48.151
    43.2,0.000253,0.000221,-0.000833,0.000147,  48.151
    43.4,0.000251,0.000225,-0.000789,0.000112,  48.148
    43.6,0.000245,0.000221,-0.000724,0.000147,  48.148
    43.8,0.000253,0.000217,-0.000644,0.000147,  48.146
    44.0,0.000251,0.000213,-0.000615,0.000112,  48.144
    44.2,0.000251,0.000209,-0.000597,0.000147,  48.147
    44.4,0.000253,0.000211,-0.000605,0.000147,  48.146
    44.6,0.000253,0.000211,-0.000586,0.000125,  48.144
    44.8,0.000253,0.000207,-0.000571,0.000160,  48.145
    45.0,0.000247,0.000209,-0.000549,0.000160,  48.143
    45.2,0.000247,0.000211,-0.000523,0.000138,  48.140
    45.4,0.000247,0.000202,-0.000497,0.000160,  48.142
    45.6,0.000241,0.000204,-0.000479,0.000160,  48.143
    45.8,0.000241,0.000202,-0.000479,0.000138,  48.139
    46.0,0.000245,0.000201,-0.000505,0.000160,  48.142
    46.2,0.000236,0.000201,-0.000541,0.000160,  48.137
    46.4,0.000242,0.000204,-0.000515,0.000125,  48.135
    46.6,0.000243,0.000204,-0.000473,0.000147,  48.140
    46.8,0.000234,0.000208,-0.000413,0.000147,  48.137
    47.0,0.000238,0.000212,-0.000395,0.000112,  48.138
    47.2,0.000232,0.000210,-0.000389,0.000147,  48.137
    47.4,0.000229,0.000211,-0.000413,0.000147,  48.138
    47.6,0.000229,0.000218,-0.000421,0.000112,  48.136
    47.8,0.000229,0.000218,-0.000439,0.000147,  48.137
    48.0,0.000225,0.000216,-0.000460,0.000147,  48.138
    48.2,0.000223,0.000218,-0.000476,0.000133,  48.133
    48.4,0.000229,0.000218,-0.000476,0.000133,  48.136
    48.6,0.000225,0.000212,-0.000481,0.000168,  48.136
    48.8,0.000225,0.000215,-0.000473,0.000168,  48.133
    49.0,0.000234,0.000215,-0.000492,0.000133,  48.139
    49.2,0.000231,0.000215,-0.000526,0.000147,  48.137
    49.4,0.000231,0.000215,-0.000562,0.000125,  48.136
    49.6,0.000237,0.000217,-0.000560,0.000138,  48.129
    49.8,0.000236,0.000217,-0.000547,0.000125,  48.134
    50.0,0.000236,0.000220,-0.000526,0.000090,  48.134
    50.2,0.000242,0.000222,-0.000563,0.000138,  48.132
    50.4,0.000239,0.000226,-0.000633,0.000125,  48.130
    50.6,0.000239,0.000224,-0.000727,0.000090,  48.133
    50.8,0.000242,0.000230,-0.000719,0.000138,  48.133
    51.0,0.000236,0.000233,-0.000682,0.000125,  48.132
    51.2,0.000247,0.000235,-0.000599,0.000090,  48.130
    51.4,0.000256,0.000238,-0.000573,0.000138,  48.132
    51.6,0.000253,0.000236,-0.000557,0.000125,  48.130
    51.8,0.000259,0.000236,-0.000565,0.000090,  48.129
    52.0,0.000259,0.000235,-0.000552,0.000138,  48.129
    52.2,0.000253,0.000231,-0.000526,0.000125,  48.128
    52.4,0.000259,0.000231,-0.000513,0.000090,  48.131
    52.6,0.000256,0.000235,-0.000526,0.000138,  48.131
    52.8,0.000250,0.000233,-0.000537,0.000125,  48.132
    53.0,0.000259,0.000230,-0.000565,0.000125,  48.129
    53.2,0.000256,0.000228,-0.000573,0.000125,  48.128
    53.4,0.000256,0.000230,-0.000565,0.000147,  48.124
    53.6,0.000256,0.000230,-0.000565,0.000147,  48.125
    53.8,0.000259,0.000232,-0.000547,0.000112,  48.123
    54.0,0.000256,0.000228,-0.000529,0.000147,  48.131
    54.2,0.000250,0.000226,-0.000508,0.000147,  48.130
    54.4,0.000256,0.000224,-0.000471,0.000125,  48.126
    54.6,0.000256,0.000219,-0.000443,0.000160,  48.127
    54.8,0.000250,0.000221,-0.000398,0.000160,  48.128
    55.0,0.000253,0.000225,-0.000370,0.000138,  48.124
    55.2,0.000248,0.000221,-0.000351,0.000160,  48.123
    55.4,0.000239,0.000217,-0.000322,0.000160,  48.127
    55.6,0.000246,0.000220,-0.000330,0.000138,  48.126
    55.8,0.000246,0.000218,-0.000372,0.000160,  48.123
    56.0,0.000237,0.000218,-0.000419,0.000160,  48.124
    56.2,0.000243,0.000220,-0.000427,0.000125,  48.128
    56.4,0.000246,0.000221,-0.000417,0.000173,  48.124
    56.6,0.000248,0.000223,-0.000401,0.000173,  48.121
    56.8,0.000248,0.000226,-0.000406,0.000138,  48.124
    57.0,0.000254,0.000227,-0.000398,0.000173,  48.120
    57.2,0.000251,0.000228,-0.000406,0.000173,  48.120
    57.4,0.000253,0.000234,-0.000409,0.000173,  48.120
    57.6,0.000251,0.000232,-0.000419,0.000138,  48.118
    57.8,0.000247,0.000235,-0.000445,0.000173,  48.116
    58.0,0.000256,0.000242,-0.000471,0.000173,  48.119
    58.2,0.000259,0.000240,-0.000529,0.000152,  48.117
    58.4,0.000255,0.000244,-0.000604,0.000187,  48.121
    58.6,0.000264,0.000251,-0.000700,0.000187,  48.119
    58.8,0.000269,0.000252,-0.000698,0.000165,  48.122
    59.0,0.000263,0.000252,-0.000656,0.000187,  48.121
    59.2,0.000269,0.000254,-0.000560,0.000200,  48.121
    59.4,0.000269,0.000256,-0.000523,0.000165,  48.122
    59.6,0.000272,0.000251,-0.000502,0.000200,  48.115
    59.8,0.000275,0.000253,-0.000492,0.000200,  48.117
    60.0,0.000281,0.000251,-0.000490,0.000165,  48.120
    60.2,0.000283,0.000246,-0.000492,0.000187,  48.116
    60.4,0.000280,0.000251,-0.000516,0.000187,  48.117
    60.6,0.000281,0.000251,-0.000493,0.000165,  48.116
    60.8,0.000278,0.000248,-0.000440,0.000187,  48.116
    61.0,0.000269,0.000248,-0.000386,0.000187,  48.113
    61.2,0.000270,0.000244,-0.000391,0.000152,  48.117
    61.4,0.000273,0.000242,-0.000417,0.000173,  48.120
    61.6,0.000267,0.000244,-0.000472,0.000173,  48.122
    61.8,0.000278,0.000244,-0.000480,0.000152,  48.116
    62.0,0.000278,0.000237,-0.000477,0.000187,  48.115
    62.2,0.000278,0.000244,-0.000477,0.000200,  48.115
    62.4,0.000281,0.000249,-0.000493,0.000165,  48.111
    62.6,0.000284,0.000245,-0.000509,0.000200,  48.111
    62.8,0.000284,0.000249,-0.000537,0.000213,  48.111
    63.0,0.000284,0.000249,-0.000535,0.000165,  48.112
    63.2,0.000282,0.000248,-0.000517,0.000200,  48.113
    63.4,0.000279,0.000252,-0.000491,0.000200,  48.112
    63.6,0.000279,0.000250,-0.000472,0.000165,  48.110
    63.8,0.000282,0.000245,-0.000443,0.000187,  48.113
    64.0,0.000282,0.000247,-0.000427,0.000187,  48.111
    64.2,0.000279,0.000241,-0.000427,0.000165,  48.113
    64.4,0.000274,0.000243,-0.000443,0.000187,  48.111
    64.6,0.000279,0.000245,-0.000469,0.000187,  48.112
    64.8,0.000275,0.000249,-0.000485,0.000165,  48.110
    65.0,0.000278,0.000255,-0.000517,0.000187,  48.107
    65.2,0.000272,0.000253,-0.000530,0.000187,  48.111
    65.4,0.000272,0.000249,-0.000530,0.000165,  48.108
    65.6,0.000269,0.000245,-0.000519,0.000187,  48.109
    65.8,0.000269,0.000248,-0.000506,0.000187,  48.109
    66.0,0.000269,0.000252,-0.000478,0.000200,  48.106
    66.2,0.000278,0.000248,-0.000483,0.000165,  48.090
    66.4,0.000281,0.000247,-0.000494,0.000200,  48.089
    66.6,0.000277,0.000249,-0.000498,0.000200,  48.090
    66.8,0.000283,0.000246,-0.000553,0.000165,  48.087
    67.0,0.000283,0.000246,-0.000615,0.000187,  48.087
    67.2,0.000277,0.000249,-0.000719,0.000187,  48.089
    67.4,0.000281,0.000249,-0.000735,0.000165,  48.092
    67.6,0.000275,0.000254,-0.000717,0.000187,  48.091
    67.8,0.000277,0.000255,-0.000662,0.000187,  48.083
    68.0,0.000277,0.000255,-0.000642,0.000165,  48.085
    68.2,0.000274,0.000255,-0.000613,0.000187,  48.083
    68.4,0.000280,0.000259,-0.000587,0.000187,  48.089
    68.6,0.000283,0.000261,-0.000561,0.000200,  48.085
    68.8,0.000282,0.000261,-0.000545,0.000222,  48.086
    69.0,0.000291,0.000262,-0.000550,0.000235,  48.087
    69.2,0.000296,0.000260,-0.000542,0.000235,  48.083
    69.4,0.000292,0.000257,-0.000542,0.000235,  48.085
    69.6,0.000301,0.000259,-0.000550,0.000248,  48.089
    69.8,0.000301,0.000257,-0.000556,0.000235,  48.088
    70.0,0.000304,0.000258,-0.000553,0.000235,  48.088
    70.2,0.000304,0.000260,-0.000545,0.000248,  48.086
    70.4,0.000313,0.000265,-0.000517,0.000248,  48.089
    70.6,0.000315,0.000263,-0.000478,0.000248,  48.083
    70.8,0.000313,0.000265,-0.000418,0.000262,  48.085
    71.0,0.000319,0.000272,-0.000438,0.000248,  48.085
    71.2,0.000319,0.000270,-0.000501,0.000235,  48.085
    71.4,0.000319,0.000268,-0.000600,0.000248,  48.083
    71.6,0.000310,0.000264,-0.000606,0.000235,  48.084
    71.8,0.000310,0.000264,-0.000572,0.000235,  48.081
    72.0,0.000304,0.000260,-0.000498,0.000248,  48.080
    72.2,0.000306,0.000262,-0.000516,0.000235,  48.080
    72.4,0.000310,0.000260,-0.000555,0.000235,  48.080
    72.6,0.000310,0.000254,-0.000602,0.000248,  48.079
    72.8,0.000301,0.000249,-0.000633,0.000235,  48.081
    73.0,0.000302,0.000247,-0.000677,0.000235,  48.081
    73.2,0.000302,0.000249,-0.000729,0.000248,  48.082
    73.4,0.000296,0.000252,-0.000701,0.000248,  48.079
    73.6,0.000302,0.000257,-0.000644,0.000262,  48.081
    73.8,0.000296,0.000259,-0.000566,0.000275,  48.080
    74.0,0.000296,0.000261,-0.000527,0.000275,  48.079
    74.2,0.000296,0.000260,-0.000490,0.000240,  48.078
    74.4,0.000290,0.000264,-0.000466,0.000262,  48.076
    74.6,0.000296,0.000262,-0.000440,0.000262,  48.080
    74.8,0.000296,0.000260,-0.000427,0.000275,  48.079
    75.0,0.000290,0.000254,-0.000412,0.000262,  48.076
    75.2,0.000296,0.000257,-0.000409,0.000275,  48.077
    75.4,0.000296,0.000253,-0.000472,0.000248,  48.078
    75.6,0.000287,0.000250,-0.000563,0.000270,  48.073
    75.8,0.000293,0.000252,-0.000685,0.000283,  48.076
    76.0,0.000291,0.000248,-0.000683,0.000235,  48.076
    76.2,0.000284,0.000247,-0.000628,0.000235,  48.073
    76.4,0.000288,0.000252,-0.000542,0.000248,  48.074
    76.6,0.000288,0.000250,-0.000514,0.000235,  48.071
    76.8,0.000284,0.000247,-0.000488,0.000235,  48.072
    77.0,0.000291,0.000248,-0.000488,0.000248,  48.071
    77.2,0.000293,0.000248,-0.000493,0.000235,  48.072
    77.4,0.000287,0.000243,-0.000496,0.000235,  48.071
    77.6,0.000293,0.000251,-0.000508,0.000248,  48.071
    77.8,0.000293,0.000247,-0.000519,0.000248,  48.067
    78.0,0.000287,0.000244,-0.000537,0.000262,  48.073
    78.2,0.000293,0.000246,-0.000547,0.000275,  48.064
    78.4,0.000291,0.000252,-0.000545,0.000275,  48.064
    78.6,0.000287,0.000256,-0.000535,0.000275,  48.071
    78.8,0.000291,0.000254,-0.000514,0.000288,  48.068
    79.0,0.000288,0.000254,-0.000501,0.000253,  48.072
    79.2,0.000284,0.000254,-0.000498,0.000240,  48.070
    79.4,0.000288,0.000248,-0.000491,0.000253,  48.069
    79.6,0.000288,0.000248,-0.000488,0.000218,  48.066
    79.8,0.000288,0.000246,-0.000488,0.000240,  48.072
    80.0,0.000288,0.000240,-0.000504,0.000253,  48.063
    80.2,0.000288,0.000242,-0.001044,0.000218,  48.065
    80.4,0.000285,0.000240,-0.001838,0.000240,  48.065
    80.6,0.000276,0.000232,-0.002904,0.000253,  48.060
    80.8,0.000283,0.000232,-0.002922,0.000205,  48.063
    81.0,0.000289,0.000232,-0.002557,0.000227,  48.060
    81.2,0.000289,0.000229,-0.001796,0.000240,  48.061
    81.4,0.000280,0.000229,-0.001544,0.000227,  48.060
    81.6,0.000283,0.000227,-0.001349,0.000248,  48.057
    81.8,0.000280,0.000233,-0.001213,0.000262,  48.059
    82.0,0.000285,0.000235,-0.001088,0.000262,  48.061
    82.2,0.000291,0.000233,-0.001016,0.000248,  48.059
    82.4,0.000290,0.000234,-0.000966,0.000248,  48.058
    82.6,0.000296,0.000234,-0.000903,0.000248,  48.059
    82.8,0.000296,0.000234,-0.000849,0.000213,  48.058
    83.0,0.000298,0.000235,-0.000812,0.000248,  48.054
    83.2,0.000305,0.000239,-0.000768,0.000248,  48.051
    83.4,0.000308,0.000245,-0.000745,0.000262,  48.052
    83.6,0.000308,0.000244,-0.000703,0.000262,  48.049
    83.8,0.000311,0.000248,-0.000684,0.000275,  48.051
    84.0,0.000313,0.000252,-0.000661,0.000262,  48.054
    84.2,0.000313,0.000250,-0.000645,0.000262,  48.052
    84.4,0.000310,0.000248,-0.000645,0.000275,  48.053
    84.6,0.000310,0.000248,-0.000637,0.000262,  48.048
    84.8,0.000310,0.000248,-0.000653,0.000262,  48.048
    85.0,0.000313,0.000250,-0.000655,0.000275,  48.049
    85.2,0.000316,0.000252,-0.000650,0.000275,  48.047
    85.4,0.000319,0.000256,-0.000635,0.000275,  48.047
    85.6,0.000321,0.000258,-0.000611,0.000288,  48.049
    85.8,0.000321,0.000262,-0.000611,0.000288,  48.048
    86.0,0.000324,0.000266,-0.000621,0.000275,  48.045
    86.2,0.000324,0.000270,-0.000634,0.000288,  48.044
    86.4,0.000324,0.000271,-0.000606,0.000288,  48.045
    86.6,0.000327,0.000268,-0.000564,0.000275,  48.048
    86.8,0.000327,0.000270,-0.000506,0.000288,  48.043
    87.0,0.000327,0.000268,-0.000514,0.000288,  48.050
    87.2,0.000335,0.000272,-0.000543,0.000275,  48.047
    87.4,0.000337,0.000276,-0.000608,0.000288,  48.047
    87.6,0.000342,0.000280,-0.000608,0.000288,  48.043
    87.8,0.000348,0.000284,-0.000584,0.000288,  48.041
    88.0,0.000351,0.000286,-0.000545,0.000288,  48.038
    88.2,0.000355,0.000281,-0.000516,0.000288,  48.039
    88.4,0.000357,0.000278,-0.000472,0.000288,  48.043
    88.6,0.000360,0.000280,-0.000422,0.000288,  48.043
    88.8,0.000363,0.000282,-0.000915,0.000288,  48.038
    89.0,0.000363,0.000282,-0.001667,0.000310,  48.044
    89.2,0.000359,0.000288,-0.002687,0.000323,  48.042
    89.4,0.000365,0.000293,-0.002674,0.000288,  48.040
    89.6,0.000368,0.000293,-0.002266,0.000310,  48.042
    89.8,0.000371,0.000296,-0.001489,0.000323,  48.039
    90.0,0.000376,0.000292,-0.001174,0.000288,  48.041
    90.2,0.000376,0.000291,-0.000889,0.000310,  48.041
    90.4,0.000381,0.000297,-0.000664,0.000323,  48.042
    90.6,0.000392,0.000304,-0.000434,0.000288,  48.037
    90.8,0.000400,0.000307,-0.000224,0.000310,  48.041
    91.0,0.000416,0.000308,-0.000049,0.000310,  48.039
    91.2,0.000424,0.000311,0.000127,0.000310,  48.041
    91.4,0.000432,0.000313,0.000290,0.000297,  48.038
    91.6,0.000446,0.000324,0.000449,0.000297,  48.041
    91.8,0.000456,0.000333,0.000620,0.000297,  48.040
    92.0,0.000463,0.000341,0.000783,0.000310,  48.039
    92.2,0.000476,0.000350,0.000946,0.000297,  48.039
    92.4,0.000488,0.000365,0.001102,0.000310,  48.039
    92.6,0.000516,0.000377,0.001352,0.000262,  48.036
    92.8,0.000534,0.000386,0.001619,0.000297,  48.041
    93.0,0.000547,0.000396,0.001918,0.000310,  48.037
    93.2,0.000574,0.000410,0.002196,0.000275,  48.041
    93.4,0.000598,0.000419,0.002458,0.000275,  48.041
    93.6,0.000621,0.000432,0.002712,0.000288,  48.048
    93.8,0.000650,0.000444,0.003014,0.000288,  48.044
    94.0,0.000682,0.000460,0.003333,0.000275,  48.041
    94.2,0.000722,0.000476,0.003673,0.000288,  48.045
    94.4,0.000758,0.000494,0.004084,0.000288,  48.043
    94.6,0.000797,0.000513,0.004534,0.000275,  48.042
    94.8,0.000842,0.000539,0.005032,0.000288,  48.044
    95.0,0.000888,0.000566,0.005546,0.000288,  48.044
    95.2,0.000938,0.000589,0.006091,0.000275,  48.048
    95.4,0.000988,0.000616,0.006666,0.000288,  48.042
    95.6,0.001041,0.000645,0.007274,0.000288,  48.047
    95.8,0.001103,0.000676,0.007898,0.000275,  48.050
    96.0,0.001164,0.000703,0.008561,0.000302,  48.042
    96.2,0.001227,0.000734,0.009279,0.000302,  48.044
    96.4,0.001296,0.000769,0.010031,0.000302,  48.041
    96.6,0.001368,0.000806,0.010824,0.000315,  48.039
    96.8,0.001442,0.000840,0.011738,0.000315,  48.042
    97.0,0.001511,0.000878,0.012724,0.000302,  48.042
    97.2,0.001574,0.000924,0.013800,0.000302,  48.040
    97.4,0.001647,0.000974,0.014810,0.000302,  48.041
    97.6,0.001711,0.001020,0.015819,0.000302,  48.040
    97.8,0.001790,0.001070,0.016842,0.000302,  48.040
    98.0,0.001886,0.001124,0.017997,0.000302,  48.039
    98.2,0.001985,0.001182,0.019217,0.000302,  48.037
    98.4,0.002096,0.001242,0.020513,0.000288,  48.035
    98.6,0.002211,0.001302,0.021826,0.000288,  48.034
    98.8,0.002338,0.001373,0.023183,0.000323,  48.038
    99.0,0.002478,0.001439,0.024577,0.000323,  48.042
    99.2,0.002611,0.001508,0.026119,0.000288,  48.042
    99.4,0.002752,0.001592,0.027758,0.000302,  48.039
    99.6,0.002904,0.001673,0.029480,0.000302,  48.039
    99.8,0.003052,0.001753,0.031243,0.000315,  48.038
   100.0,0.003209,0.001840,0.033086,0.000267,  48.035
   100.2,0.003373,0.001930,0.034991,0.000302,  48.030
   100.4,0.003549,0.002029,0.036673,0.000315,  48.037
   100.6,0.003745,0.002129,0.038267,0.000302,  48.034
   100.8,0.003940,0.002226,0.039794,0.000302,  48.032
   101.0,0.004143,0.002343,0.041216,0.000302,  48.032
   101.2,0.004358,0.002455,0.043310,0.000267,  48.030
   101.4,0.004569,0.002563,0.045624,0.000267,  48.032
   101.6,0.004783,0.002677,0.048171,0.000267,  48.031
   101.8,0.004997,0.002780,0.050686,0.000232,  48.031
   102.0,0.005239,0.002879,0.053283,0.000267,  48.030
   102.2,0.005488,0.002967,0.055974,0.000267,  48.032
   102.4,0.005746,0.003062,0.058782,0.000232,  48.031
   102.6,0.006028,0.003196,0.061685,0.000267,  48.030
   102.8,0.006318,0.003343,0.064708,0.000267,  48.028
   103.0,0.006619,0.003502,0.067897,0.000232,  48.031
   103.2,0.006936,0.003667,0.071214,0.000267,  48.030
   103.4,0.007264,0.003833,0.074683,0.000267,  48.028
   103.6,0.007603,0.004011,0.078353,0.000232,  48.027
   103.8,0.007959,0.004193,0.082198,0.000267,  48.032
   104.0,0.008326,0.004384,0.086227,0.000267,  48.028
   104.2,0.008709,0.004580,0.090254,0.000232,  48.030
   104.4,0.009109,0.004779,0.094408,0.000267,  48.034
   104.6,0.009523,0.004998,0.098652,0.000267,  48.033
   104.8,0.009948,0.005215,0.103092,0.000245,  48.031
   105.0,0.010319,0.005441,0.107700,0.000280,  48.030
   105.2,0.010663,0.005681,0.112476,0.000280,  48.029
   105.4,0.010998,0.005925,0.117408,0.000258,  48.032
   105.6,0.011305,0.006174,0.122523,0.000280,  48.031
   105.8,0.011758,0.006437,0.127804,0.000280,  48.030
   106.0,0.012259,0.006702,0.133237,0.000258,  48.031
   106.2,0.012809,0.006964,0.138841,0.000280,  48.032
   106.4,0.013316,0.007234,0.144607,0.000280,  48.030
   106.6,0.013829,0.007500,0.150691,0.000258,  48.033
   106.8,0.014349,0.007804,0.157038,0.000280,  48.029
   107.0,0.014933,0.008120,0.163657,0.000280,  48.031
   107.2,0.015550,0.008460,0.170214,0.000258,  48.035
   107.4,0.016200,0.008799,0.176849,0.000280,  48.033
   107.6,0.016852,0.009142,0.183579,0.000280,  48.034
   107.8,0.017521,0.009493,0.190717,0.000258,  48.034
   108.0,0.018210,0.009857,0.198098,0.000293,  48.035
   108.2,0.018915,0.010235,0.205734,0.000280,  48.036
   108.4,0.019631,0.010617,0.212358,0.000258,  48.033
   108.6,0.020375,0.011007,0.218556,0.000293,  48.037
   108.8,0.021138,0.011417,0.224327,0.000280,  48.041
   109.0,0.021914,0.011834,0.229626,0.000280,  48.041
   109.2,0.022722,0.012253,0.237296,0.000258,  48.042
   109.4,0.023541,0.012683,0.245689,0.000280,  48.042
   109.6,0.024371,0.013124,0.254882,0.000280,  48.041
   109.8,0.025232,0.013566,0.263630,0.000245,  48.042
   110.0,0.026088,0.014014,0.272537,0.000267,  48.040
   110.2,0.026952,0.014474,0.281626,0.000267,  48.035
   110.4,0.027833,0.014955,0.291115,0.000232,  48.041
   110.6,0.028754,0.015447,0.300926,0.000267,  48.041
   110.8,0.029699,0.015957,0.311023,0.000267,  48.042
   111.0,0.030675,0.016396,0.321167,0.000232,  48.047
   111.2,0.031676,0.016798,0.331521,0.000267,  48.049
   111.4,0.032699,0.017178,0.342057,0.000267,  48.046
   111.6,0.033760,0.017526,0.353011,0.000245,  48.046
   111.8,0.034834,0.018044,0.364303,0.000280,  48.046
   112.0,0.035925,0.018620,0.375953,0.000280,  48.047
   112.2,0.037043,0.019242,0.387784,0.000258,  48.048
   112.4,0.038183,0.019833,0.399893,0.000293,  48.045
   112.6,0.039350,0.020439,0.412288,0.000293,  48.045
   112.8,0.040543,0.021054,0.424732,0.000258,  48.051
   113.0,0.041754,0.021681,0.437344,0.000293,  48.051
   113.2,0.042985,0.022320,0.450126,0.000293,  48.049
   113.4,0.044241,0.022968,0.463221,0.000258,  48.048
   113.6,0.045497,0.023623,0.476558,0.000293,  48.049
   113.8,0.046769,0.024289,0.490152,0.000293,  48.048
   114.0,0.048050,0.024962,0.503893,0.000258,  48.049
   114.2,0.049169,0.025644,0.517774,0.000293,  48.049
   114.4,0.050208,0.026342,0.531908,0.000293,  48.050
   114.6,0.051175,0.027051,0.546155,0.000293,  48.048
   114.8,0.052064,0.027741,0.560524,0.000315,  48.049
   115.0,0.053283,0.028432,0.575023,0.000315,  48.043
   115.2,0.054602,0.029123,0.589968,0.000328,  48.047
   115.4,0.056012,0.029855,0.605223,0.000328,  48.042
   115.6,0.057424,0.030603,0.620782,0.000328,  48.043
   115.8,0.058877,0.031377,0.636360,0.000328,  48.043
   116.0,0.060368,0.032148,0.652068,0.000328,  48.046
   116.2,0.061858,0.032934,0.667961,0.000342,  48.046
   116.4,0.063371,0.033733,0.684152,0.000342,  48.049
   116.6,0.064909,0.034529,0.700573,0.000307,  48.046
   116.8,0.066445,0.035335,0.717197,0.000342,  48.048
   117.0,0.067990,0.036144,0.733957,0.000355,  48.043
   117.2,0.069544,0.036968,0.750810,0.000355,  48.041
   117.4,0.071119,0.037802,0.767783,0.000342,  48.042
   117.6,0.072703,0.038643,0.782616,0.000342,  48.042
   117.8,0.074296,0.039484,0.796197,0.000355,  48.043
   118.0,0.075904,0.040327,0.808438,0.000342,  48.049
   118.2,0.077518,0.041176,0.819107,0.000355,  48.045
   118.4,0.079141,0.042024,0.835073,0.000355,  48.046
   118.6,0.080758,0.042871,0.852431,0.000355,  48.046
   118.8,0.082374,0.043719,0.871452,0.000368,  48.048
   119.0,0.083987,0.044584,0.889386,0.000368,  48.047
   119.2,0.085644,0.045467,0.907587,0.000368,  48.041
   119.4,0.087321,0.046358,0.925984,0.000382,  48.045
   119.6,0.089017,0.047120,0.944430,0.000382,  48.045
   119.8,0.090726,0.047817,0.962823,0.000368,  48.042
   120.0,0.092449,0.048459,0.981120,0.000382,  48.036
   120.2,0.094187,0.049037,0.999906,0.000382,  48.038
   120.4,0.095921,0.049881,1.018799,0.000382,  48.036
   120.6,0.097671,0.050799,1.037688,0.000395,  48.039
   120.8,0.099428,0.051781,1.056799,0.000382,  48.036
   121.0,0.101182,0.052706,1.075943,0.000382,  48.039
   121.2,0.102957,0.053640,1.095189,0.000395,  48.036
   121.4,0.104732,0.054576,1.114416,0.000395,  48.038
   121.6,0.106522,0.055517,1.133576,0.000395,  48.036
   121.8,0.108325,0.056459,1.152739,0.000409,  48.036
   122.0,0.110133,0.057405,1.172275,0.000409,  48.034
   122.2,0.111671,0.058350,1.191852,0.000409,  48.036
   122.4,0.113070,0.059296,1.211577,0.000422,  48.036
   122.6,0.114349,0.060233,1.231185,0.000422,  48.034
   122.8,0.115484,0.061179,1.250593,0.000422,  48.032
   123.0,0.117146,0.062128,1.270040,0.000435,  48.033
   123.2,0.118949,0.063073,1.289435,0.000449,  48.031
   123.4,0.120891,0.063985,1.308600,0.000435,  48.031
   123.6,0.122651,0.064897,1.327631,0.000435,  48.031
   123.8,0.124389,0.065790,1.347197,0.000449,  48.031
   124.0,0.126109,0.066717,1.366417,0.000449,  48.030
   124.2,0.127880,0.067670,1.385561,0.000462,  48.027
   124.4,0.129675,0.068630,1.404986,0.000462,  48.029
   124.6,0.131490,0.069584,1.424067,0.000475,  48.029
   124.8,0.133293,0.070537,1.442715,0.000475,  48.030
   125.0,0.135099,0.071497,1.461965,0.000502,  48.029
   125.2,0.136906,0.072441,1.480927,0.000467,  48.029
   125.4,0.138695,0.073382,1.499754,0.000502,  48.025
   125.6,0.140473,0.074323,1.518900,0.000515,  48.024
   125.8,0.142240,0.075259,1.537298,0.000515,  48.022
   126.0,0.144001,0.076188,1.555657,0.000515,  48.025
   126.2,0.145746,0.077124,1.571873,0.000529,  48.024
   126.4,0.147475,0.078055,1.586271,0.000529,  48.017
   126.6,0.149216,0.078978,1.599286,0.000529,  48.019
   126.8,0.150944,0.079902,1.609796,0.000542,  48.021
   127.0,0.152662,0.080807,1.626186,0.000542,  48.019
   127.2,0.154366,0.081704,1.643904,0.000542,  48.018
   127.4,0.156050,0.082586,1.662735,0.000555,  48.018
   127.6,0.157727,0.083475,1.680528,0.000555,  48.016
   127.8,0.159403,0.084374,1.698299,0.000542,  48.020
   128.0,0.161078,0.085271,1.715190,0.000542,  48.017
   128.2,0.162749,0.086029,1.732333,0.000569,  48.011
   128.4,0.164417,0.086726,1.748855,0.000582,  48.009
   128.6,0.166100,0.087346,1.765109,0.000595,  48.013
   128.8,0.167772,0.087908,1.781511,0.000609,  48.008
   129.0,0.169428,0.088725,1.798062,0.000609,  48.006
   129.2,0.171095,0.089605,1.814242,0.000622,  48.009
   129.4,0.172743,0.090545,1.829974,0.000622,  48.006
   129.6,0.174356,0.091413,1.845743,0.000622,  48.005
   129.8,0.175960,0.092270,1.861543,0.000635,  48.002
   130.0,0.177539,0.093124,1.876742,0.000635,  48.002
   130.2,0.179126,0.093985,1.891875,0.000635,  48.001
   130.4,0.180714,0.094838,1.906923,0.000649,  47.995
   130.6,0.182306,0.095699,1.922510,0.000649,  47.992
   130.8,0.183644,0.096532,1.936624,0.000649,  47.988
   131.0,0.184847,0.097354,1.950511,0.000662,  47.989
   131.2,0.185928,0.098163,1.964845,0.000662,  47.978
   131.4,0.186870,0.098965,1.978164,0.000662,  47.984
   131.6,0.188276,0.099763,1.991118,0.000675,  47.974
   131.8,0.189790,0.100553,2.004471,0.000689,  47.979
   132.0,0.191407,0.101312,2.017431,0.000689,  47.972
   132.2,0.192852,0.102051,2.029091,0.000702,  47.954
   132.4,0.194274,0.102782,2.041942,0.000702,  47.948
   132.6,0.195656,0.103535,2.054307,0.000716,  47.945
   132.8,0.197048,0.104287,2.065193,0.000729,  47.946
   133.0,0.198434,0.105047,2.077291,0.000729,  47.938
   133.2,0.199807,0.105802,2.089735,0.000742,  47.934
   133.4,0.201175,0.106553,2.099556,0.000742,  47.934
   133.6,0.202546,0.107302,2.110617,0.000756,  47.927
   133.8,0.203903,0.108026,2.120933,0.000734,  47.926
   134.0,0.205228,0.108736,2.130432,0.000769,  47.920
   134.2,0.206546,0.109431,2.141236,0.000782,  47.917
   134.4,0.207847,0.110123,2.150077,0.000782,  47.913
   134.6,0.209099,0.110799,2.160249,0.000782,  47.907
   134.8,0.210336,0.111465,2.168329,0.000796,  47.906
   135.0,0.211543,0.112137,2.176551,0.000809,  47.897
   135.2,0.212758,0.112807,2.182530,0.000809,  47.895
   135.4,0.213975,0.113477,2.187369,0.000809,  47.886
   135.6,0.215177,0.114108,2.195969,0.000822,  47.886
   135.8,0.216341,0.114732,2.204743,0.000822,  47.879
   136.0,0.217499,0.115335,2.212408,0.000836,  47.873
   136.2,0.218619,0.115943,2.221524,0.000849,  47.866
   136.4,0.219731,0.116545,2.228159,0.000849,  47.861
   136.6,0.220831,0.117148,2.236269,0.000862,  47.853
   136.8,0.221911,0.117660,2.244520,0.000862,  47.848
   137.0,0.222996,0.118129,2.251519,0.000849,  47.844
   137.2,0.224083,0.118551,2.257213,0.000862,  47.817
   137.4,0.225164,0.118927,2.264410,0.000862,  47.810
   137.6,0.226199,0.119464,2.271728,0.000862,  47.806
   137.8,0.227221,0.120039,2.277667,0.000876,  47.795
   138.0,0.228233,0.120655,2.285214,0.000876,  47.791
   138.2,0.229213,0.121204,2.289805,0.000876,  47.781
   138.4,0.230179,0.121738,2.296014,0.000889,  47.779
   138.6,0.231124,0.122258,2.302303,0.000889,  47.771
   138.8,0.232070,0.122783,2.308690,0.000889,  47.762
   139.0,0.233012,0.123305,2.311919,0.000889,  47.756
   139.2,0.233932,0.123830,2.316808,0.000889,  47.740
   139.4,0.234709,0.124329,2.323413,0.000889,  47.739
   139.6,0.235405,0.124806,2.328439,0.000889,  47.730
   139.8,0.236018,0.125275,2.333524,0.000889,  47.717
   140.0,0.236558,0.125757,2.338670,0.000889,  47.693
   140.2,0.237348,0.126233,2.342141,0.000903,  47.684
   140.4,0.238190,0.126704,2.347378,0.000903,  47.674
   140.6,0.239086,0.127152,2.352680,0.000903,  47.664
   140.8,0.239907,0.127589,2.356238,0.000916,  47.654
   141.0,0.240726,0.128008,2.359832,0.000929,  47.643
   141.2,0.241544,0.128433,2.365294,0.000916,  47.631
   141.4,0.242305,0.128857,2.368975,0.000916,  47.622
   141.6,0.243047,0.129273,2.374549,0.000929,  47.608
   141.8,0.243758,0.129700,2.376426,0.000929,  47.597
   142.0,0.244481,0.130125,2.380197,0.000929,  47.588
   142.2,0.245213,0.130552,2.385918,0.000943,  47.552
   142.4,0.245935,0.130959,2.387839,0.000921,  47.543
   142.6,0.246624,0.131360,2.389768,0.000956,  47.534
   142.8,0.247307,0.131757,2.391706,0.000969,  47.518
   143.0,0.247976,0.132135,2.395618,0.000969,  47.501
   143.2,0.248594,0.132499,2.397588,0.000969,  47.488
   143.4,0.249201,0.132854,2.399572,0.000983,  47.479
   143.6,0.249776,0.133213,2.405562,0.000996,  47.467
   143.8,0.250386,0.133572,2.407572,0.000996,  47.445
   144.0,0.251010,0.133930,2.409597,0.001009,  47.416
   144.2,0.251629,0.134274,2.411717,0.001009,  47.395
   144.4,0.252223,0.134614,2.415950,0.001009,  47.381
   144.6,0.252826,0.134946,2.414081,0.001009,  47.365
   144.8,0.253409,0.135277,2.416140,0.001009,  47.354
   145.0,0.253982,0.135605,2.420217,0.001044,  47.332
   145.2,0.254549,0.135933,2.424268,0.001058,  47.291
   145.4,0.255106,0.136223,2.426327,0.001036,  47.281
   145.6,0.255677,0.136485,2.428408,0.001071,  47.263
   145.8,0.256260,0.136740,2.430505,0.001098,  47.243
   146.0,0.256838,0.136964,2.434767,0.001076,  47.224
   146.2,0.257383,0.137271,2.436923,0.001076,  47.200
   146.4,0.257920,0.137597,2.436939,0.001090,  47.164
   146.6,0.258438,0.137945,2.439094,0.001090,  47.142
   146.8,0.258981,0.138274,2.441266,0.001103,  47.119
   147.0,0.259529,0.138605,2.443454,0.001116,  47.097
   147.2,0.260089,0.138941,2.445642,0.001116,  47.082
   147.4,0.260648,0.139268,2.447836,0.001116,  47.043
   147.6,0.261207,0.139592,2.450052,0.001130,  47.015
   147.8,0.261779,0.139929,2.454524,0.001130,  46.987
   148.0,0.262267,0.140258,2.456780,0.001130,  46.963
   148.2,0.262717,0.140575,2.456780,0.001143,  46.916
   148.4,0.263140,0.140904,2.459042,0.001156,  46.893
   148.6,0.263518,0.141243,2.461316,0.001156,  46.869
   148.8,0.264053,0.141583,2.463608,0.001170,  46.840
   149.0,0.264632,0.141930,2.465896,0.001183,  46.814
   149.2,0.265251,0.142285,2.468196,0.001170,  46.764
   149.4,0.265870,0.142645,2.470514,0.001156,  46.739
   149.6,0.266510,0.143007,2.475214,0.001143,  46.709
   149.8,0.267177,0.143359,2.475230,0.001130,  46.661
   150.0,0.267775,0.143713,2.475258,0.001116,  46.629
   150.2,0.268359,0.144068,2.477624,0.001116,  46.589
   150.4,0.268925,0.144442,2.477613,0.001130,  46.548
   150.6,0.269575,0.144831,2.479971,0.001130,  46.514
   150.8,0.270248,0.145235,2.484765,0.001130,  46.480
   151.0,0.270955,0.145645,2.484765,0.001095,  46.444
   151.2,0.271662,0.146066,2.487185,0.001130,  46.377
   151.4,0.272384,0.146499,2.489607,0.001130,  46.347
   151.6,0.273129,0.146914,2.492048,0.001130,  46.294
   151.8,0.273840,0.147325,2.492048,0.001130,  46.256
   152.0,0.274536,0.147738,2.494509,0.001130,  46.210
   152.2,0.275239,0.148176,2.496983,0.001130,  46.145
   152.4,0.276038,0.148631,2.499477,0.001130,  46.111
   152.6,0.276873,0.149088,2.499494,0.001130,  46.048
   152.8,0.277761,0.149573,2.501997,0.001130,  45.999
   153.0,0.278650,0.150085,2.501997,0.001130,  45.954
   153.2,0.279560,0.150617,2.504514,0.001130,  45.879
   153.4,0.280509,0.151148,2.509588,0.001103,  45.848
   153.6,0.281480,0.151702,2.512156,0.001076,  45.779
   153.8,0.282467,0.152272,2.512156,0.001090,  45.728
   154.0,0.283488,0.152775,2.514728,0.001076,  45.661
   154.2,0.284536,0.153245,2.519929,0.001076,  45.593
   154.4,0.285618,0.153702,2.517316,0.001076,  45.536
   154.6,0.286713,0.154121,2.519918,0.001063,  45.481
   154.8,0.287847,0.154698,2.522537,0.001050,  45.412
   155.0,0.289008,0.155329,2.522532,0.001050,  45.354
   155.2,0.290204,0.156005,2.525167,0.001036,  45.266
   155.4,0.291450,0.156692,2.527828,0.001023,  45.210
   155.6,0.292730,0.157410,2.530512,0.001009,  45.150
   155.8,0.294068,0.158154,2.533206,0.000996,  45.093
   156.0,0.295430,0.158907,2.535923,0.000983,  45.027
   156.2,0.296811,0.159677,2.535934,0.000969,  44.934
   156.4,0.298235,0.160472,2.538657,0.000943,  44.872
   156.6,0.299695,0.161280,2.544149,0.000929,  44.804
   156.8,0.301180,0.162103,2.541375,0.000916,  44.725
   157.0,0.302703,0.162943,2.544149,0.000903,  44.647
   157.2,0.304012,0.163810,2.546951,0.000889,  44.571
   157.4,0.305229,0.164699,2.546989,0.000876,  44.506
   157.6,0.306369,0.165607,2.549771,0.000849,  44.446
   157.8,0.307405,0.166512,2.552566,0.000836,  44.369
   158.0,0.308907,0.167431,2.552533,0.000822,  44.283
   158.2,0.310527,0.168361,2.558199,0.000796,  44.204
   158.4,0.312278,0.169286,2.558194,0.000769,  44.144
   158.6,0.313889,0.170212,2.558188,0.000756,  44.059
   158.8,0.315489,0.171128,2.561055,0.000729,  43.984
   159.0,0.317086,0.172084,2.563941,0.000716,  43.923
   159.2,0.318759,0.173051,2.563941,0.000702,  43.830
   159.4,0.320455,0.174028,2.566840,0.000675,  43.768
   159.6,0.322197,0.175021,2.566835,0.000635,  43.701
   159.8,0.323918,0.176030,2.569754,0.000609,  43.623
   160.0,0.325640,0.177050,2.572693,0.000622,  43.545
   160.2,0.327369,0.178041,2.572693,0.000560,  43.475
   160.4,0.329066,0.179030,2.572698,0.000595,  43.413
   160.6,0.330734,0.180015,2.575663,0.000595,  43.342
   160.8,0.332393,0.181019,2.575663,0.000582,  43.285
   161.0,0.334104,0.182032,2.578642,0.000569,  43.215
   161.2,0.335827,0.183058,2.575658,0.000569,  43.142
   161.4,0.337574,0.184070,2.578653,0.000569,  43.088
   161.6,0.339277,0.185078,2.578675,0.000555,  43.020
   161.8,0.340962,0.186086,2.581713,0.000555,  42.974
   162.0,0.342643,0.187075,2.584739,0.000555,  42.910
   162.2,0.344271,0.188041,2.584728,0.000542,  42.854
   162.4,0.345859,0.189003,2.584712,0.000529,  42.806
   162.6,0.347417,0.189964,2.587749,0.000529,  42.760
   162.8,0.348952,0.190904,2.590807,0.000529,  42.704
   163.0,0.350450,0.191846,2.587733,0.000515,  42.667
   163.2,0.351912,0.192631,2.587744,0.000515,  42.609
   163.4,0.353360,0.193330,2.590829,0.000529,  42.587
   163.6,0.354778,0.193945,2.590867,0.000529,  42.553
   163.8,0.356164,0.194471,2.590862,0.000529,  42.512
   164.0,0.357525,0.195264,2.593947,0.000550,  42.478
   164.2,0.358841,0.196110,2.593926,0.000564,  42.443
   164.4,0.360125,0.197001,2.597023,0.000529,  42.428
   164.6,0.361370,0.197819,2.597012,0.000564,  42.408
   164.8,0.362570,0.198620,2.597006,0.000564,  42.387
   165.0,0.363731,0.199407,2.600137,0.000529,  42.379
   165.2,0.364833,0.200153,2.600137,0.000564,  42.347
   165.4,0.365877,0.200862,2.600147,0.000577,  42.343
   165.6,0.366868,0.201543,2.603317,0.000555,  42.336
   165.8,0.367824,0.202210,2.603322,0.000590,  42.337
   166.0,0.368738,0.202848,2.600180,0.000604,  42.335
   166.2,0.369605,0.203460,2.603338,0.000582,  42.338
   166.4,0.370306,0.204036,2.603328,0.000590,  42.339
   166.6,0.370897,0.204585,2.600153,0.000604,  42.349
   166.8,0.371395,0.205094,2.603312,0.000609,  42.357
   167.0,0.371774,0.205563,2.603322,0.000670,  42.367
   167.2,0.372311,0.205987,2.600175,0.000684,  42.389
   167.4,0.372835,0.206372,2.603322,0.000649,  42.416
   167.6,0.373366,0.206749,2.603306,0.000684,  42.436
   167.8,0.373810,0.207096,2.600131,0.000697,  42.459
   168.0,0.374217,0.207422,2.603279,0.000662,  42.484
   168.2,0.374581,0.207726,2.603268,0.000697,  42.535
   168.4,0.374895,0.208007,2.600110,0.000711,  42.557
   168.6,0.375171,0.208264,2.603268,0.000689,  42.591
   168.8,0.375397,0.208488,2.603273,0.000711,  42.641
   169.0,0.375573,0.208684,2.600131,0.000711,  42.678
   169.2,0.375692,0.208849,2.603290,0.000724,  42.724
   169.4,0.375749,0.209021,2.603290,0.000711,  42.766
   169.6,0.375850,0.209185,2.600137,0.000711,  42.813
   169.8,0.375944,0.209338,2.603290,0.000724,  42.873
   170.0,0.376019,0.209453,2.603290,0.000737,  42.918
   170.2,0.376013,0.209546,2.600126,0.000751,  42.996
   170.4,0.375956,0.209618,2.600126,0.000764,  43.033
   170.6,0.375849,0.209643,2.600126,0.000742,  43.101
   170.8,0.375673,0.209631,2.600131,0.000791,  43.149
   171.0,0.375435,0.209587,2.600137,0.000804,  43.224
   171.2,0.375152,0.209538,2.600137,0.000769,  43.308
   171.4,0.374838,0.209473,2.600131,0.000804,  43.349
   171.6,0.374481,0.209386,2.600131,0.000817,  43.424
   171.8,0.374092,0.209266,2.603284,0.000796,  43.492
   172.0,0.373673,0.209115,2.603284,0.000844,  43.558
   172.2,0.373210,0.208941,2.600126,0.000857,  43.647
   172.4,0.372710,0.208773,2.603284,0.000836,  43.711
   172.6,0.372211,0.208589,2.600131,0.000857,  43.775
   172.8,0.371681,0.208405,2.597001,0.000871,  43.851
   173.0,0.371145,0.208231,2.600131,0.000849,  43.916
   173.2,0.370561,0.208053,2.596985,0.000884,  44.001
   173.4,0.369928,0.207886,2.596974,0.000897,  44.064
   173.6,0.369271,0.207711,2.596968,0.000862,  44.141
   173.8,0.368590,0.207459,2.596968,0.000897,  44.210
   174.0,0.367879,0.207165,2.593861,0.000911,  44.290
   174.2,0.367139,0.206849,2.593866,0.000876,  44.385
   174.4,0.366387,0.206533,2.593882,0.000924,  44.436
   174.6,0.365607,0.206206,2.590818,0.000924,  44.518
   174.8,0.364815,0.205861,2.590900,0.000889,  44.595
   175.0,0.363988,0.205510,2.591024,0.000924,  44.659
   175.2,0.363114,0.205149,2.588123,0.000938,  44.755
   175.4,0.362217,0.204781,2.588112,0.000916,  44.820
   175.6,0.361316,0.204345,2.588037,0.000951,  44.887
   175.8,0.360374,0.203879,2.584859,0.000964,  44.966
   176.0,0.359422,0.203373,2.581784,0.000943,  45.039
   176.2,0.358605,0.202900,2.581751,0.000951,  45.118
   176.4,0.357838,0.202433,2.581729,0.000951,  45.178
   176.6,0.357133,0.201961,2.578696,0.000916,  45.244
   176.8,0.356477,0.201475,2.578691,0.000938,  45.319
   177.0,0.355528,0.200985,2.578686,0.000938,  45.394
   177.2,0.354503,0.200486,2.581675,0.000916,  45.472
   177.4,0.353384,0.199970,2.578664,0.000951,  45.527
   177.6,0.352329,0.199434,2.572709,0.000951,  45.588
   177.8,0.351246,0.198884,2.575669,0.000929,  45.657
   178.0,0.350154,0.198376,2.572698,0.000964,  45.731
   178.2,0.349130,0.197881,2.569759,0.000964,  45.796
   178.4,0.348108,0.197401,2.569759,0.000978,  45.857
   178.6,0.347106,0.196871,2.566829,0.000964,  45.911
   178.8,0.346042,0.196328,2.563925,0.000964,  45.977
   179.0,0.344945,0.195774,2.563925,0.000964,  46.029
   179.2,0.343816,0.195201,2.561039,0.000978,  46.106
   179.4,0.342673,0.194610,2.561039,0.000943,  46.145
   179.6,0.341503,0.194011,2.558172,0.000956,  46.210
   179.8,0.340319,0.193407,2.558161,0.000956,  46.257
   180.0,0.339121,0.192788,2.552473,0.000956,  46.323
   180.2,0.337910,0.192161,2.552457,0.000956,  46.373
   180.4,0.336678,0.191526,2.552452,0.000956,  46.420
   180.6,0.335450,0.190881,2.549635,0.000943,  46.468
   180.8,0.334203,0.190232,2.546842,0.000956,  46.505
   181.0,0.332942,0.189591,2.546848,0.000956,  46.562
   181.2,0.331707,0.188956,2.546853,0.000956,  46.612
   181.4,0.330465,0.188326,2.541332,0.000969,  46.651
   181.6,0.329232,0.187771,2.541326,0.000969,  46.689
   181.8,0.327968,0.187261,2.538581,0.000969,  46.722
   182.0,0.326702,0.186791,2.533147,0.000983,  46.777
   182.2,0.325430,0.186364,2.530457,0.000983,  46.820
   182.4,0.324143,0.185752,2.527785,0.000969,  46.843
   182.6,0.322861,0.185095,2.525139,0.000983,  46.875
   182.8,0.321561,0.184384,2.522510,0.000983,  46.920
   183.0,0.320264,0.183708,2.517283,0.000969,  46.952
   183.2,0.318965,0.183030,2.514701,0.000983,  46.985
   183.4,0.317660,0.182347,2.512118,0.000969,  47.025
   183.6,0.316325,0.181666,2.509551,0.000991,  47.054
   183.8,0.314983,0.180992,2.507003,0.000991,  47.076
   184.0,0.313624,0.180304,2.504466,0.000956,  47.099
   184.2,0.312487,0.179590,2.499445,0.000978,  47.145
   184.4,0.311450,0.178877,2.496961,0.000978,  47.163
   184.6,0.310513,0.178141,2.496961,0.000943,  47.188
   184.8,0.309676,0.177423,2.492026,0.000964,  47.207
   185.0,0.308452,0.176714,2.487157,0.000964,  47.234
   185.2,0.307124,0.176003,2.484732,0.000929,  47.279
   185.4,0.305692,0.175290,2.479928,0.000964,  47.292
   185.6,0.304362,0.174582,2.475176,0.000964,  47.312
   185.8,0.303025,0.173872,2.470470,0.000929,  47.332
   186.0,0.301682,0.173148,2.465820,0.000964,  47.352
   186.2,0.300342,0.172417,2.461219,0.000964,  47.385
   186.4,0.299007,0.171673,2.458934,0.000943,  47.399
   186.6,0.297655,0.170977,2.454410,0.000978,  47.411
   186.8,0.296359,0.170303,2.447722,0.000978,  47.430
   187.0,0.295088,0.169638,2.443318,0.000991,  47.446
   187.2,0.293842,0.168942,2.441141,0.000978,  47.463
   187.4,0.292531,0.168249,2.432509,0.000978,  47.473
   187.6,0.291204,0.167545,2.428251,0.000978,  47.505
   187.8,0.289866,0.166827,2.424029,0.000978,  47.517
   188.0,0.288548,0.166118,2.421931,0.000978,  47.530
   188.2,0.287228,0.165399,2.417764,0.000978,  47.540
   188.4,0.285906,0.164671,2.413647,0.000956,  47.553
   188.6,0.284570,0.163937,2.407550,0.000978,  47.560
   188.8,0.283216,0.163195,2.401543,0.000978,  47.573
   189.0,0.281858,0.162454,2.397566,0.000956,  47.586
   189.2,0.280497,0.161709,2.389735,0.000978,  47.594
   189.4,0.279142,0.160963,2.382043,0.000978,  47.601
   189.6,0.277781,0.160232,2.378245,0.000956,  47.627
   189.8,0.276427,0.159503,2.370751,0.000943,  47.634
   190.0,0.275083,0.158779,2.363395,0.000943,  47.648
   190.2,0.273744,0.158151,2.357955,0.000956,  47.654
   190.4,0.272388,0.157560,2.350801,0.000943,  47.657
   190.6,0.271032,0.157030,2.343768,0.000943,  47.664
   190.8,0.269670,0.156539,2.336852,0.000956,  47.670
   191.0,0.268323,0.155852,2.330045,0.000943,  47.677
   191.2,0.266980,0.155118,2.321687,0.000943,  47.684
   191.4,0.265641,0.154338,2.315107,0.000956,  47.687
   191.6,0.264301,0.153598,2.308630,0.000943,  47.694
   191.8,0.262961,0.152851,2.300661,0.000943,  47.694
   192.0,0.261610,0.152102,2.294384,0.000956,  47.702
   192.2,0.260249,0.151364,2.286676,0.000943,  47.709
   192.4,0.258872,0.150626,2.277601,0.000943,  47.711
   192.6,0.257481,0.149888,2.270178,0.000943,  47.714
   192.8,0.256324,0.149147,2.259998,0.000916,  47.720
   193.0,0.255279,0.148402,2.251471,0.000916,  47.725
   193.2,0.254328,0.147654,2.244472,0.000916,  47.726
   193.4,0.253492,0.146906,2.234855,0.000903,  47.729
   193.6,0.252250,0.146164,2.226776,0.000903,  47.752
   193.8,0.250904,0.145420,2.218845,0.000903,  47.755
   194.0,0.249458,0.144676,2.209778,0.000903,  47.756
   194.2,0.248130,0.143942,2.199637,0.000903,  47.760
   194.4,0.246810,0.143215,2.190953,0.000903,  47.761
   194.6,0.245495,0.142472,2.182449,0.000903,  47.767
   194.8,0.244188,0.141720,2.171754,0.000903,  47.766
   195.0,0.242889,0.140970,2.163609,0.000903,  47.764
   195.2,0.241595,0.140271,2.154490,0.000903,  47.770
   195.4,0.240325,0.139589,2.145553,0.000889,  47.774
   195.6,0.239080,0.138927,2.136801,0.000889,  47.774
   195.8,0.237851,0.138234,2.128233,0.000889,  47.779
   196.0,0.236576,0.137535,2.117753,0.000876,  47.781
   196.2,0.235287,0.136827,2.108523,0.000876,  47.781
   196.4,0.233984,0.136118,2.099486,0.000841,  47.785
   196.6,0.232717,0.135403,2.088689,0.000889,  47.788
   196.8,0.231444,0.134693,2.080045,0.000889,  47.785
   197.0,0.230172,0.133974,2.072503,0.000889,  47.789
   197.2,0.228879,0.133249,2.065089,0.000889,  47.790
   197.4,0.227576,0.132522,2.058704,0.000889,  47.794
   197.6,0.226255,0.131798,2.049749,0.000889,  47.793
   197.8,0.224969,0.131086,2.039247,0.000889,  47.800
   198.0,0.223691,0.130371,2.027312,0.000903,  47.800
   198.2,0.222432,0.129655,2.017333,0.000903,  47.800
   198.4,0.221160,0.128938,2.007590,0.000903,  47.803
   198.6,0.219894,0.128224,1.996495,0.000916,  47.805
   198.8,0.218637,0.127514,1.986422,0.000916,  47.807
   199.0,0.217371,0.126800,1.975823,0.000903,  47.810
   199.2,0.216111,0.126081,1.964742,0.000889,  47.813
   199.4,0.214857,0.125472,1.954648,0.000889,  47.812
   199.6,0.213589,0.124919,1.943398,0.000889,  47.810
   199.8,0.212327,0.124410,1.932432,0.000876,  47.812
   200.0,0.211071,0.123961,1.922402,0.000876,  47.815
   200.2,0.209818,0.123294,1.911957,0.000889,  47.808
   200.4,0.208582,0.122577,1.900510,0.000889,  47.810
   200.6,0.207345,0.121809,1.889966,0.000889,  47.814
   200.8,0.206082,0.121096,1.880277,0.000889,  47.812
   201.0,0.204812,0.120390,1.869048,0.000889,  47.818
   201.2,0.203533,0.119696,1.858093,0.000889,  47.817
   201.4,0.202293,0.118991,1.846858,0.000876,  47.820
   201.6,0.201076,0.118291,1.834830,0.000889,  47.820
   201.8,0.199881,0.117591,1.824148,0.000876,  47.825
   202.0,0.198656,0.116902,1.813202,0.000862,  47.820
   202.2,0.197437,0.116219,1.802519,0.000876,  47.823
   202.4,0.196223,0.115541,1.792103,0.000862,  47.824
   202.6,0.195185,0.114854,1.780508,0.000862,  47.824
   202.8,0.194238,0.114161,1.769226,0.000876,  47.827
   203.0,0.193382,0.113466,1.756971,0.000862,  47.830
   203.2,0.192624,0.112783,1.744246,0.000862,  47.827
   203.4,0.191526,0.112101,1.730677,0.000876,  47.832
   203.6,0.190362,0.111427,1.720186,0.000876,  47.826
   203.8,0.189122,0.110776,1.710260,0.000876,  47.831
   204.0,0.187980,0.110142,1.701661,0.000889,  47.832
   204.2,0.186864,0.109526,1.691774,0.000876,  47.830
   204.4,0.185758,0.108886,1.681367,0.000862,  47.835
   204.6,0.184613,0.108236,1.671213,0.000876,  47.832
   204.8,0.183464,0.107593,1.661283,0.000862,  47.832
   205.0,0.182301,0.106951,1.650523,0.000862,  47.835
   205.2,0.181156,0.106309,1.640033,0.000862,  47.836
   205.4,0.180025,0.105667,1.629784,0.000876,  47.838
   205.6,0.178903,0.105018,1.619118,0.000827,  47.838
   205.8,0.177747,0.104353,1.608397,0.000862,  47.837
   206.0,0.176595,0.103679,1.599183,0.000862,  47.836
   206.2,0.175434,0.103033,1.591078,0.000849,  47.834
   206.4,0.174296,0.102390,1.583126,0.000857,  47.833
   206.6,0.173177,0.101753,1.576204,0.000871,  47.837
   206.8,0.172066,0.101112,1.566176,0.000849,  47.839
   207.0,0.170948,0.100472,1.555248,0.000884,  47.841
   207.2,0.169835,0.099828,1.544035,0.000897,  47.842
   207.4,0.168729,0.099192,1.533378,0.000862,  47.842
   207.6,0.167620,0.098555,1.522456,0.000884,  47.840
   207.8,0.166519,0.097919,1.511545,0.000897,  47.843
   208.0,0.165424,0.097286,1.500896,0.000862,  47.845
   208.2,0.164323,0.096658,1.490513,0.000897,  47.842
   208.4,0.163234,0.096033,1.480373,0.000911,  47.840
   208.6,0.162151,0.095494,1.469982,0.000862,  47.843
   208.8,0.161070,0.095003,1.459611,0.000897,  47.844
   209.0,0.160001,0.094561,1.449031,0.000911,  47.843
   209.2,0.158941,0.094158,1.439143,0.000862,  47.844
   209.4,0.157845,0.093575,1.429056,0.000862,  47.844
   209.6,0.156742,0.092942,1.418996,0.000876,  47.844
   209.8,0.155637,0.092269,1.408753,0.000849,  47.843
   210.0,0.154572,0.091649,1.398351,0.000836,  47.845
   210.2,0.153536,0.091044,1.387624,0.000849,  47.846
   210.4,0.152522,0.090442,1.377700,0.000836,  47.849
   210.6,0.151476,0.089841,1.367629,0.000836,  47.851
   210.8,0.150436,0.089246,1.357781,0.000849,  47.849
   211.0,0.149390,0.088657,1.347985,0.000849,  47.844
   211.2,0.148509,0.088064,1.338060,0.000849,  47.843
   211.4,0.147707,0.087476,1.328027,0.000862,  47.842
   211.6,0.146989,0.086888,1.317902,0.000849,  47.844
   211.8,0.146351,0.086299,1.307854,0.000836,  47.845
   212.0,0.145434,0.085717,1.297725,0.000849,  47.848
   212.2,0.144455,0.085142,1.288251,0.000836,  47.850
   212.4,0.143429,0.084584,1.279123,0.000836,  47.851
   212.6,0.142462,0.084029,1.270319,0.000849,  47.847
   212.8,0.141501,0.083498,1.261123,0.000836,  47.851
   213.0,0.140555,0.082944,1.251986,0.000836,  47.849
   213.2,0.139576,0.082388,1.242899,0.000836,  47.848
   213.4,0.138592,0.081831,1.233722,0.000836,  47.853
   213.6,0.137605,0.081279,1.224607,0.000822,  47.854
   213.8,0.136634,0.080726,1.215549,0.000822,  47.852
   214.0,0.135674,0.080176,1.206427,0.000822,  47.845
   214.2,0.134726,0.079613,1.197250,0.000801,  47.848
   214.4,0.133758,0.079040,1.187902,0.000836,  47.848
   214.6,0.132805,0.078469,1.178860,0.000849,  47.852
   214.8,0.131854,0.077921,1.169769,0.000836,  47.851
   215.0,0.130905,0.077388,1.160761,0.000836,  47.847
   215.2,0.129973,0.076865,1.153160,0.000849,  47.848
   215.4,0.129055,0.076333,1.146127,0.000836,  47.847
   215.6,0.128133,0.075799,1.139757,0.000836,  47.849
   215.8,0.127210,0.075264,1.133795,0.000849,  47.849
   216.0,0.126292,0.074732,1.125592,0.000836,  47.848
   216.2,0.125379,0.074203,1.116723,0.000836,  47.849
   216.4,0.124465,0.073678,1.107318,0.000849,  47.848
   216.6,0.123550,0.073151,1.098608,0.000836,  47.842
   216.8,0.122653,0.072625,1.090064,0.000836,  47.850
   217.0,0.121755,0.072105,1.081590,0.000849,  47.846
   217.2,0.120859,0.071656,1.072997,0.000836,  47.849
   217.4,0.119985,0.071248,1.064469,0.000836,  47.848
   217.6,0.119107,0.070870,1.055924,0.000849,  47.844
   217.8,0.118234,0.070537,1.047633,0.000836,  47.846
   218.0,0.117346,0.070047,1.039328,0.000836,  47.844
   218.2,0.116448,0.069518,1.031015,0.000836,  47.846
   218.4,0.115539,0.068953,1.022685,0.000822,  47.844
   218.6,0.114673,0.068435,1.014360,0.000809,  47.840
   218.8,0.113819,0.067940,1.006106,0.000809,  47.845
   219.0,0.112987,0.067449,0.998001,0.000809,  47.844
   219.2,0.112137,0.066953,0.990054,0.000809,  47.848
   219.4,0.111308,0.066462,0.982170,0.000809,  47.847
   219.6,0.110477,0.065978,0.974277,0.000822,  47.845
   219.8,0.109645,0.065493,0.966321,0.000822,  47.844
   220.0,0.108834,0.065015,0.958366,0.000822,  47.837
   220.2,0.108025,0.064538,0.950538,0.000836,  47.840
   220.4,0.107337,0.064070,0.942705,0.000822,  47.843
   220.6,0.106720,0.063607,0.934879,0.000822,  47.843
   220.8,0.106156,0.063150,0.927522,0.000836,  47.841
   221.0,0.105672,0.062697,0.920286,0.000822,  47.842
   221.2,0.104941,0.062248,0.913104,0.000822,  47.846
   221.4,0.104163,0.061800,0.905912,0.000822,  47.843
   221.6,0.103339,0.061344,0.898779,0.000809,  47.843
   221.8,0.102548,0.060886,0.891510,0.000809,  47.841
   222.0,0.101761,0.060422,0.884310,0.000809,  47.846
   222.2,0.100966,0.059968,0.877180,0.000809,  47.842
   222.4,0.100189,0.059524,0.869931,0.000809,  47.840
   222.6,0.099432,0.059077,0.862664,0.000809,  47.843
   222.8,0.098671,0.058623,0.855460,0.000809,  47.844
   223.0,0.097905,0.058173,0.848196,0.000796,  47.836
   223.2,0.097152,0.057720,0.841165,0.000809,  47.840
   223.4,0.096391,0.057279,0.834311,0.000761,  47.840
   223.6,0.095639,0.056847,0.827564,0.000796,  47.842
   223.8,0.094907,0.056423,0.821700,0.000809,  47.841
   224.0,0.094166,0.055996,0.816385,0.000796,  47.840
   224.2,0.093424,0.055568,0.811487,0.000796,  47.840
   224.4,0.092687,0.055144,0.807010,0.000796,  47.839
   224.6,0.091950,0.054721,0.800765,0.000809,  47.837
   224.8,0.091222,0.054300,0.794017,0.000796,  47.836
   225.0,0.090504,0.053886,0.786889,0.000796,  47.837
   225.2,0.089800,0.053460,0.780357,0.000809,  47.836
   225.4,0.089085,0.053041,0.773740,0.000796,  47.835
   225.6,0.088380,0.052624,0.767239,0.000796,  47.842
   225.8,0.087683,0.052268,0.760721,0.000809,  47.841
   226.0,0.086994,0.051943,0.754160,0.000796,  47.839
   226.2,0.086325,0.051660,0.747602,0.000796,  47.836
   226.4,0.085663,0.051398,0.741196,0.000809,  47.834
   226.6,0.084971,0.051015,0.734797,0.000796,  47.840
   226.8,0.084282,0.050600,0.728449,0.000796,  47.840
   227.0,0.083576,0.050158,0.722108,0.000796,  47.836
   227.2,0.082896,0.049757,0.715865,0.000782,  47.834
   227.4,0.082243,0.049367,0.709588,0.000782,  47.832
   227.6,0.081591,0.048979,0.703511,0.000782,  47.838
   227.8,0.080927,0.048592,0.697567,0.000782,  47.835
   228.0,0.080277,0.048210,0.691698,0.000782,  47.837
   228.2,0.079628,0.047832,0.685299,0.000782,  47.838
   228.4,0.078980,0.047456,0.678710,0.000782,  47.837
   228.6,0.078352,0.047090,0.671927,0.000782,  47.834
   228.8,0.077731,0.046720,0.666110,0.000782,  47.838
   229.0,0.077199,0.046354,0.660641,0.000782,  47.835
   229.2,0.076713,0.046001,0.655495,0.000782,  47.833
   229.4,0.076286,0.045646,0.650159,0.000782,  47.831
   229.6,0.075905,0.045290,0.644898,0.000782,  47.832
   229.8,0.075341,0.044940,0.639705,0.000782,  47.834
   230.0,0.074753,0.044589,0.634465,0.000782,  47.835
   230.2,0.074121,0.044227,0.629224,0.000782,  47.830
   230.4,0.073516,0.043869,0.623990,0.000782,  47.829
   230.6,0.072911,0.043514,0.618757,0.000782,  47.834
   230.8,0.072307,0.043162,0.613468,0.000782,  47.833
   231.0,0.071717,0.042812,0.608119,0.000782,  47.830
   231.2,0.071136,0.042474,0.602729,0.000782,  47.830
   231.4,0.070560,0.042129,0.597286,0.000782,  47.831
   231.6,0.069972,0.041786,0.591782,0.000782,  47.832
   231.8,0.069394,0.041444,0.586595,0.000796,  47.832
   232.0,0.068807,0.041105,0.581530,0.000747,  47.828
   232.2,0.068231,0.040767,0.576559,0.000782,  47.830
   232.4,0.067665,0.040434,0.572228,0.000796,  47.829
   232.6,0.067105,0.040101,0.568310,0.000782,  47.830
   232.8,0.066540,0.039768,0.564698,0.000782,  47.832
   233.0,0.065985,0.039439,0.561427,0.000769,  47.833
   233.2,0.065437,0.039109,0.556845,0.000769,  47.828
   233.4,0.064884,0.038787,0.551916,0.000769,  47.828
   233.6,0.064340,0.038470,0.546681,0.000756,  47.828
   233.8,0.063797,0.038149,0.541810,0.000756,  47.826
   234.0,0.063255,0.037836,0.536961,0.000756,  47.829
   234.2,0.062725,0.037530,0.532149,0.000769,  47.831
   234.4,0.062194,0.037218,0.527406,0.000769,  47.829
   234.6,0.061672,0.036906,0.522651,0.000756,  47.828
   234.8,0.061172,0.036599,0.517952,0.000769,  47.826
   235.0,0.060672,0.036329,0.513231,0.000769,  47.829
   235.2,0.060152,0.036080,0.508501,0.000756,  47.825
   235.4,0.059639,0.035855,0.503746,0.000769,  47.829
   235.6,0.059114,0.035650,0.499196,0.000769,  47.825
   235.8,0.058601,0.035375,0.494674,0.000756,  47.828
   236.0,0.058108,0.035083,0.490241,0.000769,  47.830
   236.2,0.057615,0.034775,0.485883,0.000769,  47.828
   236.4,0.057117,0.034481,0.481550,0.000756,  47.832
   236.6,0.056631,0.034186,0.477288,0.000769,  47.830
   236.8,0.056149,0.033898,0.473015,0.000769,  47.826
   237.0,0.055664,0.033611,0.468727,0.000769,  47.829
   237.2,0.055186,0.033328,0.464486,0.000769,  47.833
   237.4,0.054717,0.033059,0.460257,0.000769,  47.829
   237.6,0.054318,0.032785,0.456051,0.000769,  47.830
   237.8,0.053961,0.032517,0.451874,0.000769,  47.827
   238.0,0.053635,0.032257,0.447810,0.000769,  47.829
   238.2,0.053359,0.031985,0.443812,0.000769,  47.830
   238.4,0.052938,0.031716,0.439844,0.000769,  47.826
   238.6,0.052489,0.031453,0.435940,0.000769,  47.831
   238.8,0.052021,0.031183,0.432113,0.000769,  47.828
   239.0,0.051570,0.030912,0.428266,0.000769,  47.832
   239.2,0.051133,0.030646,0.424437,0.000769,  47.828
   239.4,0.050695,0.030391,0.420642,0.000769,  47.829
   239.6,0.050258,0.030133,0.416838,0.000769,  47.834
   239.8,0.049834,0.029880,0.412960,0.000769,  47.832
   240.0,0.049412,0.029629,0.409031,0.000769,  47.832
   240.2,0.048982,0.029376,0.405043,0.000769,  47.832
   240.4,0.048544,0.029117,0.401318,0.000769,  47.831
   240.6,0.048112,0.028866,0.397718,0.000734,  47.832
   240.8,0.047693,0.028620,0.394162,0.000756,  47.828
   241.0,0.047267,0.028378,0.391087,0.000756,  47.831
   241.2,0.046861,0.028129,0.388290,0.000756,  47.830
   241.4,0.046454,0.027887,0.385702,0.000756,  47.830
   241.6,0.046039,0.027646,0.383403,0.000769,  47.833
   241.8,0.045639,0.027402,0.380110,0.000769,  47.831
   242.0,0.045239,0.027165,0.376597,0.000756,  47.835
   242.2,0.044843,0.026927,0.372837,0.000769,  47.834
   242.4,0.044459,0.026690,0.369350,0.000769,  47.832
   242.6,0.044069,0.026460,0.365884,0.000756,  47.829
   242.8,0.043674,0.026230,0.362415,0.000769,  47.829
   243.0,0.043285,0.025999,0.359018,0.000769,  47.836
   243.2,0.042911,0.025775,0.355666,0.000756,  47.835
   243.4,0.042548,0.025550,0.352328,0.000769,  47.832
   243.6,0.042189,0.025354,0.348980,0.000769,  47.838
   243.8,0.041813,0.025181,0.345646,0.000756,  47.833
   244.0,0.041435,0.025012,0.342302,0.000769,  47.837
   244.2,0.041048,0.024863,0.339092,0.000769,  47.834
   244.4,0.040678,0.024655,0.335940,0.000756,  47.835
   244.6,0.040309,0.024439,0.332833,0.000769,  47.837
   244.8,0.039947,0.024211,0.329715,0.000756,  47.834
   245.0,0.039590,0.024002,0.326635,0.000742,  47.839
   245.2,0.039227,0.023791,0.323583,0.000756,  47.834
   245.4,0.038874,0.023582,0.320518,0.000742,  47.834
   245.6,0.038527,0.023369,0.317487,0.000742,  47.833
   245.8,0.038174,0.023166,0.314471,0.000756,  47.833
   246.0,0.037833,0.022966,0.311535,0.000742,  47.836
   246.2,0.037504,0.022767,0.308635,0.000742,  47.833
   246.4,0.037169,0.022575,0.305744,0.000756,  47.832
   246.6,0.036852,0.022384,0.302898,0.000742,  47.834
   246.8,0.036573,0.022190,0.300071,0.000729,  47.836
   247.0,0.036323,0.021996,0.297274,0.000742,  47.835
   247.2,0.036093,0.021798,0.294519,0.000742,  47.832
   247.4,0.035888,0.021601,0.291807,0.000729,  47.833
   247.6,0.035592,0.021407,0.289128,0.000742,  47.831
   247.8,0.035273,0.021217,0.286418,0.000742,  47.827
   248.0,0.034935,0.021028,0.283736,0.000742,  47.829
   248.2,0.034619,0.020840,0.281031,0.000756,  47.829
   248.4,0.034318,0.020665,0.278347,0.000742,  47.828
   248.6,0.034009,0.020484,0.275690,0.000742,  47.831
   248.8,0.033697,0.020296,0.273014,0.000742,  47.828
   249.0,0.033386,0.020113,0.270438,0.000756,  47.831
   249.2,0.033080,0.019936,0.267891,0.000707,  47.830
   249.4,0.032778,0.019762,0.265383,0.000742,  47.828
   249.6,0.032475,0.019581,0.262828,0.000742,  47.826
   249.8,0.032190,0.019401,0.260249,0.000742,  47.827
   250.0,0.031899,0.019237,0.257663,0.000729,  47.827
   250.2,0.031603,0.019068,0.255514,0.000742,  47.828
   250.4,0.031316,0.018895,0.253582,0.000742,  47.826
   250.6,0.031032,0.018729,0.251848,0.000729,  47.823
   250.8,0.030753,0.018558,0.250312,0.000742,  47.817
   251.0,0.030481,0.018386,0.248099,0.000742,  47.824
   251.2,0.030203,0.018226,0.245735,0.000729,  47.820
   251.4,0.029925,0.018058,0.243240,0.000742,  47.821
   251.6,0.029650,0.017895,0.240880,0.000742,  47.823
   251.8,0.029386,0.017739,0.238505,0.000729,  47.821
   252.0,0.029129,0.017584,0.236149,0.000742,  47.823
   252.2,0.028877,0.017448,0.233835,0.000742,  47.817
   252.4,0.028614,0.017318,0.231512,0.000729,  47.817
   252.6,0.028343,0.017200,0.229215,0.000742,  47.821
   252.8,0.028066,0.017094,0.226954,0.000742,  47.822
   253.0,0.027803,0.016949,0.224710,0.000729,  47.822
   253.2,0.027544,0.016797,0.222497,0.000742,  47.821
   253.4,0.027287,0.016633,0.220347,0.000742,  47.815
   253.6,0.027039,0.016481,0.218259,0.000729,  47.817
   253.8,0.026789,0.016333,0.216210,0.000742,  47.821
   254.0,0.026550,0.016185,0.214088,0.000729,  47.819
   254.2,0.026308,0.016040,0.211928,0.000716,  47.816
   254.4,0.026057,0.015894,0.209757,0.000729,  47.817
   254.6,0.025819,0.015749,0.207731,0.000716,  47.815
   254.8,0.025586,0.015607,0.205741,0.000716,  47.821
   255.0,0.025353,0.015468,0.203829,0.000729,  47.816
   255.2,0.025132,0.015332,0.201895,0.000716,  47.818
   255.4,0.024938,0.015196,0.199994,0.000716,  47.818
   255.6,0.024758,0.015061,0.198101,0.000729,  47.816
   255.8,0.024599,0.014927,0.196236,0.000716,  47.820
   256.0,0.024462,0.014792,0.194379,0.000716,  47.816
   256.2,0.024254,0.014656,0.192518,0.000729,  47.818
   256.4,0.024039,0.014526,0.190643,0.000716,  47.815
   256.6,0.023802,0.014399,0.188746,0.000716,  47.820
   256.8,0.023586,0.014272,0.186842,0.000729,  47.819
   257.0,0.023368,0.014148,0.185030,0.000716,  47.825
   257.2,0.023154,0.014019,0.183251,0.000716,  47.824
   257.4,0.022939,0.013896,0.181509,0.000729,  47.825
   257.6,0.022724,0.013765,0.179749,0.000716,  47.825
   257.8,0.022510,0.013637,0.178014,0.000716,  47.829
   258.0,0.022301,0.013521,0.176273,0.000716,  47.826
   258.2,0.022097,0.013402,0.174558,0.000729,  47.826
   258.4,0.021894,0.013276,0.172855,0.000681,  47.828
   258.6,0.021694,0.013156,0.171129,0.000716,  47.829
   258.8,0.021487,0.013030,0.169696,0.000716,  47.829
   259.0,0.021284,0.012907,0.168384,0.000716,  47.828
   259.2,0.021087,0.012793,0.167209,0.000716,  47.828
   259.4,0.020886,0.012678,0.166159,0.000729,  47.829
   259.6,0.020698,0.012559,0.164591,0.000716,  47.833
   259.8,0.020507,0.012442,0.162896,0.000716,  47.828
   260.0,0.020313,0.012328,0.161069,0.000729,  47.830
   260.2,0.020127,0.012221,0.159480,0.000716,  47.826
   260.4,0.019950,0.012110,0.157943,0.000716,  47.829
   260.6,0.019764,0.012009,0.156423,0.000729,  47.830
   260.8,0.019592,0.011898,0.154851,0.000716,  47.831
   261.0,0.019409,0.011781,0.153291,0.000716,  47.829
   261.2,0.019212,0.011669,0.151724,0.000716,  47.828
   261.4,0.019019,0.011579,0.150225,0.000716,  47.832
   261.6,0.018836,0.011492,0.148775,0.000702,  47.831
   261.8,0.018660,0.011417,0.147375,0.000702,  47.829
   262.0,0.018489,0.011350,0.145940,0.000716,  47.832
   262.2,0.018318,0.011254,0.144488,0.000702,  47.829
   262.4,0.018141,0.011149,0.143041,0.000716,  47.827
   262.6,0.017975,0.011043,0.141636,0.000716,  47.826
   262.8,0.017810,0.010938,0.140248,0.000716,  47.825
   263.0,0.017638,0.010842,0.138874,0.000729,  47.825
   263.2,0.017476,0.010746,0.137505,0.000716,  47.826
   263.4,0.017317,0.010647,0.136157,0.000716,  47.826
   263.6,0.017156,0.010556,0.134829,0.000729,  47.823
   263.8,0.016999,0.010464,0.133483,0.000716,  47.819
   264.0,0.016845,0.010367,0.132120,0.000716,  47.819
   264.2,0.016694,0.010277,0.130757,0.000716,  47.819
   264.4,0.016540,0.010180,0.129466,0.000716,  47.818
   264.6,0.016414,0.010086,0.128185,0.000737,  47.813
   264.8,0.016290,0.009997,0.126944,0.000737,  47.819
   265.0,0.016186,0.009906,0.125718,0.000716,  47.814
   265.2,0.016090,0.009814,0.124521,0.000737,  47.815
   265.4,0.015944,0.009723,0.123338,0.000737,  47.811
   265.6,0.015796,0.009636,0.122111,0.000716,  47.810
   265.8,0.015637,0.009544,0.120877,0.000737,  47.812
   266.0,0.015492,0.009455,0.119637,0.000737,  47.812
   266.2,0.015343,0.009375,0.118446,0.000716,  47.810
   266.4,0.015209,0.009293,0.117269,0.000737,  47.809
   266.6,0.015076,0.009209,0.116100,0.000737,  47.810
   266.8,0.014930,0.009127,0.114925,0.000737,  47.806
   267.0,0.014797,0.009043,0.113737,0.000737,  47.806
   267.2,0.014669,0.008967,0.112538,0.000737,  47.807
   267.4,0.014532,0.008882,0.111402,0.000751,  47.809
   267.6,0.014392,0.008796,0.110290,0.000737,  47.803
   267.8,0.014252,0.008720,0.109206,0.000737,  47.799
   268.0,0.014118,0.008637,0.108262,0.000737,  47.802
   268.2,0.013981,0.008553,0.107385,0.000716,  47.801
   268.4,0.013844,0.008474,0.106612,0.000737,  47.800
   268.6,0.013715,0.008398,0.105895,0.000737,  47.799
   268.8,0.013593,0.008319,0.104917,0.000716,  47.800
   269.0,0.013473,0.008242,0.103876,0.000737,  47.797
   269.2,0.013353,0.008169,0.102778,0.000737,  47.799
   269.4,0.013235,0.008095,0.101718,0.000716,  47.797
   269.6,0.013119,0.008017,0.100631,0.000737,  47.797
   269.8,0.012991,0.007935,0.099527,0.000737,  47.795
   270.0,0.012863,0.007870,0.098524,0.000702,  47.795
   270.2,0.012737,0.007813,0.097543,0.000724,  47.794
   270.4,0.012617,0.007756,0.096598,0.000724,  47.794
   270.6,0.012494,0.007711,0.095622,0.000689,  47.795
   270.8,0.012377,0.007647,0.094642,0.000711,  47.789
   271.0,0.012260,0.007573,0.093656,0.000711,  47.790
   271.2,0.012146,0.007501,0.092700,0.000689,  47.787
   271.4,0.012038,0.007432,0.091762,0.000724,  47.787
   271.6,0.011924,0.007363,0.090826,0.000724,  47.784
   271.8,0.011806,0.007294,0.089901,0.000689,  47.783
   272.0,0.011694,0.007225,0.088999,0.000724,  47.785
   272.2,0.011588,0.007159,0.088108,0.000724,  47.779
   272.4,0.011485,0.007101,0.087191,0.000689,  47.779
   272.6,0.011384,0.007039,0.086261,0.000724,  47.777
   272.8,0.011281,0.006974,0.085339,0.000724,  47.778
   273.0,0.011181,0.006912,0.084494,0.000689,  47.780
   273.2,0.011094,0.006849,0.083667,0.000689,  47.778
   273.4,0.011013,0.006785,0.082861,0.000689,  47.774
   273.6,0.010936,0.006722,0.082002,0.000689,  47.774
   273.8,0.010877,0.006666,0.081118,0.000724,  47.770
   274.0,0.010787,0.006605,0.080208,0.000724,  47.771
   274.2,0.010684,0.006545,0.079401,0.000689,  47.770
   274.4,0.010578,0.006490,0.078622,0.000724,  47.771
   274.6,0.010484,0.006436,0.077896,0.000724,  47.769
   274.8,0.010386,0.006377,0.077148,0.000702,  47.770
   275.0,0.010291,0.006318,0.076392,0.000737,  47.763
   275.2,0.010199,0.006263,0.075647,0.000737,  47.768
   275.4,0.010104,0.006213,0.074898,0.000716,  47.766
   275.6,0.010018,0.006162,0.074151,0.000737,  47.768
   275.8,0.009920,0.006105,0.073392,0.000737,  47.772
   276.0,0.009828,0.006054,0.072671,0.000737,  47.773
   276.2,0.009742,0.006005,0.071969,0.000737,  47.764
   276.4,0.009647,0.005948,0.071274,0.000737,  47.765
   276.6,0.009560,0.005898,0.070645,0.000751,  47.765
   276.8,0.009473,0.005846,0.070072,0.000737,  47.765
   277.0,0.009387,0.005788,0.069539,0.000737,  47.764
   277.2,0.009300,0.005732,0.069053,0.000737,  47.765
   277.4,0.009208,0.005683,0.068396,0.000716,  47.764
   277.6,0.009125,0.005636,0.067702,0.000737,  47.763
   277.8,0.009050,0.005591,0.066969,0.000737,  47.766
   278.0,0.008975,0.005538,0.066273,0.000716,  47.765
   278.2,0.008885,0.005481,0.065583,0.000737,  47.761
   278.4,0.008805,0.005429,0.064870,0.000737,  47.765
   278.6,0.008715,0.005386,0.064191,0.000716,  47.764
   278.8,0.008628,0.005343,0.063515,0.000737,  47.762
   279.0,0.008554,0.005316,0.062841,0.000737,  47.764
   279.2,0.008475,0.005287,0.062196,0.000716,  47.763
   279.4,0.008394,0.005242,0.061558,0.000737,  47.760
   279.6,0.008324,0.005198,0.060943,0.000737,  47.760
   279.8,0.008246,0.005152,0.060316,0.000716,  47.763
   280.0,0.008164,0.005110,0.059677,0.000737,  47.763
   280.2,0.008098,0.005063,0.059039,0.000737,  47.765
   280.4,0.008022,0.005014,0.058407,0.000716,  47.766
   280.6,0.007943,0.004969,0.057773,0.000737,  47.767
   280.8,0.007879,0.004930,0.057142,0.000737,  47.771
   281.0,0.007812,0.004889,0.056552,0.000716,  47.768
   281.2,0.007738,0.004844,0.055980,0.000737,  47.769
   281.4,0.007677,0.004805,0.055441,0.000737,  47.770
   281.6,0.007607,0.004767,0.054974,0.000716,  47.767
   281.8,0.007548,0.004728,0.054558,0.000737,  47.771
   282.0,0.007491,0.004690,0.054199,0.000737,  47.771
   282.2,0.007448,0.004649,0.053660,0.000716,  47.770
   282.4,0.007405,0.004610,0.053077,0.000737,  47.773
   282.6,0.007349,0.004574,0.052431,0.000737,  47.776
   282.8,0.007278,0.004533,0.051884,0.000716,  47.776
   283.0,0.007208,0.004489,0.051338,0.000702,  47.778
   283.2,0.007140,0.004452,0.050818,0.000716,  47.778
   283.4,0.007075,0.004413,0.050312,0.000716,  47.777
   283.6,0.007017,0.004372,0.049798,0.000716,  47.783
   283.8,0.006949,0.004333,0.049291,0.000729,  47.781
   284.0,0.006885,0.004300,0.048795,0.000729,  47.783
   284.2,0.006829,0.004268,0.048300,0.000694,  47.788
   284.4,0.006764,0.004233,0.047814,0.000716,  47.789
   284.6,0.006704,0.004202,0.047324,0.000716,  47.787
   284.8,0.006651,0.004166,0.046848,0.000716,  47.785
   285.0,0.006589,0.004134,0.046382,0.000716,  47.786
   285.2,0.006532,0.004098,0.045977,0.000729,  47.787
   285.4,0.006471,0.004063,0.045591,0.000729,  47.789
   285.6,0.006414,0.004024,0.045252,0.000729,  47.789
   285.8,0.006358,0.003995,0.044942,0.000742,  47.792
   286.0,0.006296,0.003966,0.044004,0.000742,  47.794
   286.2,0.006240,0.003938,0.042829,0.000729,  47.794
   286.4,0.006189,0.003911,0.041449,0.000742,  47.796
   286.6,0.006138,0.003878,0.040968,0.000742,  47.793
   286.8,0.006079,0.003848,0.040814,0.000729,  47.796
   287.0,0.006025,0.003812,0.040999,0.000742,  47.800
   287.2,0.005977,0.003787,0.040783,0.000742,  47.799
   287.4,0.005923,0.003759,0.040535,0.000729,  47.800
   287.6,0.005869,0.003733,0.040265,0.000742,  47.803
   287.8,0.005827,0.003707,0.039975,0.000742,  47.803
   288.0,0.005773,0.003673,0.039654,0.000729,  47.809
   288.2,0.005724,0.003644,0.039309,0.000742,  47.808
   288.4,0.005680,0.003615,0.038981,0.000742,  47.805
   288.6,0.005625,0.003584,0.038628,0.000729,  47.809
   288.8,0.005583,0.003551,0.038254,0.000742,  47.810
   289.0,0.005538,0.003524,0.037912,0.000729,  47.810
   289.2,0.005487,0.003492,0.037553,0.000716,  47.811
   289.4,0.005441,0.003461,0.037191,0.000729,  47.810
   289.6,0.005398,0.003432,0.036874,0.000694,  47.812
   289.8,0.005361,0.003403,0.036568,0.000707,  47.815
   290.0,0.005320,0.003378,0.036291,0.000721,  47.818
   290.2,0.005294,0.003355,0.035930,0.000672,  47.822
   290.4,0.005264,0.003332,0.035544,0.000707,  47.819
   290.6,0.005224,0.003305,0.035135,0.000721,  47.821
   290.8,0.005185,0.003280,0.034766,0.000672,  47.820
   291.0,0.005139,0.003254,0.034415,0.000707,  47.821
   291.2,0.005093,0.003229,0.034068,0.000721,  47.823
   291.4,0.005053,0.003201,0.033709,0.000672,  47.826
   291.6,0.005013,0.003179,0.033355,0.000707,  47.823
   291.8,0.004967,0.003156,0.032991,0.000721,  47.822
   292.0,0.004930,0.003130,0.032650,0.000672,  47.828
   292.2,0.004894,0.003105,0.032332,0.000707,  47.827
   292.4,0.004847,0.003085,0.032011,0.000707,  47.829
   292.6,0.004811,0.003060,0.031679,0.000686,  47.826
   292.8,0.004774,0.003032,0.031353,0.000707,  47.827
   293.0,0.004728,0.003011,0.031016,0.000707,  47.831
   293.2,0.004696,0.002990,0.030705,0.000672,  47.828
   293.4,0.004659,0.002969,0.030397,0.000707,  47.832
   293.6,0.004619,0.002941,0.030121,0.000707,  47.832
   293.8,0.004579,0.002914,0.029855,0.000721,  47.830
   294.0,0.004545,0.002893,0.029593,0.000694,  47.833
   294.2,0.004501,0.002870,0.029341,0.000716,  47.831
   294.4,0.004464,0.002845,0.029096,0.000729,  47.832
   294.6,0.004426,0.002826,0.028754,0.000716,  47.831
   294.8,0.004383,0.002809,0.028381,0.000716,  47.831
   295.0,0.004351,0.002789,0.027978,0.000729,  47.827
   295.2,0.004314,0.002765,0.027683,0.000716,  47.828
   295.4,0.004273,0.002740,0.027409,0.000716,  47.830
   295.6,0.004242,0.002717,0.027180,0.000729,  47.832
   295.8,0.004207,0.002698,0.026945,0.000716,  47.834
   296.0,0.004169,0.002683,0.026704,0.000716,  47.834
   296.2,0.004140,0.002661,0.026478,0.000729,  47.833
   296.4,0.004103,0.002652,0.026240,0.000716,  47.831
   296.6,0.004065,0.002630,0.026003,0.000716,  47.834
   296.8,0.004035,0.002608,0.025749,0.000729,  47.830
   297.0,0.004003,0.002587,0.025497,0.000716,  47.830
   297.2,0.003965,0.002567,0.025237,0.000716,  47.829
   297.4,0.003933,0.002544,0.024978,0.000729,  47.833
   297.6,0.003904,0.002527,0.024738,0.000729,  47.830
   297.8,0.003869,0.002510,0.024487,0.000729,  47.828
   298.0,0.003840,0.002490,0.024244,0.000742,  47.828
   298.2,0.003816,0.002475,0.024002,0.000729,  47.825
   298.4,0.003792,0.002455,0.023751,0.000716,  47.823
   298.6,0.003771,0.002436,0.023504,0.000729,  47.829
   298.8,0.003752,0.002419,0.023265,0.000729,  47.821
   299.0,0.003736,0.002406,0.023039,0.000729,  47.821
   299.2,0.003712,0.002387,0.022817,0.000742,  47.816
   299.4,0.003683,0.002372,0.022587,0.000742,  47.820
   299.6,0.003653,0.002360,0.022365,0.000742,  47.817
   299.8,0.003621,0.002344,0.022154,0.000756,  47.815
   300.0,0.003594,0.002324,0.021927,0.000742,  47.814
   300.2,0.003567,0.002304,0.021686,0.000729,  47.816
   300.4,0.003537,0.002292,0.021442,0.000742,  47.813
   300.6,0.003517,0.002277,0.021226,0.000729,  47.810
   300.8,0.003487,0.002261,0.021019,0.000751,  47.810
   301.0,0.003454,0.002244,0.020806,0.000751,  47.811
   301.2,0.003434,0.002227,0.020610,0.000764,  47.808
   301.4,0.003407,0.002212,0.020416,0.000751,  47.812
   301.6,0.003377,0.002192,0.020234,0.000751,  47.809
   301.8,0.003357,0.002181,0.020036,0.000751,  47.806
   302.0,0.003333,0.002165,0.019820,0.000751,  47.806
   302.2,0.003305,0.002148,0.019608,0.000751,  47.802
   302.4,0.003285,0.002135,0.019415,0.000764,  47.803
   302.6,0.003258,0.002121,0.019230,0.000716,  47.802
   302.8,0.003228,0.002106,0.019065,0.000751,  47.797
   303.0,0.003210,0.002095,0.018894,0.000764,  47.800
   303.2,0.003189,0.002083,0.018781,0.000716,  47.799
   303.4,0.003159,0.002063,0.018691,0.000751,  47.794
   303.6,0.003138,0.002049,0.018637,0.000764,  47.794
   303.8,0.003117,0.002032,0.018455,0.000716,  47.789
   304.0,0.003087,0.002020,0.018207,0.000751,  47.786
   304.2,0.003066,0.002006,0.017919,0.000764,  47.784
   304.4,0.003045,0.001995,0.017721,0.000716,  47.784
   304.6,0.003018,0.001979,0.017548,0.000751,  47.781
   304.8,0.003003,0.001974,0.017381,0.000764,  47.777
   305.0,0.002988,0.001966,0.017211,0.000729,  47.780
   305.2,0.002963,0.001952,0.017046,0.000764,  47.776
   305.4,0.002948,0.001943,0.016874,0.000777,  47.774
   305.6,0.002926,0.001935,0.016685,0.000742,  47.772
   305.8,0.002902,0.001921,0.016493,0.000764,  47.762
   306.0,0.002889,0.001912,0.016288,0.000777,  47.768
   306.2,0.002865,0.001898,0.016126,0.000742,  47.766
   306.4,0.002840,0.001884,0.015973,0.000764,  47.763
   306.6,0.002830,0.001875,0.015837,0.000777,  47.762
   306.8,0.002812,0.001862,0.015673,0.000742,  47.764
   307.0,0.002796,0.001848,0.015511,0.000764,  47.764
   307.2,0.002780,0.001840,0.015334,0.000777,  47.764
   307.4,0.002765,0.001829,0.015170,0.000742,  47.756
   307.6,0.002755,0.001817,0.015015,0.000764,  47.762
   307.8,0.002735,0.001809,0.014851,0.000777,  47.760
   308.0,0.002728,0.001799,0.014720,0.000742,  47.756
   308.2,0.002709,0.001785,0.014578,0.000742,  47.757
   308.4,0.002687,0.001776,0.014459,0.000756,  47.756
   308.6,0.002668,0.001765,0.014328,0.000742,  47.757
   308.8,0.002649,0.001749,0.014167,0.000729,  47.756
   309.0,0.002630,0.001739,0.014017,0.000742,  47.752
   309.2,0.002620,0.001730,0.013868,0.000742,  47.755
   309.4,0.002601,0.001716,0.013702,0.000729,  47.748
   309.6,0.002585,0.001708,0.013541,0.000742,  47.747
   309.8,0.002570,0.001701,0.013403,0.000742,  47.747
   310.0,0.002552,0.001687,0.013272,0.000742,  47.757
   310.2,0.002536,0.001679,0.013153,0.000742,  47.756
   310.4,0.002514,0.001672,0.013025,0.000756,  47.752
   310.6,0.002498,0.001658,0.012887,0.000707,  47.752
   310.8,0.002482,0.001651,0.012754,0.000742,  47.748
   311.0,0.002463,0.001642,0.012651,0.000742,  47.751
   311.2,0.002453,0.001632,0.012572,0.000742,  47.750
   311.4,0.002437,0.001626,0.012499,0.000742,  47.750
   311.6,0.002418,0.001620,0.012453,0.000756,  47.746
   311.8,0.002405,0.001610,0.012350,0.000742,  47.730
   312.0,0.002389,0.001597,0.012244,0.000742,  47.735
   312.2,0.002370,0.001589,0.012130,0.000756,  47.733
   312.4,0.002357,0.001574,0.012079,0.000742,  47.739
   312.6,0.002335,0.001560,0.012051,0.000729,  47.738
   312.8,0.002322,0.001552,0.012054,0.000742,  47.739
   313.0,0.002306,0.001541,0.011927,0.000742,  47.741
   313.2,0.002293,0.001532,0.011756,0.000729,  47.739
   313.4,0.002279,0.001531,0.011545,0.000742,  47.740
   313.6,0.002272,0.001526,0.011361,0.000742,  47.740
   313.8,0.002259,0.001520,0.011188,0.000729,  47.740
   314.0,0.002243,0.001514,0.011015,0.000742,  47.736
   314.2,0.002233,0.001511,0.010875,0.000742,  47.738
   314.4,0.002220,0.001501,0.010750,0.000729,  47.737
   314.6,0.002204,0.001491,0.010642,0.000742,  47.736
   314.8,0.002191,0.001482,0.010529,0.000729,  47.741
   315.0,0.002180,0.001472,0.010410,0.000716,  47.740
   315.2,0.002167,0.001463,0.010294,0.000729,  47.742
   315.4,0.002156,0.001460,0.010140,0.000716,  47.745
   315.6,0.002148,0.001450,0.009960,0.000716,  47.740
   315.8,0.002137,0.001438,0.009755,0.000729,  47.742
   316.0,0.002124,0.001436,0.009631,0.000716,  47.742
   316.2,0.002113,0.001433,0.009534,0.000716,  47.743
   316.4,0.002103,0.001423,0.009451,0.000729,  47.741
   316.6,0.002093,0.001418,0.009375,0.000729,  47.745
   316.8,0.002085,0.001414,0.009324,0.000729,  47.744
   317.0,0.002077,0.001406,0.009276,0.000742,  47.745
   317.2,0.002069,0.001397,0.009211,0.000742,  47.746
   317.4,0.002064,0.001389,0.009143,0.000729,  47.746
   317.6,0.002056,0.001382,0.009073,0.000742,  47.745
   317.8,0.002045,0.001381,0.008998,0.000742,  47.747
   318.0,0.002035,0.001377,0.008920,0.000729,  47.747
   318.2,0.002025,0.001364,0.008845,0.000742,  47.751
   318.4,0.002014,0.001362,0.008767,0.000742,  47.771
   318.6,0.002003,0.001359,0.008697,0.000729,  47.772
   318.8,0.001998,0.001352,0.008624,0.000729,  47.766
   319.0,0.001987,0.001347,0.008538,0.000729,  47.774
   319.2,0.001977,0.001343,0.008466,0.000694,  47.774
   319.4,0.001969,0.001339,0.008390,0.000729,  47.776
   319.6,0.001952,0.001333,0.008296,0.000729,  47.774
   319.8,0.001941,0.001327,0.008213,0.000729,  47.777
   320.0,0.001933,0.001320,0.008135,0.000742,  47.772
   320.2,0.001919,0.001318,0.008063,0.000756,  47.775
   320.4,0.001917,0.001315,0.008004,0.000742,  47.776
   320.6,0.001907,0.001309,0.007953,0.000742,  47.779
   320.8,0.001890,0.001303,0.007910,0.000756,  47.778
   321.0,0.001886,0.001298,0.007811,0.000742,  47.779
   321.2,0.001875,0.001293,0.007693,0.000742,  47.780
   321.4,0.001861,0.001285,0.007562,0.000756,  47.780
   321.6,0.001862,0.001278,0.007500,0.000742,  47.782
   321.8,0.001854,0.001276,0.007457,0.000742,  47.782
   322.0,0.001840,0.001271,0.007433,0.000756,  47.783
   322.2,0.001832,0.001265,0.007344,0.000742,  47.781
   322.4,0.001824,0.001265,0.007237,0.000742,  47.783
   322.6,0.001816,0.001257,0.007101,0.000756,  47.786
   322.8,0.001808,0.001255,0.007039,0.000742,  47.785
   323.0,0.001800,0.001249,0.007009,0.000742,  47.787
   323.2,0.001795,0.001243,0.006993,0.000756,  47.787
   323.4,0.001791,0.001239,0.006950,0.000742,  47.791
   323.6,0.001788,0.001233,0.006913,0.000742,  47.789
   323.8,0.001780,0.001233,0.006875,0.000756,  47.793
   324.0,0.001775,0.001227,0.006811,0.000742,  47.791
   324.2,0.001769,0.001221,0.006741,0.000742,  47.789
   324.4,0.001761,0.001220,0.006656,0.000756,  47.789
   324.6,0.001751,0.001216,0.006570,0.000742,  47.790
   324.8,0.001743,0.001214,0.006474,0.000742,  47.785
   325.0,0.001734,0.001209,0.006360,0.000756,  47.789
   325.2,0.001729,0.001207,0.006282,0.000742,  47.788
   325.4,0.001723,0.001205,0.006200,0.000742,  47.790
   325.6,0.001709,0.001199,0.006117,0.000756,  47.791
   325.8,0.001713,0.001195,0.006074,0.000742,  47.789
   326.0,0.001702,0.001191,0.006055,0.000742,  47.788
   326.2,0.001688,0.001185,0.006047,0.000756,  47.786
   326.4,0.001686,0.001180,0.006004,0.000742,  47.788
   326.6,0.001678,0.001176,0.005934,0.000742,  47.787
   326.8,0.001670,0.001170,0.005876,0.000756,  47.788
   327.0,0.001659,0.001166,0.005814,0.000742,  47.788
   327.2,0.001657,0.001160,0.005742,0.000742,  47.786
   327.4,0.001649,0.001156,0.005667,0.000742,  47.786
   327.6,0.001641,0.001150,0.005616,0.000742,  47.784
   327.8,0.001637,0.001144,0.005584,0.000707,  47.784
   328.0,0.001629,0.001142,0.005560,0.000729,  47.784
   328.2,0.001615,0.001134,0.005515,0.000729,  47.783
   328.4,0.001607,0.001128,0.005461,0.000729,  47.781
   328.6,0.001601,0.001124,0.005405,0.000729,  47.779
   328.8,0.001587,0.001121,0.005357,0.000742,  47.779
   329.0,0.001588,0.001110,0.005309,0.000742,  47.777
   329.2,0.001583,0.001109,0.005267,0.000729,  47.774
   329.4,0.001566,0.001106,0.005230,0.000742,  47.775
   329.6,0.001564,0.001096,0.005153,0.000742,  47.776
   329.8,0.001559,0.001096,0.005065,0.000729,  47.772
   330.0,0.001553,0.001095,0.004961,0.000742,  47.774
   330.2,0.001554,0.001091,0.004916,0.000742,  47.772
   330.4,0.001558,0.001093,0.004889,0.000729,  47.770
   330.6,0.001552,0.001092,0.004894,0.000742,  47.768
   330.8,0.001544,0.001088,0.004857,0.000742,  47.771
   331.0,0.001542,0.001085,0.004801,0.000729,  47.770
   331.2,0.001536,0.001079,0.004742,0.000742,  47.769
   331.4,0.001522,0.001076,0.004707,0.000742,  47.766
   331.6,0.001511,0.001073,0.004681,0.000729,  47.764
   331.8,0.001506,0.001067,0.004659,0.000742,  47.765
   332.0,0.001506,0.001069,0.004619,0.000742,  47.763
   332.2,0.001504,0.001067,0.004555,0.000729,  47.763
   332.4,0.001498,0.001067,0.004492,0.000742,  47.762
   332.6,0.001491,0.001067,0.004462,0.000742,  47.758
   332.8,0.001488,0.001062,0.004441,0.000729,  47.757
   333.0,0.001479,0.001058,0.004430,0.000742,  47.758
   333.2,0.001471,0.001059,0.004345,0.000742,  47.755
   333.4,0.001468,0.001053,0.004221,0.000729,  47.751
   333.6,0.001457,0.001049,0.004072,0.000742,  47.735
   333.8,0.001460,0.001047,0.004035,0.000707,  47.735
   334.0,0.001455,0.001043,0.004040,0.000694,  47.731
   334.2,0.001444,0.001036,0.004069,0.000707,  47.730
   334.4,0.001445,0.001037,0.004053,0.000672,  47.729
   334.6,0.001442,0.001035,0.004047,0.000707,  47.728
   334.8,0.001439,0.001033,0.004026,0.000721,  47.731
   335.0,0.001437,0.001035,0.004004,0.000686,  47.730
   335.2,0.001437,0.001035,0.003978,0.000721,  47.727
   335.4,0.001441,0.001031,0.003954,0.000734,  47.730
   335.6,0.001436,0.001029,0.003932,0.000699,  47.727
   335.8,0.001433,0.001025,0.003911,0.000721,  47.730
   336.0,0.001433,0.001025,0.003879,0.000721,  47.726
   336.2,0.001428,0.001026,0.003858,0.000686,  47.725
   336.4,0.001416,0.001024,0.003828,0.000721,  47.723
   336.6,0.001405,0.001020,0.003812,0.000721,  47.722
   336.8,0.001396,0.001018,0.003788,0.000686,  47.723
   337.0,0.001394,0.001019,0.003756,0.000721,  47.722
   337.2,0.001389,0.001014,0.003717,0.000721,  47.718
   337.4,0.001375,0.001013,0.003682,0.000734,  47.719
   337.6,0.001373,0.001010,0.003658,0.000699,  47.721
   337.8,0.001368,0.001003,0.003632,0.000721,  47.719
   338.0,0.001356,0.000994,0.003611,0.000734,  47.722
   338.2,0.001357,0.000992,0.003563,0.000699,  47.718
   338.4,0.001354,0.000985,0.003507,0.000721,  47.721
   338.6,0.001346,0.000985,0.003446,0.000734,  47.722
   338.8,0.001346,0.000982,0.003377,0.000699,  47.719
   339.0,0.001346,0.000974,0.003293,0.000721,  47.719
   339.2,0.001344,0.000981,0.003216,0.000734,  47.719
   339.4,0.001344,0.000979,0.003200,0.000699,  47.718
   339.6,0.001342,0.000979,0.003200,0.000721,  47.719
   339.8,0.001342,0.000977,0.003218,0.000734,  47.716
   340.0,0.001342,0.000978,0.003213,0.000699,  47.714
   340.2,0.001339,0.000975,0.003207,0.000721,  47.714
   340.4,0.001339,0.000971,0.003186,0.000734,  47.718
   340.6,0.001342,0.000966,0.003157,0.000699,  47.718
   340.8,0.001345,0.000962,0.003125,0.000721,  47.718
   341.0,0.001340,0.000962,0.003088,0.000734,  47.718
   341.2,0.001332,0.000961,0.003067,0.000699,  47.720
   341.4,0.001329,0.000956,0.003061,0.000721,  47.718
   341.6,0.001321,0.000952,0.003072,0.000734,  47.720
   341.8,0.001312,0.000954,0.003040,0.000699,  47.719
   342.0,0.001303,0.000948,0.002981,0.000721,  47.721
   342.2,0.001294,0.000948,0.002913,0.000734,  47.721
   342.4,0.001304,0.000949,0.002870,0.000699,  47.718
   342.6,0.001301,0.000949,0.002820,0.000734,  47.718
   342.8,0.001301,0.000949,0.002773,0.000734,  47.724
   343.0,0.001301,0.000956,0.002757,0.000734,  47.720
   343.2,0.001305,0.000951,0.002751,0.000756,  47.720
   343.4,0.001302,0.000947,0.002749,0.000769,  47.721
   343.6,0.001296,0.000947,0.002727,0.000769,  47.718
   343.8,0.001297,0.000943,0.002711,0.000756,  47.721
   344.0,0.001300,0.000937,0.002679,0.000769,  47.721
   344.2,0.001295,0.000938,0.002669,0.000769,  47.729
   344.4,0.001290,0.000934,0.002674,0.000756,  47.724
   344.6,0.001290,0.000928,0.002692,0.000769,  47.720
   344.8,0.001287,0.000933,0.002679,0.000769,  47.723
   345.0,0.001283,0.000933,0.002647,0.000769,  47.720
   345.2,0.001277,0.000924,0.002621,0.000769,  47.726
   345.4,0.001272,0.000929,0.002599,0.000769,  47.722
   345.6,0.001273,0.000926,0.002567,0.000747,  47.722
   345.8,0.001270,0.000920,0.002541,0.000769,  47.722
   346.0,0.001265,0.000920,0.002517,0.000769,  47.718
   346.2,0.001260,0.000916,0.002499,0.000769,  47.718
   346.4,0.001257,0.000914,0.002488,0.000756,  47.718
   346.6,0.001252,0.000910,0.002470,0.000769,  47.717
   346.8,0.001249,0.000904,0.002441,0.000756,  47.713
   347.0,0.001246,0.000906,0.002401,0.000742,  47.717
   347.2,0.001244,0.000900,0.002366,0.000756,  47.716
   347.4,0.001241,0.000897,0.002335,0.000742,  47.715
   347.6,0.001238,0.000897,0.002311,0.000742,  47.714
   347.8,0.001233,0.000900,0.002295,0.000756,  47.712
   348.0,0.001230,0.000897,0.002282,0.000756,  47.714
   348.2,0.001228,0.000897,0.002276,0.000756,  47.714
   348.4,0.001225,0.000897,0.002271,0.000769,  47.714
   348.6,0.001222,0.000897,0.002265,0.000769,  47.714
   348.8,0.001220,0.000894,0.002244,0.000756,  47.713
   349.0,0.001220,0.000888,0.002215,0.000769,  47.709
   349.2,0.001220,0.000891,0.002183,0.000769,  47.710
   349.4,0.001222,0.000887,0.002146,0.000756,  47.711
   349.6,0.001217,0.000880,0.002085,0.000769,  47.709
   349.8,0.001212,0.000882,0.002014,0.000769,  47.707
   350.0,0.001215,0.000878,0.001938,0.000756,  47.710
   350.2,0.001210,0.000878,0.001844,0.000769,  47.708
   350.4,0.001205,0.000880,0.001510,0.000734,  47.707
   350.6,0.001208,0.000882,0.001038,0.000734,  47.712
   350.8,0.001205,0.000880,0.000440,0.000734,  47.714
   351.0,0.001205,0.000879,0.000421,0.000699,  47.709
   351.2,0.001203,0.000879,0.000639,0.000734,  47.711
   351.4,0.001199,0.000879,0.001079,0.000734,  47.709
   351.6,0.001203,0.000875,0.001223,0.000699,  47.708
   351.8,0.001203,0.000875,0.001343,0.000734,  47.709
   352.0,0.001194,0.000873,0.001435,0.000734,  47.704
   352.2,0.001200,0.000873,0.001521,0.000699,  47.705
   352.4,0.001204,0.000871,0.001595,0.000734,  47.707
   352.6,0.001200,0.000873,0.001642,0.000734,  47.709
   352.8,0.001200,0.000879,0.001655,0.000699,  47.708
   353.0,0.001200,0.000877,0.001653,0.000734,  47.708
   353.2,0.001197,0.000875,0.001618,0.000734,  47.704
   353.4,0.001200,0.000879,0.001634,0.000699,  47.700
   353.6,0.001206,0.000874,0.001670,0.000721,  47.704
   353.8,0.001200,0.000870,0.001720,0.000721,  47.702
   354.0,0.001204,0.000872,0.001741,0.000686,  47.699
   354.2,0.001198,0.000868,0.001752,0.000721,  47.700
   354.4,0.001190,0.000870,0.001744,0.000721,  47.698
   354.6,0.001196,0.000870,0.001746,0.000686,  47.700
   354.8,0.001193,0.000869,0.001754,0.000721,  47.696
   355.0,0.001182,0.000865,0.001762,0.000721,  47.698
   355.2,0.001185,0.000863,0.001757,0.000734,  47.696
   355.4,0.001180,0.000861,0.001757,0.000699,  47.693
   355.6,0.001174,0.000858,0.001749,0.000721,  47.692
   355.8,0.001180,0.000860,0.001738,0.000734,  47.697
   356.0,0.001177,0.000860,0.001725,0.000699,  47.695
   356.2,0.001171,0.000860,0.001719,0.000721,  47.695
   356.4,0.001174,0.000855,0.001714,0.000734,  47.693
   356.6,0.001172,0.000855,0.001690,0.000699,  47.694
   356.8,0.001163,0.000856,0.001640,0.000734,  47.688
   357.0,0.001166,0.000856,0.001593,0.000734,  47.696
   357.2,0.001164,0.000858,0.001577,0.000699,  47.692
   357.4,0.001158,0.000852,0.001569,0.000734,  47.694
   357.6,0.001155,0.000850,0.001564,0.000734,  47.692
   357.8,0.001155,0.000844,0.001521,0.000699,  47.694
   358.0,0.001149,0.000840,0.001469,0.000734,  47.693
   358.2,0.001146,0.000844,0.001387,0.000734,  47.689
   358.4,0.001147,0.000842,0.001382,0.000699,  47.690
   358.6,0.001138,0.000838,0.001397,0.000734,  47.689
   358.8,0.001136,0.000836,0.001445,0.000734,  47.690
   359.0,0.001139,0.000838,0.001445,0.000734,  47.692
   359.2,0.001130,0.000834,0.001413,0.000769,  47.689
   359.4,0.001136,0.000836,0.001373,0.000769,  47.689
   359.6,0.001145,0.000836,0.001360,0.000769,  47.690
   359.8,0.001145,0.000838,0.001347,0.000769,  47.692
   360.0,0.001145,0.000838,0.001347,0.000782,  47.693
   360.2,0.001143,0.000838,0.001331,0.000782,  47.691
   360.4,0.001143,0.000834,0.001307,0.000782,  47.690
   360.6,0.001136,0.000830,0.001286,0.000796,  47.694
   360.8,0.001140,0.000826,0.001257,0.000796,  47.689
   361.0,0.001135,0.000820,0.001215,0.000782,  47.690
   361.2,0.001128,0.000820,0.001162,0.000782,  47.693
   361.4,0.001132,0.000822,0.001157,0.000782,  47.692
   361.6,0.001129,0.000824,0.001170,0.000782,  47.693
   361.8,0.001121,0.000819,0.001204,0.000782,  47.692
   362.0,0.001124,0.000819,0.001199,0.000796,  47.694
   362.2,0.001121,0.000821,0.001188,0.000747,  47.693
   362.4,0.001113,0.000820,0.001170,0.000782,  47.693
   362.6,0.001116,0.000815,0.001157,0.000796,  47.712
   362.8,0.001116,0.000815,0.001157,0.000782,  47.713
   363.0,0.001113,0.000813,0.001151,0.000782,  47.715
   363.2,0.001116,0.000809,0.001143,0.000782,  47.717
   363.4,0.001116,0.000803,0.001140,0.000796,  47.717
   363.6,0.001110,0.000800,0.001151,0.000796,  47.719
   363.8,0.001113,0.000802,0.001159,0.000796,  47.719
   364.0,0.001108,0.000800,0.001114,0.000796,  47.717
   364.2,0.001102,0.000804,0.001033,0.000782,  47.719
   364.4,0.001111,0.000810,0.000936,0.000782,  47.722
   364.6,0.001108,0.000810,0.000931,0.000796,  47.721
   364.8,0.001102,0.000814,0.000959,0.000796,  47.720
   365.0,0.001111,0.000809,0.001017,0.000796,  47.720
   365.2,0.001108,0.000807,0.001011,0.000774,  47.721
   365.4,0.001102,0.000811,0.000996,0.000761,  47.722
   365.6,0.001105,0.000808,0.000964,0.000761,  47.721
   365.8,0.001102,0.000813,0.000975,0.000739,  47.721
   366.0,0.001098,0.000813,0.000996,0.000761,  47.721
   366.2,0.001105,0.000819,0.001024,0.000761,  47.725
   366.4,0.001111,0.000815,0.001024,0.000739,  47.726
   366.6,0.001107,0.000817,0.001006,0.000761,  47.726
   366.8,0.001113,0.000819,0.000972,0.000761,  47.719
   367.0,0.001119,0.000825,0.000969,0.000739,  47.727
   367.2,0.001116,0.000824,0.000979,0.000761,  47.725
   367.4,0.001116,0.000823,0.000998,0.000761,  47.722
   367.6,0.001119,0.000825,0.000998,0.000739,  47.727
   367.8,0.001116,0.000820,0.000982,0.000761,  47.726
   368.0,0.001116,0.000820,0.000959,0.000761,  47.727
   368.2,0.001113,0.000824,0.000943,0.000739,  47.727
   368.4,0.001107,0.000819,0.000930,0.000761,  47.726
   368.6,0.001107,0.000819,0.000904,0.000761,  47.727
   368.8,0.001107,0.000822,0.000908,0.000739,  47.728
   369.0,0.001113,0.000822,0.000927,0.000761,  47.730
   369.2,0.001107,0.000820,0.000956,0.000761,  47.733
   369.4,0.001111,0.000820,0.000974,0.000739,  47.729
   369.6,0.001108,0.000824,0.000971,0.000774,  47.727
   369.8,0.001102,0.000823,0.000979,0.000774,  47.730
   370.0,0.001111,0.000823,0.000979,0.000774,  47.730
   370.2,0.001114,0.000825,0.000971,0.000796,  47.726
   370.4,0.001108,0.000827,0.000961,0.000796,  47.728
   370.6,0.001108,0.000824,0.000945,0.000809,  47.728
   370.8,0.001105,0.000822,0.000926,0.000809,  47.728
   371.0,0.001099,0.000820,0.000908,0.000809,  47.729
   371.2,0.001099,0.000820,0.000887,0.000809,  47.729
   371.4,0.001099,0.000818,0.000853,0.000774,  47.728
   371.6,0.001093,0.000812,0.000806,0.000796,  47.727
   371.8,0.001093,0.000816,0.000796,0.000809,  47.728
   372.0,0.001099,0.000818,0.000796,0.000796,  47.731
   372.2,0.001091,0.000810,0.000811,0.000796,  47.728
   372.4,0.001094,0.000812,0.000822,0.000796,  47.732
   372.6,0.001095,0.000812,0.000806,0.000809,  47.732
   372.8,0.001089,0.000809,0.000796,0.000796,  47.733
   373.0,0.001089,0.000809,0.000777,0.000796,  47.734
   373.2,0.001091,0.000809,0.000777,0.000809,  47.737
   373.4,0.001085,0.000811,0.000764,0.000796,  47.740
   373.6,0.001085,0.000812,0.000764,0.000796,  47.739
   373.8,0.001091,0.000812,0.000772,0.000809,  47.741
   374.0,0.001088,0.000808,0.000772,0.000796,  47.736
   374.2,0.001088,0.000812,0.000772,0.000796,  47.736
   374.4,0.001088,0.000812,0.000790,0.000809,  47.738
   374.6,0.001088,0.000807,0.000795,0.000796,  47.737
   374.8,0.001085,0.000809,0.000808,0.000796,  47.740
   375.0,0.001080,0.000809,0.000821,0.000809,  47.739
   375.2,0.001080,0.000809,0.000839,0.000796,  47.742
   375.4,0.001077,0.000814,0.000850,0.000796,  47.741
   375.6,0.001077,0.000812,0.000852,0.000809,  47.742
   375.8,0.001077,0.000812,0.000847,0.000796,  47.744
   376.0,0.001077,0.000802,0.000836,0.000796,  47.743
   376.2,0.001072,0.000804,0.000514,0.000809,  47.747
   376.4,0.001072,0.000804,0.000030,0.000796,  47.747
   376.6,0.001072,0.000800,-0.000610,0.000796,  47.744
   376.8,0.001069,0.000804,-0.000673,0.000809,  47.748
   377.0,0.001067,0.000800,-0.000516,0.000796,  47.748
   377.2,0.001067,0.000800,-0.000161,0.000796,  47.746
   377.4,0.001070,0.000797,-0.000542,0.000809,  47.749
   377.6,0.001070,0.000793,-0.001191,0.000796,  47.750
   377.8,0.001067,0.000799,-0.002112,0.000796,  47.750
   378.0,0.001064,0.000797,-0.002050,0.000809,  47.745
   378.2,0.001070,0.000793,-0.001614,0.000796,  47.750
   378.4,0.001064,0.000799,-0.000819,0.000796,  47.745
   378.6,0.001067,0.000797,-0.000538,0.000796,  47.752
   378.8,0.001073,0.000793,-0.000321,0.000782,  47.751
   379.0,0.001067,0.000797,-0.000170,0.000782,  47.747
   379.2,0.001067,0.000795,-0.000032,0.000796,  47.750
   379.4,0.001070,0.000791,0.000089,0.000796,  47.746
   379.6,0.001061,0.000795,0.000170,0.000796,  47.748
   379.8,0.001067,0.000795,0.000264,0.000809,  47.748
   380.0,0.001071,0.000793,0.000353,0.000774,  47.749
   380.2,0.001065,0.000797,0.000426,0.000796,  47.743
   380.4,0.001068,0.000796,0.000481,0.000809,  47.751
   380.6,0.001066,0.000792,0.000526,0.000809,  47.748
   380.8,0.001062,0.000791,0.000539,0.000809,  47.742
   381.0,0.001068,0.000783,0.000552,0.000809,  47.743
   381.2,0.001066,0.000777,0.000550,0.000809,  47.738
   381.4,0.001062,0.000781,0.000508,0.000809,  47.738
   381.6,0.001066,0.000785,0.000453,0.000809,  47.742
   381.8,0.001063,0.000779,0.000076,0.000809,  47.738
   382.0,0.001057,0.000783,-0.000476,0.000809,  47.736
   382.2,0.001063,0.000788,-0.001187,0.000809,  47.733
   382.4,0.001066,0.000783,-0.001187,0.000809,  47.731
   382.6,0.001060,0.000782,-0.000924,0.000796,  47.730
   382.8,0.001060,0.000776,-0.000377,0.000796,  47.729
   383.0,0.001061,0.000771,-0.000178,0.000809,  47.722
   383.2,0.001055,0.000773,-0.000024,0.000796,  47.725
   383.4,0.001052,0.000773,0.000080,0.000796,  47.722
   383.6,0.001052,0.000779,0.000166,0.000809,  47.721
   383.8,0.001043,0.000777,0.000227,0.000796,  47.714
   384.0,0.001040,0.000779,0.000245,0.000796,  47.718
   384.2,0.001044,0.000777,0.000284,0.000809,  47.715
   384.4,0.001035,0.000773,0.000313,0.000796,  47.716
   384.6,0.001030,0.000773,0.000323,0.000796,  47.714
   384.8,0.001033,0.000768,0.000326,0.000809,  47.711
   385.0,0.001030,0.000764,0.000310,0.000796,  47.710
   385.2,0.001027,0.000770,0.000273,0.000796,  47.705
   385.4,0.001033,0.000771,0.000294,0.000809,  47.706
   385.6,0.001039,0.000769,0.000323,0.000796,  47.699
   385.8,0.001033,0.000771,0.000370,0.000796,  47.702
   386.0,0.001036,0.000771,0.000398,0.000809,  47.703
   386.2,0.001040,0.000769,0.000403,0.000796,  47.701
   386.4,0.001040,0.000767,0.000414,0.000796,  47.698
   386.6,0.001043,0.000764,0.000424,0.000809,  47.692
   386.8,0.001043,0.000762,0.000419,0.000796,  47.690
   387.0,0.001036,0.000758,0.000405,0.000796,  47.691
   387.2,0.001036,0.000760,0.000405,0.000809,  47.690
   387.4,0.001031,0.000758,0.000405,0.000796,  47.686
   387.6,0.001022,0.000755,0.000390,0.000796,  47.686
   387.8,0.001028,0.000760,0.000382,0.000809,  47.682
   388.0,0.001023,0.000757,0.000374,0.000796,  47.679
   388.2,0.001017,0.000752,0.000363,0.000796,  47.680
   388.4,0.001023,0.000753,0.000342,0.000809,  47.681
   388.6,0.001026,0.000752,0.000332,0.000774,  47.672
   388.8,0.001020,0.000754,0.000327,0.000796,  47.674
   389.0,0.001026,0.000755,0.000319,0.000809,  47.677
   389.2,0.001026,0.000753,0.000311,0.000796,  47.674
   389.4,0.001020,0.000752,0.000313,0.000796,  47.670
   389.6,0.001020,0.000751,0.000313,0.000796,  47.670
   389.8,0.001020,0.000747,0.000316,0.000809,  47.668
   390.0,0.001014,0.000747,0.000316,0.000796,  47.670
   390.2,0.001014,0.000751,0.000316,0.000796,  47.669
   390.4,0.001017,0.000746,0.000300,0.000809,  47.665
   390.6,0.001014,0.000746,0.000282,0.000796,  47.664
   390.8,0.001014,0.000751,0.000258,0.000796,  47.663
   391.0,0.001017,0.000746,0.000245,0.000809,  47.663
   391.2,0.001014,0.000746,0.000248,0.000796,  47.656
   391.4,0.001014,0.000751,0.000248,0.000796,  47.657
   391.6,0.001017,0.000751,0.000221,0.000809,  47.656
   391.8,0.001014,0.000746,0.000201,0.000796,  47.655
   392.0,0.001014,0.000749,0.000154,0.000796,  47.656
   392.2,0.001011,0.000753,0.000156,0.000809,  47.656
   392.4,0.001014,0.000757,0.000182,0.000796,  47.655
   392.6,0.001014,0.000759,0.000213,0.000796,  47.654
   392.8,0.001017,0.000763,0.000179,0.000809,  47.650
   393.0,0.001014,0.000763,0.000122,0.000796,  47.653
   393.2,0.001011,0.000765,0.000028,0.000796,  47.655
   393.4,0.001014,0.000762,0.000038,0.000809,  47.652
   393.6,0.001011,0.000759,0.000080,0.000796,  47.658
   393.8,0.001008,0.000763,0.000156,0.000796,  47.654
   394.0,0.001014,0.000763,0.000166,0.000809,  47.657
   394.2,0.001014,0.000760,0.000158,0.000809,  47.661
   394.4,0.001014,0.000767,0.000137,0.000809,  47.662
   394.6,0.001017,0.000763,0.000127,0.000809,  47.658
   394.8,0.001021,0.000760,0.000106,0.000809,  47.660
   395.0,0.001014,0.000767,0.000075,0.000809,  47.661
   395.2,0.001023,0.000767,0.000070,0.000809,  47.662
   395.4,0.001023,0.000764,0.000088,0.000809,  47.663
   395.6,0.001020,0.000768,0.000109,0.000809,  47.665
   395.8,0.001026,0.000767,0.000111,0.000809,  47.667
   396.0,0.001023,0.000767,0.000106,0.000809,  47.663
   396.2,0.001020,0.000765,0.000103,0.000809,  47.665
   396.4,0.001023,0.000765,0.000111,0.000809,  47.665
   396.6,0.001027,0.000763,0.000106,0.000809,  47.668
   396.8,0.001023,0.000763,0.000111,0.000809,  47.667
   397.0,0.001021,0.000765,0.000119,0.000809,  47.669
   397.2,0.001027,0.000765,0.000124,0.000774,  47.669
   397.4,0.001023,0.000763,0.000132,0.000809,  47.669
   397.6,0.001021,0.000765,0.000148,0.000809,  47.672
   397.8,0.001027,0.000763,0.000158,0.000822,  47.669
   398.0,0.001023,0.000760,0.000161,0.000822,  47.672
   398.2,0.001023,0.000760,0.000176,0.000822,  47.671
   398.4,0.001026,0.000758,0.000176,0.000836,  47.671
   398.6,0.001020,0.000760,0.000153,0.000822,  47.677
   398.8,0.001026,0.000764,0.000126,0.000822,  47.676
   399.0,0.001023,0.000762,0.000100,0.000836,  47.680
   399.2,0.001020,0.000762,0.000072,0.000822,  47.680
   399.4,0.001026,0.000768,0.000035,0.000822,  47.683
   399.6,0.001023,0.000766,0.000025,0.000836,  47.682
   399.8,0.001020,0.000768,0.000020,0.000822,  47.683
   400.0,0.001026,0.000770,0.000017,0.000822,  47.683
   400.2,0.001023,0.000768,0.000012,0.000836,  47.685
   400.4,0.001020,0.000764,0.000020,0.000822,  47.683
   400.6,0.001026,0.000768,0.000014,0.000822,  47.690
   400.8,0.001029,0.000769,0.000027,0.000836,  47.687
   401.0,0.001026,0.000767,0.000053,0.000822,  47.688
   401.2,0.001023,0.000765,0.000095,0.000822,  47.688
   401.4,0.001024,0.000765,0.000098,0.000822,  47.688
   401.6,0.001021,0.000765,0.000077,0.000809,  47.686
   401.8,0.001021,0.000761,0.000064,0.000809,  47.689
   402.0,0.001024,0.000761,0.000072,0.000822,  47.692
   402.2,0.001021,0.000759,0.000069,0.000822,  47.695
   402.4,0.001018,0.000763,0.000084,0.000822,  47.695
   402.6,0.001021,0.000767,0.000084,0.000836,  47.691
   402.8,0.001018,0.000764,0.000071,0.000822,  47.697
   403.0,0.001018,0.000766,0.000061,0.000822,  47.700
   403.2,0.001024,0.000764,0.000063,0.000822,  47.699
   403.4,0.001024,0.000761,0.000071,0.000844,  47.703
   403.6,0.001018,0.000766,0.000079,0.000844,  47.696
   403.8,0.001021,0.000766,0.000063,0.000809,  47.702
   404.0,0.001027,0.000762,0.000042,0.000831,  47.697
   404.2,0.001027,0.000767,0.000006,0.000831,  47.702
   404.4,0.001027,0.000768,0.000016,0.000809,  47.698
   404.6,0.001027,0.000768,0.000037,0.000831,  47.703
   404.8,0.001023,0.000766,0.000074,0.000831,  47.703
   405.0,0.001027,0.000769,0.000100,0.000809,  47.703
   405.2,0.001030,0.000774,0.000110,0.000844,  47.706
   405.4,0.001027,0.000774,0.000121,0.000857,  47.702
   405.6,0.001030,0.000771,0.000113,0.000844,  47.708
   405.8,0.001027,0.000770,0.000100,0.000857,  47.708
   406.0,0.001024,0.000774,0.000055,0.000844,  47.702
   406.2,0.001030,0.000770,0.000058,0.000844,  47.703
   406.4,0.001030,0.000770,0.000076,0.000844,  47.706
   406.6,0.001024,0.000770,0.000102,0.000844,  47.709
   406.8,0.001027,0.000773,0.000094,0.000844,  47.704
   407.0,0.001022,0.000775,0.000071,0.000809,  47.710
   407.2,0.001016,0.000771,0.000047,0.000844,  47.709
   407.4,0.001022,0.000771,0.000000,0.000844,  47.713
   407.6,0.001022,0.000771,-0.000005,0.000809,  47.715
   407.8,0.001016,0.000765,-0.000005,0.000844,  47.714
   408.0,0.001022,0.000765,0.000019,0.000844,  47.718
   408.2,0.001019,0.000765,0.000045,0.000822,  47.716
   408.4,0.001013,0.000761,0.000074,0.000857,  47.713
   408.6,0.001022,0.000765,0.000105,0.000857,  47.715
   408.8,0.001019,0.000765,0.000121,0.000836,  47.718
   409.0,0.001013,0.000766,0.000128,0.000822,  47.716
   409.2,0.001022,0.000770,0.000110,0.000822,  47.716
   409.4,0.001019,0.000771,0.000105,0.000836,  47.715
   409.6,0.001017,0.000759,0.000102,0.000822,  47.717
   409.8,0.001023,0.000747,0.000092,0.000822,  47.716
   410.0,0.001024,0.000725,0.000060,0.000836,  47.712
   410.2,0.001026,0.000723,0.000024,0.000822,  47.712
   410.4,0.001029,0.000729,-0.000023,0.000822,  47.717
   410.6,0.001032,0.000744,-0.000039,0.000836,  47.715
   410.8,0.001034,0.000750,-0.000045,0.000822,  47.715
   411.0,0.001037,0.000758,-0.000023,0.000822,  47.717
   411.2,0.001034,0.000766,-0.000031,0.000836,  47.713
   411.4,0.001037,0.000764,-0.000037,0.000822,  47.716
   411.6,0.001037,0.000763,-0.000039,0.000822,  47.717
   411.8,0.001031,0.000768,-0.000099,0.000836,  47.715
   412.0,0.001028,0.000765,-0.000209,0.000822,  47.716
   412.2,0.001031,0.000767,-0.000341,0.000822,  47.714
   412.4,0.001031,0.000772,-0.000334,0.000836,  47.712
   412.6,0.001034,0.000772,-0.000279,0.000822,  47.712
   412.8,0.001036,0.000778,-0.000182,0.000822,  47.716
   413.0,0.001027,0.000778,-0.000141,0.000836,  47.714
   413.2,0.001034,0.000778,-0.000092,0.000822,  47.711
   413.4,0.001036,0.000782,-0.000039,0.000836,  47.706
   413.6,0.001027,0.000782,-0.000003,0.000836,  47.707
   413.8,0.001034,0.000782,0.000018,0.000836,  47.707
   414.0,0.001036,0.000784,0.000034,0.000836,  47.709
   414.2,0.001030,0.000785,0.000044,0.000836,  47.705
   414.4,0.001036,0.000783,0.000060,0.000801,  47.705
   414.6,0.001039,0.000783,0.000050,0.000836,  47.706
   414.8,0.001033,0.000781,0.000052,0.000849,  47.704
   415.0,0.001039,0.000777,0.000055,0.000836,  47.704
   415.2,0.001039,0.000778,0.000079,0.000836,  47.703
   415.4,0.001027,0.000778,0.000086,0.000849,  47.700
   415.6,0.001028,0.000776,0.000044,0.000836,  47.700
   415.8,0.001022,0.000778,-0.000005,0.000836,  47.700
   416.0,0.001022,0.000774,-0.000086,0.000849,  47.702
   416.2,0.001022,0.000772,-0.000107,0.000849,  47.699
   416.4,0.001016,0.000770,-0.000105,0.000849,  47.694
   416.6,0.001022,0.000769,-0.000068,0.000862,  47.698
   416.8,0.001022,0.000765,-0.000066,0.000862,  47.694
   417.0,0.001016,0.000763,-0.000076,0.000849,  47.691
   417.2,0.001022,0.000765,-0.000089,0.000862,  47.692
   417.4,0.001019,0.000765,-0.000089,0.000862,  47.696
   417.6,0.001019,0.000763,-0.000079,0.000849,  47.694
   417.8,0.001019,0.000765,-0.000076,0.000862,  47.692
   418.0,0.001023,0.000770,-0.000066,0.000827,  47.689
   418.2,0.001023,0.000766,-0.000042,0.000814,  47.690
   418.4,0.001017,0.000770,-0.000032,0.000827,  47.688
   418.6,0.001023,0.000773,-0.000032,0.000792,  47.693
   418.8,0.001023,0.000773,-0.000042,0.000814,  47.687
   419.0,0.001019,0.000775,-0.000068,0.000827,  47.687
   419.2,0.001028,0.000779,-0.000066,0.000792,  47.690
   419.4,0.001028,0.000781,-0.000050,0.000814,  47.689
   419.6,0.001025,0.000779,-0.000024,0.000827,  47.687
   419.8,0.001031,0.000779,-0.000050,0.000792,  47.689
   420.0,0.001028,0.000781,-0.000097,0.000814,  47.687
   420.2,0.001031,0.000778,-0.000162,0.000827,  47.689
   420.4,0.001019,0.000775,-0.000160,0.000792,  47.684
   420.6,0.001026,0.000775,-0.000139,0.000814,  47.686
   420.8,0.001026,0.000779,-0.000092,0.000827,  47.686
   421.0,0.001026,0.000777,-0.000071,0.000792,  47.685
   421.2,0.001028,0.000775,-0.000058,0.000814,  47.686
   421.4,0.001022,0.000775,-0.000056,0.000827,  47.685
   421.6,0.001022,0.000777,-0.000045,0.000792,  47.685
   421.8,0.001022,0.000773,-0.000038,0.000814,  47.681
   422.0,0.001016,0.000773,-0.000030,0.000827,  47.685
   422.2,0.001019,0.000777,-0.000045,0.000792,  47.685
   422.4,0.001017,0.000774,-0.000072,0.000814,  47.686
   422.6,0.001017,0.000776,-0.000108,0.000814,  47.679
   422.8,0.001017,0.000776,-0.000122,0.000814,  47.679
   423.0,0.001023,0.000776,-0.000114,0.000814,  47.685
   423.2,0.001023,0.000779,-0.000106,0.000836,  47.681
   423.4,0.001017,0.000782,-0.000106,0.000849,  47.681
   423.6,0.001023,0.000778,-0.000111,0.000849,  47.683
   423.8,0.001020,0.000774,-0.000106,0.000849,  47.681
   424.0,0.001020,0.000775,-0.000108,0.000862,  47.681
   424.2,0.001026,0.000773,-0.000106,0.000862,  47.686
   424.4,0.001024,0.000770,-0.000103,0.000849,  47.683
   424.6,0.001024,0.000770,-0.000103,0.000862,  47.685
   424.8,0.001024,0.000768,-0.000117,0.000862,  47.681
   425.0,0.001026,0.000774,-0.000127,0.000849,  47.681
   425.2,0.001026,0.000776,-0.000148,0.000862,  47.679
   425.4,0.001026,0.000772,-0.000164,0.000862,  47.680
   425.6,0.001026,0.000774,-0.000179,0.000849,  47.679
   425.8,0.001020,0.000772,-0.000184,0.000862,  47.680
   426.0,0.001020,0.000768,-0.000176,0.000862,  47.675
   426.2,0.001020,0.000773,-0.000174,0.000849,  47.676
   426.4,0.001014,0.000769,-0.000145,0.000862,  47.674
   426.6,0.001018,0.000777,-0.000127,0.000862,  47.672
   426.8,0.001020,0.000777,-0.000124,0.000849,  47.675
   427.0,0.001014,0.000778,-0.000116,0.000862,  47.674
   427.2,0.001018,0.000778,-0.000161,0.000862,  47.672
   427.4,0.001020,0.000776,-0.000231,0.000849,  47.673
   427.6,0.001014,0.000776,-0.000325,0.000862,  47.676
   427.8,0.001020,0.000773,-0.000349,0.000862,  47.672
   428.0,0.001020,0.000771,-0.000346,0.000849,  47.668
   428.2,0.001020,0.000775,-0.000312,0.000862,  47.666
   428.4,0.001024,0.000775,-0.000299,0.000862,  47.671
   428.6,0.001024,0.000775,-0.000279,0.000849,  47.675
   428.8,0.001026,0.000779,-0.000245,0.000862,  47.669
   429.0,0.001026,0.000781,-0.000224,0.000862,  47.670
   429.2,0.001026,0.000777,-0.000195,0.000849,  47.669
   429.4,0.001029,0.000784,-0.000169,0.000862,  47.670
   429.6,0.001029,0.000787,-0.000143,0.000862,  47.666
   429.8,0.001029,0.000788,-0.000119,0.000849,  47.668
   430.0,0.001032,0.000790,-0.000117,0.000862,  47.678
   430.2,0.001032,0.000793,-0.000106,0.000862,  47.675
   430.4,0.001029,0.000794,-0.000098,0.000849,  47.675
   430.6,0.001029,0.000796,-0.000098,0.000862,  47.674
   430.8,0.001032,0.000790,-0.000098,0.000849,  47.674
   431.0,0.001038,0.000788,-0.000106,0.000871,  47.674
   431.2,0.001038,0.000789,-0.000117,0.000884,  47.673
   431.4,0.001037,0.000789,-0.000109,0.000836,  47.673
   431.6,0.001043,0.000789,-0.000093,0.000871,  47.671
   431.8,0.001043,0.000795,-0.000083,0.000871,  47.675
   432.0,0.001040,0.000798,-0.000106,0.000871,  47.673
   432.2,0.001037,0.000792,-0.000143,0.000884,  47.674
   432.4,0.001037,0.000788,-0.000190,0.000884,  47.669
   432.6,0.001037,0.000781,-0.000192,0.000897,  47.676
   432.8,0.001032,0.000777,-0.000198,0.000897,  47.671
   433.0,0.001032,0.000783,-0.000174,0.000849,  47.672
   433.2,0.001034,0.000784,-0.000148,0.000862,  47.674
   433.4,0.001034,0.000785,-0.000129,0.000862,  47.674
   433.6,0.001034,0.000785,-0.000125,0.000849,  47.674
   433.8,0.001028,0.000786,-0.000106,0.000862,  47.674
   434.0,0.001026,0.000786,-0.000114,0.000862,  47.675
   434.2,0.001026,0.000784,-0.000132,0.000849,  47.674
   434.4,0.001025,0.000786,-0.000164,0.000862,  47.678
   434.6,0.001031,0.000784,-0.000200,0.000849,  47.678
   434.8,0.001034,0.000781,-0.000242,0.000871,  47.674
   435.0,0.001027,0.000786,-0.000299,0.000884,  47.685
   435.2,0.001034,0.000786,-0.000289,0.000849,  47.678
   435.4,0.001036,0.000790,-0.000252,0.000884,  47.685
   435.6,0.001030,0.000787,-0.000179,0.000897,  47.679
   435.8,0.001036,0.000793,-0.000203,0.000862,  47.680
   436.0,0.001039,0.000790,-0.000250,0.000884,  47.682
   436.2,0.001039,0.000792,-0.000331,0.000897,  47.679
   436.4,0.001042,0.000792,-0.000328,0.000862,  47.681
   436.6,0.001045,0.000788,-0.000294,0.000884,  47.680
   436.8,0.001045,0.000793,-0.000239,0.000897,  47.683
   437.0,0.001042,0.000795,-0.000218,0.000862,  47.679
   437.2,0.001045,0.000793,-0.000200,0.000897,  47.684
   437.4,0.001042,0.000794,-0.000182,0.000911,  47.682
   437.6,0.001040,0.000794,-0.000145,0.000862,  47.683
   437.8,0.001040,0.000792,-0.000109,0.000897,  47.686
   438.0,0.001042,0.000796,-0.000078,0.000911,  47.680
   438.2,0.001040,0.000797,-0.000075,0.000862,  47.686
   438.4,0.001040,0.000795,-0.000078,0.000897,  47.688
   438.6,0.001042,0.000797,-0.000090,0.000911,  47.691
   438.8,0.001040,0.000792,-0.000090,0.000862,  47.687
   439.0,0.001040,0.000791,-0.000104,0.000897,  47.687
   439.2,0.001042,0.000795,-0.000104,0.000911,  47.686
   439.4,0.001036,0.000794,-0.000093,0.000862,  47.684
   439.6,0.001039,0.000796,-0.000075,0.000897,  47.685
   439.8,0.001042,0.000798,-0.000065,0.000911,  47.687
   440.0,0.001033,0.000800,-0.000054,0.000862,  47.692
   440.2,0.001036,0.000796,-0.000039,0.000897,  47.687
   440.4,0.001039,0.000796,-0.000039,0.000897,  47.688
   440.6,0.001030,0.000800,-0.000044,0.000911,  47.688
   440.8,0.001034,0.000796,-0.000054,0.000897,  47.688
   441.0,0.001034,0.000796,-0.000073,0.000897,  47.687
   441.2,0.001027,0.000794,-0.000088,0.000911,  47.687
   441.4,0.001031,0.000789,-0.000107,0.000897,  47.686
   441.6,0.001034,0.000789,-0.000135,0.000897,  47.687
   441.8,0.001027,0.000787,-0.000154,0.000911,  47.691
   442.0,0.001034,0.000786,-0.000162,0.000862,  47.689
   442.2,0.001034,0.000788,-0.000167,0.000897,  47.690
   442.4,0.001027,0.000795,-0.000174,0.000911,  47.689
   442.6,0.001031,0.000795,-0.000188,0.000862,  47.691
   442.8,0.001031,0.000795,-0.000190,0.000897,  47.685
   443.0,0.001031,0.000788,-0.000193,0.000911,  47.687
   443.2,0.001032,0.000794,-0.000190,0.000862,  47.690
   443.4,0.001032,0.000796,-0.000167,0.000897,  47.688
   443.6,0.001034,0.000799,-0.000148,0.000911,  47.688
   443.8,0.001034,0.000804,-0.000148,0.000862,  47.688
   444.0,0.001034,0.000804,-0.000159,0.000897,  47.690
   444.2,0.001032,0.000802,-0.000177,0.000911,  47.689
   444.4,0.001029,0.000803,-0.000180,0.000862,  47.690
   444.6,0.001029,0.000800,-0.000164,0.000897,  47.687
   444.8,0.001032,0.000800,-0.000154,0.000911,  47.689
   445.0,0.001032,0.000802,-0.000138,0.000862,  47.686
   445.2,0.001032,0.000802,-0.000122,0.000897,  47.689
   445.4,0.001037,0.000810,-0.000109,0.000911,  47.687
   445.6,0.001043,0.000810,-0.000095,0.000876,  47.687
   445.8,0.001043,0.000808,-0.000087,0.000876,  47.691
   446.0,0.001043,0.000812,-0.000109,0.000889,  47.686
   446.2,0.001047,0.000810,-0.000101,0.000889,  47.686
   446.4,0.001047,0.000808,-0.000101,0.000876,  47.684
   446.6,0.001043,0.000812,-0.000101,0.000889,  47.683
   446.8,0.001055,0.000812,-0.000135,0.000889,  47.684
   447.0,0.001051,0.000810,-0.000182,0.000876,  47.685
   447.2,0.001045,0.000812,-0.000239,0.000889,  47.685
   447.4,0.001048,0.000810,-0.000237,0.000889,  47.687
   447.6,0.001046,0.000803,-0.000216,0.000876,  47.689
   447.8,0.001048,0.000805,-0.000161,0.000889,  47.685
   448.0,0.001042,0.000801,-0.000132,0.000889,  47.681
   448.2,0.001048,0.000799,-0.000114,0.000876,  47.683
   448.4,0.001051,0.000794,-0.000104,0.000889,  47.685
   448.6,0.001045,0.000799,-0.000120,0.000889,  47.688
   448.8,0.001048,0.000801,-0.000148,0.000876,  47.686
   449.0,0.001051,0.000802,-0.000198,0.000876,  47.688
   449.2,0.001042,0.000807,-0.000198,0.000889,  47.685
   449.4,0.001046,0.000811,-0.000182,0.000854,  47.686
   449.6,0.001046,0.000813,-0.000169,0.000876,  47.688
   449.8,0.001037,0.000812,-0.000159,0.000889,  47.686
   450.0,0.001040,0.000815,-0.000146,0.000889,  47.683
   450.2,0.001040,0.000816,-0.000135,0.000876,  47.690
   450.4,0.001038,0.000813,-0.000117,0.000889,  47.687
   450.6,0.001041,0.000813,-0.000107,0.000889,  47.686
   450.8,0.001041,0.000811,-0.000099,0.000876,  47.686
   451.0,0.001038,0.000812,-0.000099,0.000889,  47.687
   451.2,0.001038,0.000807,-0.000083,0.000889,  47.689
   451.4,0.001038,0.000805,-0.000081,0.000876,  47.689
   451.6,0.001037,0.000810,-0.000075,0.000889,  47.689
   451.8,0.001043,0.000810,-0.000065,0.000889,  47.687
   452.0,0.001043,0.000812,-0.000049,0.000876,  47.687
   452.2,0.001040,0.000814,-0.000041,0.000889,  47.689
   452.4,0.001043,0.000810,-0.000039,0.000889,  47.690
   452.6,0.001043,0.000810,-0.000041,0.000876,  47.686
   452.8,0.001037,0.000806,-0.000041,0.000889,  47.689
   453.0,0.001040,0.000806,-0.000039,0.000889,  47.687
   453.2,0.001043,0.000806,-0.000039,0.000876,  47.686
   453.4,0.001037,0.000807,-0.000031,0.000889,  47.685
   453.6,0.001046,0.000809,-0.000049,0.000889,  47.685
   453.8,0.001046,0.000804,-0.000078,0.000876,  47.685
   454.0,0.001040,0.000802,-0.000117,0.000889,  47.686
   454.2,0.001043,0.000803,-0.000117,0.000889,  47.688
   454.4,0.001046,0.000803,-0.000122,0.000876,  47.686
   454.6,0.001042,0.000803,-0.000112,0.000889,  47.688
   454.8,0.001048,0.000805,-0.000091,0.000889,  47.685
   455.0,0.001048,0.000807,-0.000060,0.000876,  47.687
   455.2,0.001042,0.000807,-0.000015,0.000889,  47.687
   455.4,0.001042,0.000805,-0.000036,0.000889,  47.686
   455.6,0.001042,0.000805,-0.000091,0.000876,  47.686
   455.8,0.001042,0.000805,-0.000188,0.000889,  47.688
   456.0,0.001048,0.000805,-0.000196,0.000889,  47.690
   456.2,0.001048,0.000807,-0.000177,0.000876,  47.687
   456.4,0.001048,0.000807,-0.000141,0.000889,  47.686
   456.6,0.001046,0.000810,-0.000165,0.000889,  47.684
   456.8,0.001047,0.000808,-0.000188,0.000876,  47.683
   457.0,0.001047,0.000812,-0.000245,0.000889,  47.679
   457.2,0.001047,0.000813,-0.000261,0.000889,  47.680
   457.4,0.001047,0.000810,-0.000253,0.000876,  47.682
   457.6,0.001047,0.000812,-0.000243,0.000876,  47.678
   457.8,0.001049,0.000816,-0.000266,0.000889,  47.677
   458.0,0.001049,0.000816,-0.000292,0.000854,  47.679
   458.2,0.001049,0.000813,-0.000316,0.000876,  47.680
   458.4,0.001046,0.000813,-0.000324,0.000889,  47.680
   458.6,0.001043,0.000813,-0.000327,0.000889,  47.675
   458.8,0.001043,0.000815,-0.000303,0.000876,  47.676
   459.0,0.001040,0.000814,-0.000277,0.000889,  47.677
   459.2,0.001037,0.000811,-0.000313,0.000889,  47.681
   459.4,0.001037,0.000813,-0.000371,0.000889,  47.679
   459.6,0.001037,0.000811,-0.000446,0.000889,  47.677
   459.8,0.001038,0.000809,-0.000444,0.000889,  47.677
   460.0,0.001044,0.000816,-0.000407,0.000889,  47.679
   460.2,0.001047,0.000815,-0.000350,0.000889,  47.675
   460.4,0.001050,0.000815,-0.000321,0.000889,  47.678
   460.6,0.001050,0.000812,-0.000287,0.000889,  47.675
   460.8,0.001055,0.000814,-0.000269,0.000889,  47.678
   461.0,0.001049,0.000811,-0.000258,0.000889,  47.676
   461.2,0.001043,0.000811,-0.000253,0.000889,  47.677
   461.4,0.001046,0.000807,-0.000269,0.000889,  47.676
   461.6,0.001049,0.000806,-0.000240,0.000889,  47.669
   461.8,0.001052,0.000799,-0.000219,0.000889,  47.674
   462.0,0.001052,0.000805,-0.000183,0.000889,  47.675
   462.2,0.001052,0.000811,-0.000162,0.000889,  47.674
   462.4,0.001055,0.000810,-0.000152,0.000889,  47.675
   462.6,0.001052,0.000810,-0.000152,0.000903,  47.673
   462.8,0.001052,0.000814,-0.000170,0.000903,  47.675
   463.0,0.001052,0.000818,-0.000201,0.000903,  47.672
   463.2,0.001055,0.000816,-0.000264,0.000916,  47.672
   463.4,0.001052,0.000820,-0.000280,0.000916,  47.672
   463.6,0.001052,0.000820,-0.000266,0.000903,  47.673
   463.8,0.001055,0.000816,-0.000251,0.000903,  47.668
   464.0,0.001052,0.000813,-0.000238,0.000903,  47.671
   464.2,0.001052,0.000817,-0.000204,0.000903,  47.673
   464.4,0.001055,0.000815,-0.000169,0.000903,  47.674
   464.6,0.001052,0.000817,-0.000167,0.000903,  47.672
   464.8,0.001052,0.000819,-0.000175,0.000903,  47.669
   465.0,0.001055,0.000821,-0.000201,0.000903,  47.666
   465.2,0.001055,0.000818,-0.000193,0.000903,  47.671
   465.4,0.001057,0.000818,-0.000175,0.000903,  47.670
   465.6,0.001063,0.000817,-0.000165,0.000903,  47.668
   465.8,0.001061,0.000819,-0.000159,0.000903,  47.668
   466.0,0.001061,0.000819,-0.000169,0.000868,  47.666
   466.2,0.001064,0.000822,-0.000188,0.000903,  47.664
   466.4,0.001064,0.000820,-0.000180,0.000903,  47.661
   466.6,0.001064,0.000823,-0.000177,0.000903,  47.662
   466.8,0.001061,0.000821,-0.000167,0.000903,  47.662
   467.0,0.001061,0.000819,-0.000157,0.000903,  47.665
   467.2,0.001067,0.000825,-0.000154,0.000903,  47.662
   467.4,0.001063,0.000825,-0.000130,0.000903,  47.660
   467.6,0.001063,0.000821,-0.000128,0.000903,  47.662
   467.8,0.001069,0.000823,-0.000123,0.000903,  47.660
   468.0,0.001066,0.000821,-0.000113,0.000903,  47.663
   468.2,0.001066,0.000823,-0.000089,0.000903,  47.658
   468.4,0.001066,0.000821,-0.000086,0.000903,  47.662
   468.6,0.001069,0.000823,-0.000086,0.000903,  47.660
   468.8,0.001063,0.000823,-0.000097,0.000903,  47.660
   469.0,0.001058,0.000825,-0.000118,0.000903,  47.657
   469.2,0.001058,0.000823,-0.000123,0.000903,  47.658
   469.4,0.001055,0.000821,-0.000152,0.000903,  47.659
   469.6,0.001053,0.000821,-0.000186,0.000903,  47.660
   469.8,0.001053,0.000821,-0.000209,0.000903,  47.657
   470.0,0.001055,0.000823,-0.000256,0.000903,  47.659
   470.2,0.001055,0.000821,-0.000272,0.000903,  47.658
   470.4,0.001058,0.000821,-0.000258,0.000903,  47.656
   470.6,0.001061,0.000823,-0.000248,0.000903,  47.659
   470.8,0.001061,0.000823,-0.000282,0.000903,  47.659
   471.0,0.001063,0.000825,-0.000324,0.000903,  47.656
   471.2,0.001063,0.000825,-0.000381,0.000889,  47.657
   471.4,0.001061,0.000825,-0.000360,0.000889,  47.656
   471.6,0.001067,0.000823,-0.000313,0.000924,  47.655
   471.8,0.001061,0.000823,-0.000227,0.000924,  47.656
   472.0,0.001067,0.000825,-0.000196,0.000889,  47.649
   472.2,0.001067,0.000823,-0.000186,0.000938,  47.653
   472.4,0.001067,0.000820,-0.000183,0.000951,  47.653
   472.6,0.001070,0.000825,-0.000189,0.000916,  47.653
   472.8,0.001064,0.000822,-0.000209,0.000938,  47.652
   473.0,0.001061,0.000822,-0.000241,0.000938,  47.652
   473.2,0.001058,0.000823,-0.000233,0.000903,  47.652
   473.4,0.001064,0.000821,-0.000228,0.000938,  47.652
   473.6,0.001061,0.000825,-0.000217,0.000938,  47.651
   473.8,0.001058,0.000824,-0.000217,0.000903,  47.650
   474.0,0.001064,0.000822,-0.000225,0.000938,  47.653
   474.2,0.001058,0.000823,-0.000244,0.000924,  47.656
   474.4,0.001055,0.000825,-0.000246,0.000924,  47.654
   474.6,0.001059,0.000825,-0.000249,0.000924,  47.649
   474.8,0.001053,0.000825,-0.000246,0.000924,  47.650
   475.0,0.001050,0.000825,-0.000246,0.000911,  47.649
   475.2,0.001053,0.000821,-0.000238,0.000911,  47.650
   475.4,0.001047,0.000823,-0.000233,0.000924,  47.652
   475.6,0.001050,0.000820,-0.000217,0.000938,  47.650
   475.8,0.001056,0.000813,-0.000225,0.000903,  47.650
   476.0,0.001050,0.000817,-0.000254,0.000938,  47.651
   476.2,0.001053,0.000816,-0.000272,0.000951,  47.656
   476.4,0.001050,0.000816,-0.000314,0.000916,  47.650
   476.6,0.001050,0.000817,-0.000379,0.000938,  47.649
   476.8,0.001050,0.000824,-0.000475,0.000938,  47.648
   477.0,0.001053,0.000826,-0.000473,0.000903,  47.648
   477.2,0.001047,0.000828,-0.000426,0.000938,  47.650
   477.4,0.001047,0.000825,-0.000348,0.000938,  47.651
   477.6,0.001053,0.000825,-0.000335,0.000903,  47.653
   477.8,0.001047,0.000821,-0.000337,0.000938,  47.649
   478.0,0.001047,0.000823,-0.000348,0.000938,  47.651
   478.2,0.001053,0.000824,-0.000335,0.000903,  47.648
   478.4,0.001047,0.000824,-0.000317,0.000938,  47.649
   478.6,0.001047,0.000824,-0.000296,0.000938,  47.649
   478.8,0.001053,0.000826,-0.000278,0.000903,  47.650
   479.0,0.001047,0.000823,-0.000283,0.000938,  47.651
   479.2,0.001047,0.000825,-0.000286,0.000938,  47.650
   479.4,0.001053,0.000832,-0.000278,0.000903,  47.650
   479.6,0.001047,0.000827,-0.000283,0.000938,  47.652
   479.8,0.001050,0.000830,-0.000291,0.000924,  47.650
   480.0,0.001059,0.000828,-0.000309,0.000889,  47.653
   480.2,0.001055,0.000826,-0.000328,0.000924,  47.653
   480.4,0.001055,0.000827,-0.000356,0.000911,  47.654
   480.6,0.001064,0.000825,-0.000354,0.000876,  47.649
   480.8,0.001064,0.000823,-0.000335,0.000924,  47.651
   481.0,0.001067,0.000825,-0.000307,0.000924,  47.648
   481.2,0.001064,0.000828,-0.000286,0.000889,  47.648
   481.4,0.001061,0.000825,-0.000278,0.000924,  47.649
   481.6,0.001058,0.000823,-0.000270,0.000924,  47.649
   481.8,0.001061,0.000825,-0.000260,0.000889,  47.648
   482.0,0.001064,0.000820,-0.000252,0.000924,  47.650
   482.2,0.001061,0.000820,-0.000244,0.000924,  47.648
   482.4,0.001061,0.000824,-0.000249,0.000889,  47.646
   482.6,0.001067,0.000828,-0.000249,0.000924,  47.646
   482.8,0.001063,0.000828,-0.000249,0.000924,  47.646
   483.0,0.001063,0.000834,-0.000247,0.000924,  47.647
   483.2,0.001067,0.000836,-0.000234,0.000924,  47.643
   483.4,0.001061,0.000839,-0.000228,0.000924,  47.645
   483.6,0.001061,0.000838,-0.000239,0.000924,  47.648
   483.8,0.001061,0.000834,-0.000265,0.000924,  47.645
   484.0,0.001058,0.000836,-0.000288,0.000924,  47.647
   484.2,0.001058,0.000841,-0.000332,0.000924,  47.648
   484.4,0.001064,0.000836,-0.000340,0.000924,  47.646
   484.6,0.001061,0.000839,-0.000340,0.000946,  47.646
   484.8,0.001061,0.000840,-0.000338,0.000959,  47.646
   485.0,0.001061,0.000841,-0.000346,0.000959,  47.645
   485.2,0.001063,0.000840,-0.000348,0.000946,  47.643
   485.4,0.001063,0.000840,-0.000359,0.000959,  47.646
   485.6,0.001063,0.000842,-0.000367,0.000959,  47.640
   485.8,0.001066,0.000844,-0.000377,0.000946,  47.640
   486.0,0.001066,0.000844,-0.000382,0.000959,  47.641
   486.2,0.001069,0.000846,-0.000353,0.000924,  47.639
   486.4,0.001069,0.000841,-0.000314,0.000911,  47.640
   486.6,0.001069,0.000845,-0.000254,0.000924,  47.636
   486.8,0.001075,0.000839,-0.000283,0.000889,  47.641
   487.0,0.001069,0.000839,-0.000353,0.000924,  47.641
   487.2,0.001069,0.000841,-0.000450,0.000924,  47.639
   487.4,0.001075,0.000844,-0.000431,0.000889,  47.639
   487.6,0.001071,0.000846,-0.000384,0.000924,  47.637
   487.8,0.001074,0.000845,-0.000298,0.000924,  47.635
   488.0,0.001080,0.000847,-0.000272,0.000889,  47.634
   488.2,0.001077,0.000843,-0.000280,0.000924,  47.634
   488.4,0.001077,0.000839,-0.000298,0.000938,  47.630
   488.6,0.001077,0.000843,-0.000296,0.000903,  47.630
   488.8,0.001077,0.000846,-0.000296,0.000938,  47.628
   489.0,0.001077,0.000844,-0.000296,0.000951,  47.631
   489.2,0.001077,0.000840,-0.000283,0.000916,  47.626
   489.4,0.001083,0.000844,-0.000270,0.000938,  47.627
   489.6,0.001077,0.000842,-0.000252,0.000938,  47.629
   489.8,0.001075,0.000838,-0.000226,0.000903,  47.627
   490.0,0.001081,0.000838,-0.000215,0.000938,  47.631
   490.2,0.001072,0.000831,-0.000207,0.000924,  47.628
   490.4,0.001078,0.000831,-0.000197,0.000924,  47.627
   490.6,0.001078,0.000824,-0.000197,0.000946,  47.625
   490.8,0.001075,0.000826,-0.000205,0.000946,  47.623
   491.0,0.001078,0.000828,-0.000213,0.000946,  47.600
   491.2,0.001073,0.000824,-0.000239,0.000959,  47.596
   491.4,0.001067,0.000829,-0.000268,0.000959,  47.597
   491.6,0.001073,0.000828,-0.000257,0.000924,  47.600
   491.8,0.001068,0.000826,-0.000239,0.000924,  47.598
   492.0,0.001061,0.000828,-0.000200,0.000924,  47.596
   492.2,0.001068,0.000828,-0.000192,0.000924,  47.594
   492.4,0.001065,0.000830,-0.000205,0.000924,  47.591
   492.6,0.001059,0.000830,-0.000207,0.000924,  47.597
   492.8,0.001065,0.000830,-0.000247,0.000924,  47.593
   493.0,0.001065,0.000832,-0.000247,0.000889,  47.592
   493.2,0.001059,0.000832,-0.000239,0.000924,  47.587
   493.4,0.001068,0.000832,-0.000223,0.000924,  47.593
   493.6,0.001068,0.000834,-0.000237,0.000889,  47.586
   493.8,0.001061,0.000836,-0.000242,0.000924,  47.590
   494.0,0.001070,0.000836,-0.000254,0.000924,  47.588
   494.2,0.001068,0.000838,-0.000262,0.000889,  47.589
   494.4,0.001061,0.000833,-0.000281,0.000924,  47.587
   494.6,0.001068,0.000833,-0.000291,0.000924,  47.588
   494.8,0.001071,0.000833,-0.000289,0.000889,  47.582
   495.0,0.001065,0.000831,-0.000273,0.000924,  47.583
   495.2,0.001065,0.000833,-0.000262,0.000938,  47.587
   495.4,0.001062,0.000835,-0.000296,0.000903,  47.584
   495.6,0.001056,0.000832,-0.000354,0.000903,  47.583
   495.8,0.001065,0.000830,-0.000435,0.000916,  47.585
   496.0,0.001062,0.000832,-0.000422,0.000916,  47.576
   496.2,0.001059,0.000832,-0.000362,0.000903,  47.578
   496.4,0.001068,0.000834,-0.000278,0.000903,  47.576
   496.6,0.001070,0.000835,-0.000286,0.000916,  47.575
   496.8,0.001067,0.000835,-0.000315,0.000916,  47.578
   497.0,0.001070,0.000834,-0.000388,0.000916,  47.580
   497.2,0.001070,0.000838,-0.000414,0.000929,  47.577
   497.4,0.001068,0.000837,-0.000427,0.000929,  47.577
   497.6,0.001074,0.000838,-0.000442,0.000929,  47.573
   497.8,0.001065,0.000841,-0.000424,0.000929,  47.572
   498.0,0.001074,0.000841,-0.000385,0.000929,  47.572
   498.2,0.001068,0.000847,-0.000338,0.000929,  47.573
   498.4,0.001066,0.000845,-0.000330,0.000929,  47.574
   498.6,0.001068,0.000840,-0.000330,0.000916,  47.575
   498.8,0.001062,0.000840,-0.000362,0.000916,  47.575
   499.0,0.001065,0.000837,-0.000362,0.000929,  47.574
   499.2,0.001071,0.000837,-0.000377,0.000916,  47.571
   499.4,0.001068,0.000834,-0.000380,0.000916,  47.569
   499.6,0.001068,0.000840,-0.000377,0.000916,  47.573
   499.8,0.001076,0.000843,-0.000385,0.000868,  47.574
   500.0,0.001073,0.000843,-0.000385,0.000903,  47.574
   500.2,0.001070,0.000845,-0.000377,0.000903,  47.569
   500.4,0.001076,0.000843,-0.000385,0.000903,  47.572
   500.6,0.001070,0.000844,-0.000385,0.000903,  47.574
   500.8,0.001070,0.000839,-0.000385,0.000903,  47.572
   501.0,0.001074,0.000834,-0.000370,0.000903,  47.570
   501.2,0.001070,0.000838,-0.000375,0.000903,  47.569
   501.4,0.001073,0.000840,-0.000359,0.000903,  47.571
   501.6,0.001073,0.000837,-0.000359,0.000903,  47.571
   501.8,0.001069,0.000838,-0.000351,0.000903,  47.570
   502.0,0.001076,0.000838,-0.000338,0.000903,  47.569
   502.2,0.001076,0.000840,-0.000332,0.000903,  47.570
   502.4,0.001072,0.000838,-0.000332,0.000903,  47.573
   502.6,0.001069,0.000836,-0.000354,0.000903,  47.569
   502.8,0.001067,0.000836,-0.000351,0.000903,  47.574
   503.0,0.001063,0.000840,-0.000338,0.000938,  47.573
   503.2,0.001072,0.000840,-0.000304,0.000924,  47.567
   503.4,0.001081,0.000844,-0.000294,0.000889,  47.568
   503.6,0.001075,0.000846,-0.000291,0.000911,  47.575
   503.8,0.001078,0.000845,-0.000281,0.000911,  47.573
   504.0,0.001076,0.000844,-0.000270,0.000876,  47.571
   504.2,0.001072,0.000835,-0.000260,0.000924,  47.572
   504.4,0.001078,0.000836,-0.000249,0.000924,  47.571
   504.6,0.001081,0.000838,-0.000257,0.000889,  47.570
   504.8,0.001075,0.000837,-0.000276,0.000924,  47.572
   505.0,0.001081,0.000832,-0.000296,0.000938,  47.572
   505.2,0.001087,0.000836,-0.000302,0.000903,  47.573
   505.4,0.001081,0.000838,-0.000291,0.000938,  47.574
   505.6,0.001084,0.000841,-0.000284,0.000951,  47.575
   505.8,0.001088,0.000843,-0.000281,0.000916,  47.574
   506.0,0.001088,0.000843,-0.000273,0.000938,  47.571
   506.2,0.001082,0.000841,-0.000265,0.000938,  47.572
   506.4,0.001082,0.000841,-0.000291,0.000903,  47.570
   506.6,0.001079,0.000841,-0.000333,0.000938,  47.571
   506.8,0.001079,0.000839,-0.000398,0.000938,  47.573
   507.0,0.001076,0.000841,-0.000411,0.000903,  47.575
   507.2,0.001076,0.000841,-0.000396,0.000938,  47.576
   507.4,0.001076,0.000839,-0.000375,0.000938,  47.574
   507.6,0.001071,0.000840,-0.000362,0.000903,  47.570
   507.8,0.001078,0.000842,-0.000352,0.000938,  47.574
   508.0,0.001078,0.000842,-0.000333,0.000938,  47.572
   508.2,0.001072,0.000840,-0.000323,0.000903,  47.571
   508.4,0.001078,0.000844,-0.000323,0.000938,  47.572
   508.6,0.001072,0.000839,-0.000339,0.000938,  47.572
   508.8,0.001072,0.000836,-0.000336,0.000938,  47.571
   509.0,0.001072,0.000832,-0.000328,0.000938,  47.572
   509.2,0.001063,0.000830,-0.000321,0.000938,  47.574
   509.4,0.001069,0.000830,-0.000313,0.000938,  47.575
   509.6,0.001067,0.000832,-0.000318,0.000938,  47.571
   509.8,0.001063,0.000832,-0.000313,0.000938,  47.571
   510.0,0.001066,0.000836,-0.000321,0.000938,  47.573
   510.2,0.001068,0.000836,-0.000378,0.000903,  47.573
   510.4,0.001065,0.000834,-0.000469,0.000938,  47.571
   510.6,0.001071,0.000837,-0.000581,0.000938,  47.573
   510.8,0.001072,0.000840,-0.000581,0.000903,  47.574
   511.0,0.001066,0.000838,-0.000542,0.000938,  47.576
   511.2,0.001072,0.000844,-0.000472,0.000938,  47.573
   511.4,0.001072,0.000846,-0.000451,0.000903,  47.576
   511.6,0.001068,0.000843,-0.000431,0.000938,  47.571
   511.8,0.001080,0.000846,-0.000415,0.000938,  47.574
   512.0,0.001088,0.000846,-0.000439,0.000903,  47.573
   512.2,0.001084,0.000841,-0.000470,0.000938,  47.572
   512.4,0.001088,0.000844,-0.000529,0.000924,  47.571
   512.6,0.001088,0.000844,-0.000537,0.000924,  47.570
   512.8,0.001090,0.000841,-0.000527,0.000946,  47.573
   513.0,0.001088,0.000841,-0.000514,0.000959,  47.572
   513.2,0.001091,0.000844,-0.000499,0.000924,  47.574
   513.4,0.001094,0.000846,-0.000457,0.000938,  47.572
   513.6,0.001088,0.000844,-0.000420,0.000938,  47.574
   513.8,0.001094,0.000846,-0.000428,0.000903,  47.574
   514.0,0.001090,0.000846,-0.000457,0.000924,  47.574
   514.2,0.001088,0.000842,-0.000512,0.000911,  47.573
   514.4,0.001085,0.000842,-0.000506,0.000876,  47.577
   514.6,0.001082,0.000840,-0.000506,0.000924,  47.576
   514.8,0.001088,0.000838,-0.000488,0.000938,  47.573
   515.0,0.001085,0.000843,-0.000467,0.000903,  47.571
   515.2,0.001085,0.000844,-0.000433,0.000938,  47.574
   515.4,0.001085,0.000843,-0.000397,0.000951,  47.571
   515.6,0.001079,0.000845,-0.000392,0.000916,  47.573
   515.8,0.001085,0.000849,-0.000386,0.000938,  47.571
   516.0,0.001079,0.000844,-0.000381,0.000938,  47.573
   516.2,0.001079,0.000848,-0.000415,0.000903,  47.574
   516.4,0.001088,0.000850,-0.000448,0.000938,  47.574
   516.6,0.001090,0.000846,-0.000514,0.000924,  47.570
   516.8,0.001090,0.000848,-0.000506,0.000889,  47.572
   517.0,0.001096,0.000850,-0.000480,0.000924,  47.572
   517.2,0.001099,0.000851,-0.000441,0.000924,  47.576
   517.4,0.001093,0.000858,-0.000407,0.000924,  47.574
   517.6,0.001099,0.000858,-0.000386,0.000924,  47.573
   517.8,0.001102,0.000860,-0.000352,0.000938,  47.577
   518.0,0.001098,0.000857,-0.000339,0.000951,  47.574
   518.2,0.001104,0.000857,-0.000331,0.000951,  47.573
   518.4,0.001107,0.000861,-0.000326,0.000938,  47.572
   518.6,0.001104,0.000863,-0.000323,0.000938,  47.574
   518.8,0.001107,0.000862,-0.000315,0.000903,  47.569
   519.0,0.001107,0.000858,-0.000313,0.000938,  47.575
   519.2,0.001101,0.000859,-0.000307,0.000938,  47.576
   519.4,0.001104,0.000859,-0.000276,0.000903,  47.569
   519.6,0.001104,0.000858,-0.000265,0.000938,  47.575
   519.8,0.001101,0.000860,-0.000245,0.000938,  47.574
   520.0,0.001104,0.000862,-0.000263,0.000903,  47.573
   520.2,0.001104,0.000862,-0.000299,0.000938,  47.571
   520.4,0.001104,0.000864,-0.000357,0.000938,  47.569
   520.6,0.001110,0.000866,-0.000372,0.000903,  47.572
   520.8,0.001110,0.000868,-0.000365,0.000938,  47.571
   521.0,0.001106,0.000867,-0.000343,0.000938,  47.571
   521.2,0.001110,0.000867,-0.000325,0.000903,  47.567
   521.4,0.001112,0.000867,-0.000296,0.000938,  47.561
   521.6,0.001112,0.000868,-0.000260,0.000938,  47.562
   521.8,0.001118,0.000866,-0.000252,0.000903,  47.562
   522.0,0.001121,0.000868,-0.000270,0.000938,  47.562
   522.2,0.001121,0.000866,-0.000291,0.000938,  47.565
   522.4,0.001121,0.000870,-0.000289,0.000916,  47.560
   522.6,0.001124,0.000874,-0.000270,0.000951,  47.561
   522.8,0.001124,0.000874,-0.000244,0.000951,  47.559
   523.0,0.001121,0.000874,-0.000231,0.000929,  47.559
   523.2,0.001126,0.000876,-0.000205,0.000951,  47.554
   523.4,0.001123,0.000876,-0.000179,0.000951,  47.558
   523.6,0.001126,0.000871,-0.000168,0.000929,  47.557
   523.8,0.001126,0.000871,-0.000168,0.000951,  47.553
   524.0,0.001117,0.000873,-0.000187,0.000951,  47.555
   524.2,0.001123,0.000871,-0.000717,0.000929,  47.554
   524.4,0.001118,0.000871,-0.001517,0.000964,  47.555
   524.6,0.001112,0.000871,-0.002570,0.000964,  47.552
   524.8,0.001115,0.000870,-0.002588,0.000929,  47.553
   525.0,0.001118,0.000870,-0.002238,0.000964,  47.548
   525.2,0.001120,0.000870,-0.001489,0.000964,  47.548
   525.4,0.001114,0.000875,-0.001239,0.000929,  47.549
   525.6,0.001123,0.000873,-0.001046,0.000951,  47.546
   525.8,0.001123,0.000869,-0.000915,0.000951,  47.545
   526.0,0.001117,0.000872,-0.000772,0.000929,  47.547
   526.2,0.001120,0.000868,-0.000652,0.000951,  47.545
   526.4,0.001120,0.000866,-0.000545,0.000951,  47.547
   526.6,0.001118,0.000863,-0.000466,0.000951,  47.546
   526.8,0.001116,0.000861,-0.000435,0.000951,  47.542
   527.0,0.001116,0.000858,-0.000417,0.000951,  47.546
   527.2,0.001116,0.000858,-0.000383,0.000951,  47.546
   527.4,0.001113,0.000861,-0.000357,0.000938,  47.546
   527.6,0.001113,0.000858,-0.000354,0.000938,  47.545
   527.8,0.001113,0.000864,-0.000346,0.000938,  47.541
   528.0,0.001111,0.000864,-0.000328,0.000903,  47.542
   528.2,0.001111,0.000860,-0.000326,0.000938,  47.541
   528.4,0.001107,0.000861,-0.000318,0.000938,  47.545
   528.6,0.001104,0.000862,-0.000375,0.000903,  47.542
   528.8,0.001104,0.000864,-0.000471,0.000938,  47.542
   529.0,0.001101,0.000866,-0.000606,0.000938,  47.546
   529.2,0.001107,0.000870,-0.000596,0.000903,  47.540
   529.4,0.001107,0.000868,-0.000531,0.000938,  47.539
   529.6,0.001104,0.000870,-0.000419,0.000938,  47.543
   529.8,0.001110,0.000870,-0.000388,0.000903,  47.541
   530.0,0.001110,0.000870,-0.000377,0.000938,  47.543
   530.2,0.001110,0.000877,-0.000375,0.000938,  47.545
   530.4,0.001117,0.000877,-0.000338,0.000903,  47.543
   530.6,0.001117,0.000876,-0.000323,0.000938,  47.544
   530.8,0.001110,0.000875,-0.000287,0.000938,  47.547
   531.0,0.001110,0.000878,-0.000276,0.000903,  47.542
   531.2,0.001110,0.000872,-0.000287,0.000938,  47.539
   531.4,0.001106,0.000874,-0.000307,0.000938,  47.541
   531.6,0.001110,0.000872,-0.000305,0.000916,  47.545
   531.8,0.001110,0.000868,-0.000287,0.000951,  47.540
   532.0,0.001110,0.000870,-0.000260,0.000951,  47.544
   532.2,0.001117,0.000872,-0.000268,0.000929,  47.546
   532.4,0.001117,0.000870,-0.000279,0.000951,  47.545
   532.6,0.001116,0.000874,-0.000291,0.000951,  47.545
   532.8,0.001116,0.000876,-0.000287,0.000964,  47.546
   533.0,0.001116,0.000872,-0.000268,0.000986,  47.551
   533.2,0.001116,0.000876,-0.000250,0.000986,  47.548
   533.4,0.001118,0.000876,-0.000240,0.000964,  47.549
   533.6,0.001122,0.000872,-0.000235,0.000951,  47.546
   533.8,0.001122,0.000873,-0.000227,0.000951,  47.551
   534.0,0.001131,0.000872,-0.000219,0.000929,  47.546
   534.2,0.001128,0.000870,-0.000224,0.000951,  47.550
   534.4,0.001128,0.000868,-0.000211,0.000951,  47.545
   534.6,0.001125,0.000874,-0.000211,0.000929,  47.551
   534.8,0.001122,0.000874,-0.000211,0.000951,  47.551
   535.0,0.001122,0.000869,-0.000208,0.000951,  47.548
   535.2,0.001118,0.000874,-0.000203,0.000951,  47.548
   535.4,0.001116,0.000878,-0.000218,0.000951,  47.551
   535.6,0.001116,0.000878,-0.000245,0.000951,  47.549
   535.8,0.001118,0.000882,-0.000252,0.000951,  47.548
   536.0,0.001116,0.000885,-0.000258,0.000951,  47.548
   536.2,0.001118,0.000884,-0.000255,0.000951,  47.548
   536.4,0.001121,0.000881,-0.000240,0.000951,  47.548
   536.6,0.001121,0.000881,-0.000237,0.000929,  47.548
   536.8,0.001124,0.000880,-0.000232,0.000951,  47.545
   537.0,0.001126,0.000887,-0.000232,0.000951,  47.545
   537.2,0.001126,0.000886,-0.000224,0.000929,  47.547
   537.4,0.001129,0.000887,-0.000216,0.000951,  47.547
   537.6,0.001123,0.000887,-0.000203,0.000951,  47.545
   537.8,0.001123,0.000886,-0.000197,0.000929,  47.541
   538.0,0.001128,0.000886,-0.000215,0.000951,  47.546
   538.2,0.001125,0.000892,-0.000242,0.000951,  47.546
   538.4,0.001136,0.000894,-0.000231,0.000929,  47.546
   538.6,0.001142,0.000896,-0.000197,0.000964,  47.544
   538.8,0.001139,0.000902,-0.000168,0.000964,  47.544
   539.0,0.001142,0.000905,-0.000161,0.000929,  47.541
   539.2,0.001145,0.000904,-0.000153,0.000964,  47.543
   539.4,0.001145,0.000908,-0.000158,0.000964,  47.540
   539.6,0.001148,0.000908,-0.000170,0.000929,  47.544
   539.8,0.001150,0.000908,-0.000191,0.000964,  47.541
   540.0,0.001150,0.000906,-0.000228,0.000964,  47.543
   540.2,0.001153,0.000909,-0.000217,0.000929,  47.536
   540.4,0.001156,0.000909,-0.000197,0.000964,  47.539
   540.6,0.001158,0.000911,-0.000144,0.000964,  47.539
   540.8,0.001158,0.000913,-0.000116,0.000929,  47.538
   541.0,0.001161,0.000915,-0.000089,0.000964,  47.538
   541.2,0.001161,0.000910,-0.000066,0.000964,  47.535
   541.4,0.001156,0.000910,-0.000063,0.000929,  47.541
   541.6,0.001156,0.000911,-0.000071,0.000964,  47.538
   541.8,0.001152,0.000910,-0.000092,0.000964,  47.537
   542.0,0.001156,0.000910,-0.000074,0.000929,  47.536
   542.2,0.001156,0.000910,-0.000055,0.000964,  47.537
   542.4,0.001152,0.000913,-0.000034,0.000964,  47.536
   542.6,0.001150,0.000911,-0.000027,0.000929,  47.538
   542.8,0.001156,0.000911,-0.000037,0.000964,  47.536
   543.0,0.001156,0.000915,-0.000055,0.000964,  47.535
   543.2,0.001156,0.000916,-0.000045,0.000929,  47.537
   543.4,0.001156,0.000914,-0.000027,0.000964,  47.538
   543.6,0.001153,0.000912,-0.000006,0.000964,  47.540
   543.8,0.001147,0.000914,-0.000003,0.000978,  47.536
   544.0,0.001144,0.000916,0.000010,0.000964,  47.535
   544.2,0.001147,0.000910,0.000002,0.000964,  47.539
   544.4,0.001141,0.000910,-0.000014,0.000964,  47.542
   544.6,0.001150,0.000907,-0.000019,0.000964,  47.534
   544.8,0.001150,0.000907,-0.000042,0.000964,  47.538
   545.0,0.001143,0.000907,-0.000044,0.000964,  47.535
   545.2,0.001147,0.000907,-0.000050,0.000929,  47.533
   545.4,0.001144,0.000908,-0.000042,0.000964,  47.537
   545.6,0.001138,0.000908,-0.000042,0.000964,  47.538
   545.8,0.001144,0.000910,0.000031,0.000929,  47.540
   546.0,0.001147,0.000908,0.000115,0.000964,  47.536
   546.2,0.001141,0.000911,0.000225,0.000964,  47.536
   546.4,0.001144,0.000909,0.000219,0.000929,  47.540
   546.6,0.001147,0.000911,0.000188,0.000964,  47.537
   546.8,0.001144,0.000911,0.000112,0.000964,  47.533
   547.0,0.001148,0.000907,0.000023,0.000929,  47.539
   547.2,0.001150,0.000909,-0.000071,0.000964,  47.537
   547.4,0.001148,0.000909,-0.000185,0.000964,  47.540
   547.6,0.001148,0.000911,-0.000196,0.000929,  47.542
   547.8,0.001150,0.000911,-0.000167,0.000964,  47.538
   548.0,0.001142,0.000911,-0.000107,0.000964,  47.541
   548.2,0.001142,0.000912,-0.000113,0.000929,  47.545
   548.4,0.001144,0.000908,-0.000115,0.000964,  47.543
   548.6,0.001135,0.000908,-0.000141,0.000964,  47.541
   548.8,0.001142,0.000905,-0.000128,0.000929,  47.544
   549.0,0.001144,0.000903,-0.000100,0.000964,  47.540
   549.2,0.001142,0.000905,-0.000063,0.000964,  47.543
   549.4,0.001148,0.000901,-0.000063,0.000929,  47.547
   549.6,0.001145,0.000901,-0.000074,0.000964,  47.545
   549.8,0.001139,0.000899,-0.000102,0.000964,  47.544
   550.0,0.001145,0.000900,-0.000105,0.000929,  47.548
   550.2,0.001142,0.000902,-0.000113,0.000964,  47.547
   550.4,0.001145,0.000899,-0.000134,0.000964,  47.546
   550.6,0.001142,0.000906,-0.000131,0.000929,  47.547
   550.8,0.001146,0.000904,-0.000126,0.000964,  47.543
   551.0,0.001146,0.000904,-0.000108,0.000964,  47.542
   551.2,0.001140,0.000905,-0.000095,0.000929,  47.542
   551.4,0.001143,0.000905,-0.000077,0.000964,  47.539
   551.6,0.001143,0.000904,-0.000064,0.000964,  47.541
   551.8,0.001146,0.000903,-0.000082,0.000929,  47.544
   552.0,0.001152,0.000903,-0.000111,0.000964,  47.545
   552.2,0.001152,0.000900,-0.000160,0.000964,  47.539
   552.4,0.001149,0.000899,-0.000158,0.000964,  47.540
   552.6,0.001144,0.000901,-0.000137,0.000964,  47.540
   552.8,0.001144,0.000896,-0.000092,0.000951,  47.540
   553.0,0.001147,0.000902,-0.000082,0.000951,  47.540
   553.2,0.001149,0.000904,-0.000058,0.000951,  47.536
   553.4,0.001149,0.000902,-0.000069,0.000951,  47.540
   553.6,0.001149,0.000900,-0.000056,0.000951,  47.534
   553.8,0.001149,0.000901,-0.000069,0.000929,  47.535
   554.0,0.001155,0.000901,-0.000079,0.000964,  47.534
   554.2,0.001153,0.000898,-0.000090,0.000964,  47.535
   554.4,0.001150,0.000900,-0.000087,0.000929,  47.532
   554.6,0.001150,0.000901,-0.000079,0.000964,  47.532
   554.8,0.001147,0.000905,-0.000061,0.000964,  47.532
   555.0,0.001141,0.000902,-0.000069,0.000929,  47.531
   555.2,0.001134,0.000900,-0.000090,0.000964,  47.532
   555.4,0.001131,0.000906,-0.000126,0.000964,  47.529
   555.6,0.001137,0.000906,-0.000132,0.000929,  47.530
   555.8,0.001140,0.000904,-0.000121,0.000964,  47.529
   556.0,0.001142,0.000904,-0.000103,0.000964,  47.528
   556.2,0.001145,0.000904,-0.000119,0.000929,  47.525
   556.4,0.001148,0.000900,-0.000145,0.000964,  47.525
   556.6,0.001148,0.000904,-0.000176,0.000964,  47.525
   556.8,0.001148,0.000905,-0.000176,0.000929,  47.520
   557.0,0.001150,0.000903,-0.000182,0.000964,  47.523
   557.2,0.001154,0.000903,-0.000161,0.000964,  47.523
   557.4,0.001157,0.000905,-0.000161,0.000929,  47.521
   557.6,0.001160,0.000905,-0.000166,0.000964,  47.519
   557.8,0.001160,0.000905,-0.000168,0.000964,  47.519
   558.0,0.001157,0.000907,-0.000150,0.000929,  47.519
   558.2,0.001157,0.000907,-0.000129,0.000964,  47.514
   558.4,0.001160,0.000907,-0.000095,0.000964,  47.517
   558.6,0.001151,0.000907,-0.000561,0.000929,  47.516
   558.8,0.001160,0.000909,-0.001281,0.000964,  47.512
   559.0,0.001160,0.000906,-0.002227,0.000964,  47.504
   559.2,0.001157,0.000908,-0.002271,0.000929,  47.504
   559.4,0.001152,0.000910,-0.001994,0.000964,  47.505
   559.6,0.001155,0.000908,-0.001374,0.000964,  47.502
   559.8,0.001155,0.000910,-0.001150,0.000929,  47.497
   560.0,0.001155,0.000910,-0.000947,0.000964,  47.499
   560.2,0.001155,0.000912,-0.000787,0.000964,  47.495
   560.4,0.001155,0.000915,-0.000649,0.000929,  47.497
   560.6,0.001152,0.000917,-0.000527,0.000964,  47.497
   560.8,0.001152,0.000911,-0.000432,0.000964,  47.490
   561.0,0.001155,0.000908,-0.000359,0.000978,  47.493
   561.2,0.001152,0.000908,-0.000320,0.000964,  47.489
   561.4,0.001152,0.000908,-0.000296,0.000964,  47.488
   561.6,0.001152,0.000907,-0.000260,0.000964,  47.491
   561.8,0.001147,0.000907,-0.000229,0.000964,  47.485
   562.0,0.001147,0.000906,-0.000197,0.000964,  47.470
   562.2,0.001149,0.000906,-0.000171,0.000964,  47.470
   562.4,0.001147,0.000904,-0.000166,0.000964,  47.469
   562.6,0.001153,0.000904,-0.000161,0.000986,  47.465
   562.8,0.001153,0.000906,-0.000155,0.000986,  47.468
   563.0,0.001156,0.000905,-0.000147,0.000999,  47.468
   563.2,0.001156,0.000906,-0.000139,0.000986,  47.465
   563.4,0.001159,0.000907,-0.000131,0.000986,  47.466
   563.6,0.001153,0.000909,-0.000116,0.000999,  47.458
   563.8,0.001153,0.000909,-0.000121,0.000999,  47.462
   564.0,0.001155,0.000912,-0.000121,0.000999,  47.454
   564.2,0.001155,0.000914,-0.000113,0.000964,  47.457
   564.4,0.001155,0.000909,-0.000108,0.000964,  47.458
   564.6,0.001155,0.000910,-0.000108,0.000964,  47.454
   564.8,0.001155,0.000912,-0.000106,0.000929,  47.451
   565.0,0.001158,0.000910,-0.000095,0.000964,  47.454
   565.2,0.001158,0.000912,-0.000087,0.000964,  47.451
   565.4,0.001161,0.000916,-0.000093,0.000929,  47.452
   565.6,0.001161,0.000914,-0.000101,0.000964,  47.450
   565.8,0.001158,0.000912,-0.000119,0.000964,  47.452
   566.0,0.001155,0.000910,-0.000109,0.000929,  47.451
   566.2,0.001155,0.000907,-0.000090,0.000964,  47.451
   566.4,0.001155,0.000907,-0.000067,0.000964,  47.451
   566.6,0.001155,0.000910,-0.000101,0.000929,  47.449
   566.8,0.001155,0.000907,-0.000142,0.000964,  47.448
   567.0,0.001158,0.000907,-0.000218,0.000964,  47.452
   567.2,0.001158,0.000912,-0.000213,0.000929,  47.451
   567.4,0.001158,0.000906,-0.000176,0.000964,  47.450
   567.6,0.001161,0.000907,-0.000111,0.000964,  47.450
   567.8,0.001164,0.000911,-0.000082,0.000929,  47.446
   568.0,0.001164,0.000908,-0.000064,0.000964,  47.445
   568.2,0.001161,0.000912,-0.000048,0.000964,  47.447
   568.4,0.001161,0.000915,-0.000059,0.000929,  47.446
   568.6,0.001167,0.000916,-0.000087,0.000964,  47.446
   568.8,0.001163,0.000922,-0.000129,0.000964,  47.442
   569.0,0.001161,0.000918,-0.000134,0.000929,  47.440
   569.2,0.001167,0.000917,-0.000124,0.000951,  47.441
   569.4,0.001161,0.000919,-0.000090,0.000951,  47.443
   569.6,0.001164,0.000919,-0.000064,0.000964,  47.438
   569.8,0.001168,0.000915,-0.000045,0.000951,  47.435
   570.0,0.001161,0.000921,-0.000027,0.000964,  47.436
   570.2,0.001161,0.000922,-0.000025,0.000964,  47.430
   570.4,0.001161,0.000920,-0.000027,0.000964,  47.431
   570.6,0.001155,0.000917,-0.000053,0.000964,  47.427
   570.8,0.001155,0.000916,-0.000087,0.000964,  47.430
   571.0,0.001161,0.000915,-0.000132,0.000929,  47.428
   571.2,0.001155,0.000916,-0.000171,0.000964,  47.422
   571.4,0.001161,0.000916,-0.000236,0.000964,  47.422
   571.6,0.001168,0.000912,-0.000215,0.000929,  47.421
   571.8,0.001161,0.000915,-0.000176,0.000964,  47.414
   572.0,0.001168,0.000918,-0.000111,0.000964,  47.416
   572.2,0.001168,0.000918,-0.000088,0.000929,  47.416
   572.4,0.001164,0.000919,-0.000070,0.000964,  47.415
   572.6,0.001173,0.000920,-0.000046,0.000964,  47.412
   572.8,0.001178,0.000919,-0.000046,0.000929,  47.407
   573.0,0.001175,0.000923,-0.000064,0.000964,  47.406
   573.2,0.001178,0.000923,-0.000093,0.000964,  47.405
   573.4,0.001178,0.000926,-0.000085,0.000929,  47.406
   573.6,0.001175,0.000923,-0.000072,0.000964,  47.401
   573.8,0.001181,0.000927,-0.000061,0.000964,  47.404
   574.0,0.001181,0.000927,-0.000056,0.000929,  47.406
   574.2,0.001177,0.000923,-0.000048,0.000964,  47.403
   574.4,0.001184,0.000929,-0.000046,0.000964,  47.402
   574.6,0.001181,0.000928,-0.000054,0.000929,  47.405
   574.8,0.001177,0.000928,-0.000080,0.000964,  47.401
   575.0,0.001181,0.000926,-0.000109,0.000964,  47.400
   575.2,0.001178,0.000923,-0.000143,0.000929,  47.402
   575.4,0.001175,0.000927,-0.000190,0.000964,  47.404
   575.6,0.001176,0.000924,-0.000258,0.000964,  47.409
   575.8,0.001173,0.000925,-0.000266,0.000929,  47.402
   576.0,0.001170,0.000923,-0.000247,0.000964,  47.399
   576.2,0.001164,0.000916,-0.000208,0.000964,  47.398
   576.4,0.001171,0.000917,-0.000192,0.000951,  47.402
   576.6,0.001168,0.000911,-0.000195,0.000973,  47.401
   576.8,0.001168,0.000913,-0.000187,0.000973,  47.398
   577.0,0.001168,0.000911,-0.000169,0.000986,  47.398
   577.2,0.001168,0.000908,-0.000159,0.000986,  47.398
   577.4,0.001162,0.000912,-0.000148,0.000986,  47.400
   577.6,0.001162,0.000918,-0.000169,0.000986,  47.402
   577.8,0.001168,0.000916,-0.000190,0.000973,  47.398
   578.0,0.001160,0.000914,-0.000232,0.000973,  47.394
   578.2,0.001157,0.000905,-0.000253,0.000938,  47.396
   578.4,0.001160,0.000903,-0.000256,0.000973,  47.397
   578.6,0.001154,0.000902,-0.000256,0.000973,  47.393
   578.8,0.001152,0.000901,-0.000256,0.000973,  47.392
   579.0,0.001160,0.000901,-0.000245,0.000973,  47.396
   579.2,0.001157,0.000900,-0.000243,0.000973,  47.398
   579.4,0.001154,0.000903,-0.000233,0.000973,  47.397
   579.6,0.001160,0.000903,-0.000256,0.000973,  47.395
   579.8,0.001157,0.000902,-0.000285,0.000973,  47.393
   580.0,0.001154,0.000899,-0.000340,0.000973,  47.391
   580.2,0.001160,0.000899,-0.000358,0.000986,  47.397
   580.4,0.001157,0.000900,-0.000368,0.000986,  47.395
   580.6,0.001157,0.000901,-0.000387,0.000986,  47.394
   580.8,0.001166,0.000902,-0.000376,0.000999,  47.395
   581.0,0.001162,0.000909,-0.000342,0.000986,  47.399
   581.2,0.001168,0.000906,-0.000303,0.000986,  47.400
   581.4,0.001176,0.000910,-0.000283,0.000999,  47.401
   581.6,0.001173,0.000908,-0.000267,0.000986,  47.398
   581.8,0.001176,0.000916,-0.000243,0.000986,  47.398
   582.0,0.001170,0.000912,-0.000225,0.000999,  47.400
   582.2,0.001164,0.000913,-0.000211,0.000986,  47.396
   582.4,0.001173,0.000913,-0.000206,0.000986,  47.396
   582.6,0.001176,0.000918,-0.000243,0.000999,  47.397
   582.8,0.001170,0.000918,-0.000305,0.000986,  47.399
   583.0,0.001179,0.000916,-0.000391,0.000986,  47.394
   583.2,0.001182,0.000917,-0.000391,0.000999,  47.399
   583.4,0.001185,0.000921,-0.000370,0.000986,  47.396
   583.6,0.001185,0.000921,-0.000308,0.000986,  47.398
   583.8,0.001191,0.000923,-0.000289,0.000999,  47.400
   584.0,0.001191,0.000921,-0.000274,0.000986,  47.400
   584.2,0.001194,0.000926,-0.000274,0.000986,  47.399
   584.4,0.001194,0.000924,-0.000190,0.000999,  47.402
   584.6,0.001191,0.000920,-0.000078,0.000986,  47.398
   584.8,0.001194,0.000923,0.000074,0.000986,  47.400
   585.0,0.001194,0.000924,0.000082,0.000999,  47.396
   585.2,0.001194,0.000922,0.000029,0.000986,  47.399
   585.4,0.001194,0.000922,-0.000091,0.000986,  47.398
   585.6,0.001185,0.000922,-0.000117,0.000999,  47.401
   585.8,0.001186,0.000919,-0.000117,0.000986,  47.399
   586.0,0.001186,0.000919,-0.000101,0.000986,  47.398
   586.2,0.001183,0.000918,-0.000104,0.000999,  47.401
   586.4,0.001187,0.000918,-0.000112,0.000986,  47.402
   586.6,0.001187,0.000918,-0.000112,0.000986,  47.399
   586.8,0.001183,0.000918,-0.000114,0.000951,  47.400
   587.0,0.001183,0.000920,-0.000132,0.000986,  47.400
   587.2,0.001183,0.000918,-0.000159,0.000986,  47.400
   587.4,0.001180,0.000916,-0.000159,0.000986,  47.400
   587.6,0.001186,0.000918,-0.000164,0.000986,  47.402
   587.8,0.001186,0.000922,-0.000154,0.000999,  47.400
   588.0,0.001180,0.000923,-0.000146,0.000999,  47.404
   588.2,0.001186,0.000926,-0.000180,0.000999,  47.399
   588.4,0.001186,0.000923,-0.000227,0.000999,  47.399
   588.6,0.001182,0.000919,-0.000287,0.000999,  47.401
   588.8,0.001189,0.000918,-0.000783,0.000999,  47.397
   589.0,0.001189,0.000920,-0.001497,0.000999,  47.395
   589.2,0.001182,0.000926,-0.002417,0.000999,  47.398
   589.4,0.001183,0.000925,-0.002433,0.000999,  47.397
   589.6,0.001181,0.000923,-0.002111,0.000999,  47.394
   589.8,0.001181,0.000921,-0.001429,0.000999,  47.393
   590.0,0.001188,0.000919,-0.001211,0.000999,  47.396
   590.2,0.001188,0.000922,-0.001044,0.000999,  47.398
   590.4,0.001181,0.000920,-0.000937,0.000999,  47.396
   590.6,0.001190,0.000919,-0.000854,0.000999,  47.395
   590.8,0.001193,0.000917,-0.000793,0.000999,  47.396
   591.0,0.001189,0.000917,-0.000764,0.000999,  47.394
   591.2,0.001189,0.000921,-0.000707,0.000999,  47.389
   591.4,0.001195,0.000919,-0.000642,0.000999,  47.387
   591.6,0.001197,0.000923,-0.000561,0.000999,  47.388
   591.8,0.001197,0.000929,-0.000506,0.000999,  47.383
   592.0,0.001200,0.000926,-0.000470,0.000999,  47.382
   592.2,0.001191,0.000924,-0.000436,0.000999,  47.379
   592.4,0.001191,0.000924,-0.000444,0.000999,  47.379
   592.6,0.001194,0.000923,-0.000486,0.000999,  47.381
   592.8,0.001191,0.000923,-0.000543,0.000999,  47.378
   593.0,0.001197,0.000929,-0.000532,0.000999,  47.377
   593.2,0.001206,0.000932,-0.000498,0.000999,  47.346
   593.4,0.001206,0.000930,-0.000454,0.000999,  47.349
   593.6,0.001209,0.000933,-0.000446,0.000999,  47.347
   593.8,0.001200,0.000930,-0.000448,0.000986,  47.339
   594.0,0.001200,0.000934,-0.000461,0.000986,  47.340
   594.2,0.001200,0.000936,-0.000419,0.000999,  47.334
   594.4,0.001200,0.000938,-0.000367,0.000986,  47.329
   594.6,0.001203,0.000940,-0.000296,0.000986,  47.334
   594.8,0.001203,0.000941,-0.000268,0.000964,  47.325
   595.0,0.001206,0.000939,-0.000247,0.000964,  47.333
   595.2,0.001209,0.000942,-0.000237,0.000964,  47.323
   595.4,0.001203,0.000938,-0.000247,0.000929,  47.320
   595.6,0.001209,0.000938,-0.000276,0.000964,  47.318
   595.8,0.001211,0.000938,-0.000315,0.000964,  47.316
   596.0,0.001203,0.000943,-0.000323,0.000978,  47.316
   596.2,0.001209,0.000945,-0.000323,0.000964,  47.311
   596.4,0.001211,0.000949,-0.000299,0.000964,  47.306
   596.6,0.001211,0.000944,-0.000296,0.000964,  47.304
   596.8,0.001218,0.000948,-0.000281,0.000964,  47.302
   597.0,0.001226,0.000948,-0.000284,0.000964,  47.301
   597.2,0.001226,0.000948,-0.000276,0.000964,  47.297
   597.4,0.001224,0.000945,-0.000263,0.000929,  47.295
   597.6,0.001229,0.000943,-0.000245,0.000964,  47.297
   597.8,0.001223,0.000941,-0.000218,0.000964,  47.296
   598.0,0.001217,0.000939,-0.000198,0.000929,  47.295
   598.2,0.001211,0.000939,-0.000187,0.000964,  47.292
   598.4,0.001211,0.000948,-0.000177,0.000964,  47.291
   598.6,0.001220,0.000949,-0.000166,0.000929,  47.289
   598.8,0.001224,0.000949,-0.000169,0.000964,  47.287
   599.0,0.001224,0.000947,-0.000177,0.000964,  47.284
   599.2,0.001224,0.000952,-0.000177,0.000929,  47.282
   599.4,0.001232,0.000951,-0.000177,0.000964,  47.282
   599.6,0.001232,0.000949,-0.000179,0.000964,  47.276
   599.8,0.001226,0.000949,-0.000187,0.000929,  47.276
   600.0,0.001229,0.000946,-0.000201,0.000964,  47.275
   600.2,0.001229,0.000951,-0.000211,0.000964,  47.273
   600.4,0.001229,0.000953,-0.000219,0.000929,  47.273
   600.6,0.001232,0.000951,-0.000224,0.000964,  47.278
   600.8,0.001232,0.000953,-0.000211,0.000964,  47.271
   601.0,0.001229,0.000954,-0.000221,0.000929,  47.271
   601.2,0.001229,0.000952,-0.000247,0.000964,  47.276
   601.4,0.001232,0.000954,-0.000279,0.000964,  47.277
   601.6,0.001234,0.000956,-0.000268,0.000929,  47.268
   601.8,0.001234,0.000954,-0.000250,0.000964,  47.267
   602.0,0.001234,0.000956,-0.000221,0.000964,  47.268
   602.2,0.001228,0.000958,-0.000660,0.000943,  47.267
   602.4,0.001232,0.000954,-0.001346,0.000978,  47.267
   602.6,0.001228,0.000956,-0.002243,0.000978,  47.263
   602.8,0.001225,0.000958,-0.002253,0.000943,  47.266
   603.0,0.001226,0.000956,-0.001952,0.000964,  47.260
   603.2,0.001218,0.000957,-0.001314,0.000964,  47.244
   603.4,0.001215,0.000962,-0.001108,0.000929,  47.245
   603.6,0.001215,0.000956,-0.000957,0.000964,  47.244
   603.8,0.001218,0.000956,-0.000866,0.000964,  47.243
   604.0,0.001212,0.000953,-0.000746,0.000929,  47.240
   604.2,0.001216,0.000946,-0.000623,0.000964,  47.236
   604.4,0.001224,0.000945,-0.000529,0.000964,  47.237
   604.6,0.001222,0.000939,-0.000462,0.000978,  47.234
   604.8,0.001216,0.000931,-0.000391,0.000964,  47.239
   605.0,0.001212,0.000938,-0.000355,0.000964,  47.234
   605.2,0.001210,0.000936,-0.000326,0.000964,  47.235
   605.4,0.001210,0.000932,-0.000305,0.000964,  47.233
   605.6,0.001212,0.000936,-0.000297,0.000964,  47.235
   605.8,0.001212,0.000941,-0.000305,0.000964,  47.235
   606.0,0.001218,0.000939,-0.000277,0.000964,  47.235
   606.2,0.001224,0.000939,-0.000243,0.000999,  47.235
   606.4,0.001224,0.000936,-0.000219,0.000999,  47.235
   606.6,0.001219,0.000936,-0.000488,0.000999,  47.237
   606.8,0.001213,0.000933,-0.000898,0.000999,  47.231
   607.0,0.001213,0.000933,-0.001463,0.000999,  47.232
   607.2,0.001214,0.000929,-0.001479,0.000999,  47.233
   607.4,0.001208,0.000921,-0.001299,0.000986,  47.230
   607.6,0.001210,0.000926,-0.000919,0.000986,  47.230
   607.8,0.001210,0.000926,-0.000828,0.000999,  47.231
   608.0,0.001210,0.000923,-0.000784,0.000986,  47.234
   608.2,0.001210,0.000925,-0.000794,0.000986,  47.231
   608.4,0.001210,0.000925,-0.000729,0.000999,  47.235
   608.6,0.001210,0.000923,-0.000672,0.000986,  47.230
   608.8,0.001210,0.000921,-0.000593,0.000986,  47.230
   609.0,0.001214,0.000921,-0.000544,0.000999,  47.225
   609.2,0.001205,0.000923,-0.000499,0.000986,  47.228
   609.4,0.001211,0.000919,-0.000457,0.000986,  47.227
   609.6,0.001212,0.000921,-0.000426,0.000999,  47.228
   609.8,0.001206,0.000923,-0.000398,0.000986,  47.228
   610.0,0.001212,0.000917,-0.000371,0.000986,  47.235
   610.2,0.001212,0.000921,-0.000400,0.000999,  47.231
   610.4,0.001212,0.000921,-0.000481,0.000986,  47.229
   610.6,0.001215,0.000917,-0.000593,0.000986,  47.233
   610.8,0.001206,0.000922,-0.000583,0.000999,  47.230
   611.0,0.001206,0.000922,-0.000533,0.000986,  47.233
   611.2,0.001200,0.000921,-0.000444,0.000986,  47.232
   611.4,0.001203,0.000922,-0.000413,0.000999,  47.234
   611.6,0.001203,0.000920,-0.000371,0.000986,  47.234
   611.8,0.001197,0.000926,-0.000345,0.000986,  47.236
   612.0,0.001201,0.000926,-0.000334,0.000999,  47.239
   612.2,0.001201,0.000921,-0.000340,0.000986,  47.239
   612.4,0.001198,0.000924,-0.000356,0.000986,  47.235
   612.6,0.001207,0.000922,-0.000337,0.000999,  47.240
   612.8,0.001207,0.000919,-0.000319,0.000986,  47.234
   613.0,0.001203,0.000927,-0.000306,0.000986,  47.241
   613.2,0.001212,0.000931,-0.000288,0.000951,  47.242
   613.4,0.001215,0.000929,-0.000280,0.000986,  47.243
   613.6,0.001211,0.000930,-0.000285,0.000986,  47.243
   613.8,0.001220,0.000929,-0.000293,0.000986,  47.243
   614.0,0.001220,0.000929,-0.000304,0.000986,  47.239
   614.2,0.001216,0.000924,-0.000332,0.000999,  47.241
   614.4,0.001225,0.000927,-0.000340,0.000999,  47.241
   614.6,0.001223,0.000931,-0.000356,0.000999,  47.239
   614.8,0.001216,0.000932,-0.000351,0.000999,  47.242
   615.0,0.001223,0.000937,-0.000353,0.000999,  47.246
   615.2,0.001226,0.000934,-0.000345,0.000999,  47.246
   615.4,0.001220,0.000936,-0.000351,0.000999,  47.246
   615.6,0.001223,0.000931,-0.000337,0.000999,  47.248
   615.8,0.001223,0.000929,-0.000337,0.000999,  47.246
   616.0,0.001216,0.000927,-0.000351,0.000999,  47.249
   616.2,0.001225,0.000932,-0.000377,0.000999,  47.248
   616.4,0.001225,0.000930,-0.000374,0.000999,  47.252
   616.6,0.001222,0.000932,-0.000356,0.000999,  47.255
   616.8,0.001222,0.000930,-0.000332,0.001034,  47.253
   617.0,0.001222,0.000929,-0.000322,0.001034,  47.252
   617.2,0.001218,0.000930,-0.000306,0.001021,  47.256
   617.4,0.001216,0.000930,-0.000298,0.001056,  47.254
   617.6,0.001222,0.000937,-0.000288,0.001069,  47.256
   617.8,0.001218,0.000936,-0.000272,0.001034,  47.257
