Run Name,35% Group 1
Run Date,02:35:01 PM   01-31-13
Method Name,35%B-Isocratic
Export Format Version, 1.00
Method ID, 1507
Points/Second, 5.00
Number of Records,   3258
Offset from Run Start Time,00:00:00
Run End Time,00:10:53
Time,Second
QuadTec 1, (280.0 nm), AU
QuadTec 2, (260.0 nm), AU
Gradient Pump,<Not Selected>
QuadTec 3, (214.0 nm), AU
QuadTec 4, (405.0 nm), AU
Conductivity,mS/cm
Trace 6,<Not Available>
GP Pressure,<Not Selected>
Volume,<Not Selected>
Fraction,<Not Available>
Time,QuadTec 1,QuadTec 2,QuadTec 3,QuadTec 4,Conductivity
     0.0,0.012052,0.000000,-0.003658,0.010231,  36.494
     0.2,0.012075,0.000000,-0.003612,0.010195,  36.496
     0.4,0.012116,0.000000,-0.003540,0.010195,  36.499
     0.6,0.012121,0.000000,-0.003449,0.010231,  36.501
     0.8,0.000000,0.000000,-0.003456,0.010195,  36.513
     1.0,0.000000,0.000000,-0.003502,0.010231,  36.519
     1.2,0.000000,0.000000,-0.003581,0.000000,  36.534
     1.4,0.000000,0.000000,-0.003594,0.000000,  36.537
     1.6,0.000000,0.000000,-0.003613,0.000000,  36.537
     1.8,0.000000,0.000000,-0.003613,0.000000,  36.543
     2.0,0.000000,0.000000,-0.003554,0.000000,  36.542
     2.2,0.000000,0.000000,-0.003474,0.000000,  36.536
     2.4,0.000000,0.000000,0.000000,0.000000,  36.544
     2.6,0.000000,0.000000,0.000000,0.000000,  36.537
     2.8,0.000000,0.000000,0.000000,0.000000,  36.543
     3.0,0.000000,0.000000,0.000000,0.000000,  36.539
     3.2,0.000000,0.000000,0.000000,0.000000,  36.543
     3.4,0.000000,0.000000,0.000000,0.000000,  36.541
     3.6,0.000000,0.000000,0.000000,0.000000,  36.542
     3.8,0.000000,0.000000,0.000000,0.000000,  36.541
     4.0,0.000000,0.000000,0.000000,0.000000,  36.543
     4.2,0.000000,0.000000,0.000000,0.000000,  36.543
     4.4,-0.000005,-0.000017,0.000000,0.000000,  36.539
     4.6,-0.000002,-0.000021,0.000000,0.000000,  36.542
     4.8,-0.000004,-0.000023,0.000000,0.000000,  36.539
     5.0,-0.000004,-0.000025,0.000000,0.000000,  36.539
     5.2,-0.000004,-0.000026,0.000000,0.000000,  36.540
     5.4,-0.000004,-0.000018,0.000000,0.000000,  36.542
     5.6,-0.000004,-0.000021,0.000000,-0.000005,  36.543
     5.8,-0.000007,-0.000024,0.000000,-0.000018,  36.541
     6.0,-0.000010,-0.000022,0.000000,-0.000018,  36.545
     6.2,-0.000012,-0.000027,0.000000,-0.000009,  36.540
     6.4,-0.000012,-0.000027,0.000000,-0.000045,  36.541
     6.6,-0.000012,-0.000023,0.000000,-0.000045,  36.541
     6.8,-0.000015,-0.000028,0.000000,0.000004,  36.542
     7.0,-0.000015,-0.000028,0.000157,-0.000005,  36.542
     7.2,-0.000024,-0.000030,0.000131,-0.000005,  36.542
     7.4,-0.000027,-0.000036,0.000072,-0.000005,  36.543
     7.6,-0.000035,-0.000043,-0.000007,-0.000027,  36.544
     7.8,-0.000032,-0.000045,-0.000117,-0.000013,  36.549
     8.0,-0.000037,-0.000049,-0.000243,-0.000027,  36.546
     8.2,-0.000037,-0.000050,-0.000406,-0.000062,  36.543
     8.4,-0.000043,-0.000041,-0.000431,-0.000049,  36.544
     8.6,-0.000040,-0.000043,-0.000404,-0.000027,  36.542
     8.8,-0.000040,-0.000043,-0.000312,-0.000062,  36.545
     9.0,-0.000043,-0.000045,-0.000272,-0.000049,  36.542
     9.2,-0.000037,-0.000050,-0.000239,-0.000013,  36.542
     9.4,-0.000037,-0.000045,-0.000199,-0.000049,  36.540
     9.6,-0.000041,-0.000045,-0.000226,-0.000013,  36.544
     9.8,-0.000037,-0.000052,-0.000279,0.000022,  36.544
    10.0,-0.000037,-0.000050,-0.000365,0.000022,  36.546
    10.2,-0.000043,-0.000053,-0.000417,-0.000013,  36.544
    10.4,-0.000040,-0.000055,-0.000450,0.000035,  36.545
    10.6,-0.000042,-0.000060,-0.000482,-0.000013,  36.546
    10.8,-0.000049,-0.000059,-0.000455,-0.000035,  36.548
    11.0,-0.000042,-0.000059,-0.000400,-0.000049,  36.547
    11.2,-0.000045,-0.000062,-0.000314,-0.000027,  36.550
    11.4,-0.000045,-0.000062,-0.000312,-0.000062,  36.554
    11.6,-0.000039,-0.000057,-0.000313,-0.000049,  36.551
    11.8,-0.000036,-0.000061,-0.000364,-0.000013,  36.551
    12.0,-0.000042,-0.000063,-0.000418,-0.000049,  36.550
    12.2,-0.000042,-0.000055,-0.000431,-0.000049,  36.549
    12.4,-0.000042,-0.000058,-0.000450,-0.000013,  36.550
    12.6,-0.000049,-0.000050,-0.000469,-0.000049,  36.557
    12.8,-0.000042,-0.000051,-0.000482,-0.000049,  36.553
    13.0,-0.000042,-0.000053,-0.000496,-0.000013,  36.556
    13.2,-0.000049,-0.000053,-0.000516,-0.000049,  36.555
    13.4,-0.000042,-0.000053,-0.000522,-0.000049,  36.557
    13.6,-0.000040,-0.000049,-0.000522,-0.000013,  36.561
    13.8,-0.000040,-0.000054,-0.000528,-0.000049,  36.566
    14.0,-0.000037,-0.000052,-0.000593,-0.000049,  36.562
    14.2,-0.000040,-0.000052,-0.000672,-0.000013,  36.560
    14.4,-0.000043,-0.000052,-0.000784,-0.000049,  36.561
    14.6,-0.000037,-0.000052,-0.000777,-0.000027,  36.561
    14.8,-0.000037,-0.000052,-0.000724,-0.000005,  36.560
    15.0,-0.000037,-0.000052,-0.000618,-0.000040,  36.556
    15.2,-0.000035,-0.000052,-0.000565,-0.000027,  36.555
    15.4,-0.000031,-0.000048,-0.000512,-0.000027,  36.556
    15.6,-0.000031,-0.000046,-0.000454,-0.000062,  36.557
    15.8,-0.000028,-0.000044,-0.000467,-0.000049,  36.557
    16.0,-0.000031,-0.000040,-0.000506,-0.000013,  36.554
    16.2,-0.000025,-0.000044,-0.000572,-0.000049,  36.553
    16.4,-0.000022,-0.000044,-0.000591,-0.000049,  36.551
    16.6,-0.000025,-0.000044,-0.000597,-0.000013,  36.552
    16.8,-0.000018,-0.000044,-0.000604,-0.000013,  36.549
    17.0,-0.000018,-0.000042,-0.000609,-0.000049,  36.551
    17.2,-0.000027,-0.000040,-0.000609,0.000000,  36.546
    17.4,-0.000030,-0.000044,-0.000604,-0.000013,  36.544
    17.6,-0.000030,-0.000044,-0.000649,-0.000035,  36.545
    17.8,-0.000033,-0.000049,-0.000732,-0.000035,  36.544
    18.0,-0.000033,-0.000049,-0.000831,-0.000013,  36.538
    18.2,-0.000033,-0.000051,-0.001013,-0.000049,  36.539
    18.4,-0.000033,-0.000050,-0.001260,-0.000049,  36.534
    18.6,-0.000030,-0.000048,-0.001553,-0.000013,  36.531
    18.8,-0.000030,-0.000050,-0.001910,-0.000035,  36.531
    19.0,-0.000033,-0.000045,-0.001819,-0.000035,  36.526
    19.2,-0.000030,-0.000043,-0.001578,-0.000022,  36.528
    19.4,-0.000033,-0.000047,-0.001200,-0.000022,  36.522
    19.6,-0.000038,-0.000044,-0.001193,-0.000035,  36.524
    19.8,-0.000035,-0.000042,-0.001298,-0.000013,  36.525
    20.0,-0.000035,-0.000047,-0.001514,-0.000049,  36.524
    20.2,-0.000038,-0.000056,-0.001423,-0.000049,  36.526
    20.4,-0.000038,-0.000058,-0.001240,-0.000013,  36.520
    20.6,-0.000035,-0.000058,-0.000952,-0.000049,  36.514
    20.8,-0.000035,-0.000051,-0.000874,-0.000049,  36.510
    21.0,-0.000033,-0.000046,-0.000855,-0.000013,  36.508
    21.2,-0.000030,-0.000050,-0.000895,-0.000035,  36.499
    21.4,-0.000030,-0.000045,-0.000855,-0.000035,  36.498
    21.6,-0.000021,-0.000045,-0.000802,0.000013,  36.496
    21.8,-0.000025,-0.000045,-0.000738,-0.000009,  36.497
    22.0,-0.000018,-0.000044,-0.000679,-0.000022,  36.492
    22.2,-0.000015,-0.000048,-0.000639,0.000013,  36.480
    22.4,-0.000021,-0.000044,-0.000586,-0.000009,  36.476
    22.6,-0.000012,-0.000039,-0.000574,-0.000022,  36.473
    22.8,-0.000012,-0.000039,-0.000594,0.000013,  36.478
    23.0,-0.000016,-0.000037,-0.000640,-0.000022,  36.473
    23.2,-0.000010,-0.000031,-0.000653,0.000000,  36.466
    23.4,-0.000008,-0.000031,-0.000647,0.000009,  36.468
    23.6,-0.000011,-0.000035,-0.000646,-0.000005,  36.467
    23.8,-0.000005,-0.000031,-0.000625,-0.000027,  36.462
    24.0,0.000001,-0.000033,-0.000580,0.000009,  36.464
    24.2,-0.000002,-0.000035,-0.000521,0.000000,  36.458
    24.4,-0.000001,-0.000030,-0.000493,-0.000022,  36.454
    24.6,0.000002,-0.000027,-0.000461,-0.000022,  36.457
    24.8,-0.000004,-0.000029,-0.000448,0.000013,  36.455
    25.0,-0.000004,-0.000022,-0.000657,-0.000009,  36.453
    25.2,-0.000001,-0.000019,-0.000977,-0.000022,  36.452
    25.4,-0.000007,-0.000021,-0.001420,0.000013,  36.448
    25.6,-0.000007,-0.000030,-0.001973,-0.000009,  36.450
    25.8,-0.000006,-0.000027,-0.001920,-0.000009,  36.451
    26.0,-0.000012,-0.000030,-0.001687,-0.000009,  36.457
    26.2,-0.000009,-0.000026,-0.001284,0.000005,  36.449
    26.4,-0.000003,-0.000024,-0.001114,-0.000009,  36.444
    26.6,-0.000007,-0.000021,-0.000970,-0.000022,  36.441
    26.8,-0.000004,-0.000021,-0.000860,-0.000009,  36.444
    27.0,0.000005,-0.000018,-0.000777,-0.000022,  36.441
    27.2,0.000005,-0.000021,-0.000720,-0.000022,  36.444
    27.4,0.000001,-0.000021,-0.000702,-0.000009,  36.440
    27.6,0.000007,-0.000014,-0.000663,-0.000022,  36.441
    27.8,0.000005,-0.000017,-0.000624,-0.000022,  36.440
    28.0,0.000001,-0.000015,-0.000590,-0.000009,  36.438
    28.2,-0.000001,-0.000010,-0.000707,-0.000009,  36.433
    28.4,0.000002,-0.000013,-0.000878,-0.000009,  36.438
    28.6,-0.000001,-0.000011,-0.001128,0.000005,  36.437
    28.8,0.000001,-0.000010,-0.001134,0.000018,  36.438
    29.0,0.000004,-0.000013,-0.001049,0.000018,  36.438
    29.2,0.000000,-0.000011,-0.000880,0.000031,  36.437
    29.4,0.000006,-0.000004,-0.000833,0.000031,  36.438
    29.6,0.000006,-0.000007,-0.000788,0.000018,  36.440
    29.8,0.000000,-0.000007,-0.000761,0.000031,  36.441
    30.0,0.000006,-0.000005,-0.000696,0.000031,  36.441
    30.2,0.000006,-0.000003,-0.000630,0.000018,  36.443
    30.4,0.000000,-0.000005,-0.000564,0.000018,  36.437
    30.6,0.000006,-0.000005,-0.000525,0.000018,  36.437
    30.8,0.000004,-0.000003,-0.000511,0.000018,  36.435
    31.0,0.000000,-0.000005,-0.000512,0.000018,  36.442
    31.2,0.000004,-0.000005,-0.000505,0.000018,  36.445
    31.4,-0.000001,-0.000007,-0.000517,0.000018,  36.441
    31.6,-0.000008,-0.000011,-0.000518,0.000018,  36.437
    31.8,-0.000004,-0.000013,-0.000513,0.000031,  36.443
    32.0,-0.000006,-0.000013,-0.000519,0.000031,  36.442
    32.2,-0.000012,-0.000020,-0.000532,0.000018,  36.449
    32.4,-0.000003,-0.000022,-0.000539,0.000031,  36.450
    32.6,0.000000,-0.000022,-0.000533,0.000031,  36.445
    32.8,-0.000006,-0.000024,-0.000539,0.000018,  36.441
    33.0,0.000003,-0.000026,-0.000539,0.000031,  36.437
    33.2,0.000000,-0.000025,-0.000532,0.000018,  36.437
    33.4,-0.000008,-0.000021,-0.000538,0.000027,  36.435
    33.6,-0.000002,-0.000024,-0.000538,0.000005,  36.435
    33.8,-0.000005,-0.000026,-0.000714,0.000005,  36.432
    34.0,-0.000001,-0.000024,-0.000982,0.000027,  36.433
    34.2,-0.000008,-0.000023,-0.001335,0.000005,  36.428
    34.4,-0.000007,-0.000026,-0.001329,0.000005,  36.426
    34.6,-0.000009,-0.000029,-0.001192,0.000027,  36.421
    34.8,-0.000007,-0.000030,-0.000929,0.000005,  36.418
    35.0,-0.000007,-0.000030,-0.000803,0.000005,  36.416
    35.2,-0.000007,-0.000032,-0.000673,0.000027,  36.416
    35.4,-0.000004,-0.000031,-0.000555,0.000005,  36.409
    35.6,-0.000013,-0.000029,-0.000488,0.000005,  36.397
    35.8,-0.000009,-0.000026,-0.000429,0.000005,  36.395
    36.0,-0.000007,-0.000028,-0.000396,0.000018,  36.393
    36.2,-0.000007,-0.000022,-0.000435,0.000005,  36.389
    36.4,-0.000000,-0.000022,-0.000507,0.000005,  36.383
    36.6,0.000002,-0.000023,-0.000612,0.000018,  36.380
    36.8,0.000002,-0.000019,-0.000611,0.000018,  36.378
    37.0,0.000002,-0.000023,-0.000583,0.000018,  36.377
    37.2,0.000005,-0.000020,-0.000517,0.000018,  36.373
    37.4,0.000002,-0.000018,-0.000490,0.000031,  36.375
    37.6,-0.000000,-0.000022,-0.000477,0.000018,  36.373
    37.8,0.000002,-0.000024,-0.000476,0.000018,  36.376
    38.0,0.000002,-0.000022,-0.000482,0.000018,  36.375
    38.2,0.000002,-0.000018,-0.000495,0.000005,  36.372
    38.4,0.000005,-0.000021,-0.000514,0.000005,  36.365
    38.6,0.000005,-0.000021,-0.000539,0.000018,  36.362
    38.8,0.000008,-0.000019,-0.000565,0.000018,  36.359
    39.0,0.000008,-0.000026,-0.000593,0.000018,  36.360
    39.2,0.000008,-0.000024,-0.000613,0.000031,  36.358
    39.4,0.000008,-0.000024,-0.000638,0.000031,  36.350
    39.6,0.000010,-0.000026,-0.000653,0.000031,  36.349
    39.8,0.000010,-0.000020,-0.000667,0.000031,  36.349
    40.0,0.000010,-0.000020,-0.000699,0.000031,  36.355
    40.2,0.000013,-0.000020,-0.000739,0.000031,  36.351
    40.4,0.000018,-0.000016,-0.000784,0.000009,  36.345
    40.6,0.000018,-0.000014,-0.000782,0.000023,  36.333
    40.8,0.000021,-0.000015,-0.000757,0.000023,  36.329
    41.0,0.000021,-0.000011,-0.000710,0.000036,  36.328
    41.2,0.000027,-0.000009,-0.000709,0.000036,  36.325
    41.4,0.000027,-0.000007,-0.000723,0.000045,  36.328
    41.6,0.000030,-0.000011,-0.000744,0.000080,  36.326
    41.8,0.000024,-0.000004,-0.000789,0.000080,  36.324
    42.0,0.000033,-0.000005,-0.000864,0.000045,  36.326
    42.2,0.000032,-0.000001,-0.000947,0.000045,  36.326
    42.4,0.000038,0.000003,-0.001006,0.000058,  36.320
    42.6,0.000038,0.000001,-0.001073,0.000058,  36.324
    42.8,0.000041,0.000007,-0.001134,0.000058,  36.325
    43.0,0.000037,0.000005,-0.001101,0.000071,  36.321
    43.2,0.000043,0.000003,-0.001023,0.000058,  36.323
    43.4,0.000043,0.000003,-0.000899,0.000058,  36.323
    43.6,0.000037,0.000005,-0.000846,0.000071,  36.322
    43.8,0.000032,-0.000002,-0.000795,0.000058,  36.318
    44.0,0.000029,-0.000001,-0.000757,0.000058,  36.322
    44.2,0.000026,-0.000001,-0.000711,0.000071,  36.331
    44.4,0.000024,-0.000005,-0.000672,0.000058,  36.345
    44.6,0.000026,-0.000001,-0.000633,0.000058,  36.346
    44.8,0.000029,0.000001,-0.000718,0.000071,  36.326
    45.0,0.000032,0.000001,-0.000849,0.000058,  36.320
    45.2,0.000034,0.000007,-0.001058,0.000045,  36.316
    45.4,0.000037,0.000009,-0.001058,0.000058,  36.317
    45.6,0.000037,0.000011,-0.000980,0.000045,  36.319
    45.8,0.000040,0.000009,-0.000825,0.000045,  36.318
    46.0,0.000045,0.000011,-0.000760,0.000045,  36.321
    46.2,0.000042,0.000016,-0.000708,0.000045,  36.317
    46.4,0.000042,0.000015,-0.000668,0.000045,  36.318
    46.6,0.000045,0.000022,-0.000630,0.000045,  36.321
    46.8,0.000042,0.000024,-0.000611,0.000045,  36.318
    47.0,0.000045,0.000026,-0.000604,0.000045,  36.320
    47.2,0.000048,0.000026,-0.000610,0.000031,  36.323
    47.4,0.000048,0.000028,-0.000583,0.000031,  36.320
    47.6,0.000050,0.000026,-0.000557,0.000018,  36.318
    47.8,0.000050,0.000028,-0.000523,0.000018,  36.323
    48.0,0.000048,0.000027,-0.000529,0.000018,  36.319
    48.2,0.000048,0.000025,-0.000556,0.000031,  36.321
    48.4,0.000050,0.000029,-0.000596,0.000045,  36.321
    48.6,0.000048,0.000029,-0.000577,0.000058,  36.318
    48.8,0.000050,0.000027,-0.000540,0.000058,  36.320
    49.0,0.000053,0.000028,-0.000478,0.000071,  36.320
    49.2,0.000055,0.000029,-0.000543,0.000085,  36.319
    49.4,0.000049,0.000029,-0.000661,0.000058,  36.320
    49.6,0.000049,0.000029,-0.000832,0.000058,  36.322
    49.8,0.000049,0.000033,-0.000857,0.000071,  36.324
    50.0,0.000053,0.000037,-0.000836,0.000071,  36.326
    50.2,0.000055,0.000033,-0.000776,0.000071,  36.329
    50.4,0.000055,0.000033,-0.000736,0.000071,  36.332
    50.6,0.000055,0.000033,-0.000676,0.000071,  36.324
    50.8,0.000055,0.000032,-0.000616,0.000071,  36.321
    51.0,0.000055,0.000033,-0.000589,0.000071,  36.323
    51.2,0.000059,0.000031,-0.000570,0.000071,  36.322
    51.4,0.000062,0.000028,-0.000575,0.000071,  36.325
    51.6,0.000062,0.000031,-0.000550,0.000071,  36.324
    51.8,0.000065,0.000028,-0.000524,0.000071,  36.325
    52.0,0.000071,0.000027,-0.000492,0.000071,  36.323
    52.2,0.000071,0.000029,-0.000471,0.000071,  36.328
    52.4,0.000071,0.000027,-0.000446,0.000085,  36.332
    52.6,0.000073,0.000027,-0.000426,0.000085,  36.325
    52.8,0.000073,0.000022,-0.000432,0.000085,  36.331
    53.0,0.000071,0.000025,-0.000452,0.000098,  36.330
    53.2,0.000071,0.000023,-0.000479,0.000085,  36.332
    53.4,0.000071,0.000025,-0.000532,0.000098,  36.336
    53.6,0.000071,0.000023,-0.000544,0.000111,  36.340
    53.8,0.000071,0.000021,-0.000557,0.000111,  36.336
    54.0,0.000073,0.000029,-0.000551,0.000089,  36.332
    54.2,0.000073,0.000035,-0.000543,0.000089,  36.333
    54.4,0.000073,0.000037,-0.000511,0.000089,  36.330
    54.6,0.000079,0.000037,-0.000471,0.000067,  36.335
    54.8,0.000079,0.000042,-0.000438,0.000054,  36.339
    55.0,0.000079,0.000042,-0.000404,0.000076,  36.332
    55.2,0.000072,0.000040,-0.000371,0.000089,  36.333
    55.4,0.000079,0.000043,-0.000450,0.000089,  36.333
    55.6,0.000076,0.000036,-0.000581,0.000076,  36.334
    55.8,0.000071,0.000025,-0.000772,0.000089,  36.330
    56.0,0.000063,0.000017,-0.000798,0.000076,  36.336
    56.2,0.000055,0.000019,-0.000765,0.000063,  36.341
    56.4,0.000055,0.000025,-0.000675,0.000076,  36.345
    56.6,0.000060,0.000038,-0.000890,0.000063,  36.355
    56.8,0.000065,0.000042,-0.001241,0.000063,  36.357
    57.0,0.000071,0.000046,-0.001711,0.000076,  36.345
    57.2,0.000073,0.000052,-0.001717,0.000063,  36.342
    57.4,0.000076,0.000058,-0.001555,0.000063,  36.340
    57.6,0.000081,0.000062,-0.001236,0.000076,  36.342
    57.8,0.000087,0.000064,-0.001112,0.000076,  36.341
    58.0,0.000089,0.000064,-0.001009,0.000076,  36.336
    58.2,0.000095,0.000064,-0.000925,0.000076,  36.338
    58.4,0.000095,0.000065,-0.000920,0.000076,  36.336
    58.6,0.000095,0.000065,-0.000985,0.000054,  36.337
    58.8,0.000097,0.000059,-0.001097,0.000076,  36.338
    59.0,0.000100,0.000060,-0.001052,0.000089,  36.339
    59.2,0.000100,0.000060,-0.000960,0.000054,  36.343
    59.4,0.000100,0.000060,-0.000817,0.000089,  36.340
    59.6,0.000100,0.000058,-0.000743,0.000103,  36.339
    59.8,0.000097,0.000062,-0.000671,0.000089,  36.346
    60.0,0.000097,0.000068,-0.000605,0.000089,  36.337
    60.2,0.000097,0.000066,-0.000566,0.000103,  36.343
    60.4,0.000095,0.000064,-0.000546,0.000089,  36.342
    60.6,0.000095,0.000057,-0.000546,0.000089,  36.338
    60.8,0.000095,0.000057,-0.000566,0.000138,  36.337
    61.0,0.000095,0.000061,-0.000578,0.000111,  36.340
    61.2,0.000098,0.000063,-0.000585,0.000098,  36.346
    61.4,0.000096,0.000063,-0.000593,0.000147,  36.345
    61.6,0.000093,0.000070,-0.000593,0.000147,  36.348
    61.8,0.000093,0.000068,-0.000592,0.000111,  36.345
    62.0,0.000084,0.000059,-0.000586,0.000125,  36.348
    62.2,0.000088,0.000042,-0.000615,0.000125,  36.352
    62.4,0.000085,0.000046,-0.000657,0.000125,  36.359
    62.6,0.000088,0.000053,-0.000712,0.000138,  36.359
    62.8,0.000090,0.000068,-0.000588,0.000125,  36.356
    63.0,0.000096,0.000074,-0.000384,0.000125,  36.352
    63.2,0.000101,0.000083,-0.000094,0.000138,  36.357
    63.4,0.000104,0.000084,-0.000070,0.000125,  36.357
    63.6,0.000104,0.000079,-0.000150,0.000125,  36.358
    63.8,0.000106,0.000082,-0.000325,0.000138,  36.360
    64.0,0.000109,0.000079,-0.000375,0.000125,  36.358
    64.2,0.000104,0.000081,-0.000411,0.000125,  36.363
    64.4,0.000104,0.000083,-0.000431,0.000138,  36.362
    64.6,0.000109,0.000083,-0.000436,0.000138,  36.362
    64.8,0.000109,0.000090,-0.000421,0.000138,  36.362
    65.0,0.000109,0.000094,-0.000387,0.000152,  36.362
    65.2,0.000109,0.000091,-0.000387,0.000152,  36.370
    65.4,0.000106,0.000093,-0.000412,0.000152,  36.364
    65.6,0.000109,0.000091,-0.000439,0.000152,  36.368
    65.8,0.000109,0.000087,-0.000444,0.000152,  36.373
    66.0,0.000111,0.000087,-0.000450,0.000152,  36.368
    66.2,0.000114,0.000087,-0.000455,0.000152,  36.372
    66.4,0.000111,0.000083,-0.000448,0.000152,  36.373
    66.6,0.000118,0.000087,-0.000446,0.000152,  36.373
    66.8,0.000114,0.000082,-0.000435,0.000152,  36.375
    67.0,0.000114,0.000088,-0.000447,0.000116,  36.373
    67.2,0.000120,0.000085,-0.000454,0.000116,  36.375
    67.4,0.000117,0.000085,-0.000487,0.000116,  36.374
    67.6,0.000114,0.000088,-0.000514,0.000094,  36.369
    67.8,0.000118,0.000086,-0.000521,0.000058,  36.372
    68.0,0.000111,0.000086,-0.000541,0.000094,  36.378
    68.2,0.000109,0.000084,-0.000549,0.000107,  36.377
    68.4,0.000106,0.000088,-0.000646,0.000085,  36.381
    68.6,0.000106,0.000088,-0.000777,0.000072,  36.384
    68.8,0.000115,0.000086,-0.000947,0.000072,  36.390
    69.0,0.000121,0.000084,-0.000939,0.000072,  36.398
    69.2,0.000121,0.000084,-0.000848,0.000094,  36.392
    69.4,0.000127,0.000085,-0.000685,0.000094,  36.387
    69.6,0.000124,0.000086,-0.000598,0.000058,  36.386
    69.8,0.000127,0.000083,-0.000507,0.000094,  36.386
    70.0,0.000127,0.000088,-0.000421,0.000094,  36.385
    70.2,0.000127,0.000088,-0.000375,0.000094,  36.383
    70.4,0.000127,0.000085,-0.000338,0.000129,  36.372
    70.6,0.000126,0.000091,-0.000326,0.000129,  36.375
    70.8,0.000137,0.000096,-0.000313,0.000129,  36.378
    71.0,0.000140,0.000094,-0.000307,0.000129,  36.376
    71.2,0.000136,0.000094,-0.000320,0.000129,  36.371
    71.4,0.000145,0.000096,-0.000346,0.000129,  36.373
    71.6,0.000143,0.000096,-0.000386,0.000129,  36.374
    71.8,0.000139,0.000099,-0.000439,0.000129,  36.371
    72.0,0.000145,0.000108,-0.000445,0.000129,  36.374
    72.2,0.000148,0.000110,-0.000432,0.000129,  36.374
    72.4,0.000144,0.000108,-0.000407,0.000129,  36.371
    72.6,0.000151,0.000116,-0.000374,0.000129,  36.372
    72.8,0.000151,0.000116,-0.000340,0.000129,  36.368
    73.0,0.000147,0.000112,-0.000300,0.000129,  36.371
    73.2,0.000153,0.000113,-0.000352,0.000129,  36.375
    73.4,0.000151,0.000113,-0.000450,0.000094,  36.372
    73.6,0.000147,0.000115,-0.000595,0.000129,  36.372
    73.8,0.000153,0.000119,-0.000589,0.000129,  36.369
    74.0,0.000157,0.000121,-0.000518,0.000094,  36.374
    74.2,0.000153,0.000121,-0.000400,0.000129,  36.372
    74.4,0.000151,0.000122,-0.000349,0.000129,  36.375
    74.6,0.000148,0.000120,-0.000308,0.000129,  36.377
    74.8,0.000144,0.000122,-0.000269,0.000129,  36.376
    75.0,0.000151,0.000124,-0.000242,0.000129,  36.368
    75.2,0.000153,0.000126,-0.000230,0.000143,  36.373
    75.4,0.000150,0.000125,-0.000236,0.000143,  36.370
    75.6,0.000153,0.000123,-0.000244,0.000129,  36.371
    75.8,0.000151,0.000126,-0.000257,0.000129,  36.370
    76.0,0.000147,0.000117,-0.000271,0.000103,  36.376
    76.2,0.000151,0.000120,-0.000278,0.000103,  36.371
    76.4,0.000154,0.000119,-0.000298,0.000103,  36.373
    76.6,0.000160,0.000112,-0.000318,0.000116,  36.375
    76.8,0.000158,0.000116,-0.000344,0.000129,  36.374
    77.0,0.000153,0.000115,-0.000364,0.000129,  36.375
    77.2,0.000147,0.000112,-0.000383,0.000129,  36.375
    77.4,0.000141,0.000110,-0.000415,0.000143,  36.377
    77.6,0.000141,0.000110,-0.000447,0.000143,  36.376
    77.8,0.000147,0.000113,-0.000475,0.000129,  36.378
    78.0,0.000141,0.000109,-0.000511,0.000129,  36.375
    78.2,0.000141,0.000105,-0.000478,0.000129,  36.374
    78.4,0.000138,0.000105,-0.000412,0.000129,  36.376
    78.6,0.000135,0.000105,-0.000332,0.000129,  36.375
    78.8,0.000132,0.000101,-0.000306,0.000129,  36.377
    79.0,0.000136,0.000101,-0.000300,0.000129,  36.379
    79.2,0.000132,0.000099,-0.000313,0.000129,  36.377
    79.4,0.000127,0.000097,-0.000325,0.000129,  36.382
    79.6,0.000130,0.000102,-0.000351,0.000129,  36.382
    79.8,0.000124,0.000104,-0.000378,0.000129,  36.381
    80.0,0.000130,0.000097,-0.000363,0.000129,  36.385
    80.2,0.000134,0.000093,-0.000323,0.000094,  36.382
    80.4,0.000128,0.000093,-0.000270,0.000129,  36.388
    80.6,0.000131,0.000091,-0.000229,0.000129,  36.390
    80.8,0.000126,0.000089,-0.000184,0.000107,  36.400
    81.0,0.000120,0.000087,-0.000138,0.000143,  36.415
    81.2,0.000126,0.000087,-0.000289,0.000143,  36.411
    81.4,0.000126,0.000086,-0.000537,0.000143,  36.406
    81.6,0.000117,0.000086,-0.000889,0.000129,  36.407
    81.8,0.000123,0.000086,-0.001333,0.000129,  36.404
    82.0,0.000121,0.000086,-0.001294,0.000143,  36.410
    82.2,0.000114,0.000081,-0.001125,0.000143,  36.409
    82.4,0.000121,0.000086,-0.000837,0.000143,  36.410
    82.6,0.000121,0.000088,-0.000707,0.000143,  36.410
    82.8,0.000117,0.000084,-0.000596,0.000129,  36.414
    83.0,0.000121,0.000090,-0.000505,0.000129,  36.414
    83.2,0.000118,0.000090,-0.000439,0.000143,  36.420
    83.4,0.000115,0.000086,-0.000405,0.000143,  36.420
    83.6,0.000115,0.000090,-0.000385,0.000143,  36.419
    83.8,0.000116,0.000088,-0.000398,0.000156,  36.421
    84.0,0.000124,0.000086,-0.000450,0.000143,  36.421
    84.2,0.000120,0.000089,-0.000523,0.000143,  36.426
    84.4,0.000129,0.000092,-0.000633,0.000156,  36.430
    84.6,0.000131,0.000092,-0.000770,0.000143,  36.427
    84.8,0.000137,0.000088,-0.000933,0.000143,  36.433
    85.0,0.000133,0.000094,-0.000939,0.000156,  36.432
    85.2,0.000138,0.000097,-0.000874,0.000143,  36.430
    85.4,0.000141,0.000094,-0.000757,0.000143,  36.436
    85.6,0.000146,0.000095,-0.000764,0.000156,  36.434
    85.8,0.000146,0.000097,-0.000803,0.000143,  36.435
    86.0,0.000146,0.000100,-0.000886,0.000143,  36.433
    86.2,0.000146,0.000101,-0.000833,0.000156,  36.434
    86.4,0.000141,0.000095,-0.000728,0.000156,  36.437
    86.6,0.000141,0.000096,-0.000583,0.000156,  36.436
    86.8,0.000140,0.000098,-0.000529,0.000156,  36.443
    87.0,0.000140,0.000098,-0.000485,0.000143,  36.440
    87.2,0.000140,0.000097,-0.000465,0.000143,  36.435
    87.4,0.000137,0.000099,-0.000452,0.000143,  36.433
    87.6,0.000140,0.000101,-0.000459,0.000107,  36.437
    87.8,0.000143,0.000101,-0.000474,0.000143,  36.437
    88.0,0.000137,0.000105,-0.000441,0.000143,  36.440
    88.2,0.000143,0.000107,-0.000395,0.000107,  36.442
    88.4,0.000143,0.000105,-0.000330,0.000143,  36.442
    88.6,0.000143,0.000113,-0.000310,0.000143,  36.440
    88.8,0.000146,0.000113,-0.000309,0.000169,  36.443
    89.0,0.000149,0.000108,-0.000314,0.000169,  36.444
    89.2,0.000145,0.000112,-0.000340,0.000169,  36.446
    89.4,0.000145,0.000109,-0.000346,0.000183,  36.449
    89.6,0.000148,0.000111,-0.000352,0.000169,  36.444
    89.8,0.000148,0.000111,-0.000346,0.000169,  36.446
    90.0,0.000154,0.000114,-0.000360,0.000183,  36.446
    90.2,0.000160,0.000118,-0.000398,0.000169,  36.447
    90.4,0.000160,0.000113,-0.000438,0.000169,  36.451
    90.6,0.000162,0.000118,-0.000443,0.000183,  36.451
    90.8,0.000165,0.000118,-0.000431,0.000169,  36.452
    91.0,0.000165,0.000116,-0.000405,0.000169,  36.453
    91.2,0.000159,0.000114,-0.000457,0.000169,  36.455
    91.4,0.000162,0.000112,-0.000535,0.000156,  36.455
    91.6,0.000156,0.000114,-0.000640,0.000156,  36.456
    91.8,0.000153,0.000113,-0.000641,0.000156,  36.458
    92.0,0.000160,0.000109,-0.000621,0.000156,  36.455
    92.2,0.000154,0.000112,-0.000563,0.000169,  36.457
    92.4,0.000149,0.000112,-0.000537,0.000169,  36.454
    92.6,0.000144,0.000105,-0.000518,0.000183,  36.453
    92.8,0.000144,0.000103,-0.000498,0.000183,  36.460
    93.0,0.000135,0.000097,-0.000458,0.000183,  36.462
    93.2,0.000132,0.000100,-0.000411,0.000169,  36.474
    93.4,0.000132,0.000110,-0.000346,0.000169,  36.471
    93.6,0.000131,0.000111,-0.000327,0.000183,  36.468
    93.8,0.000140,0.000109,-0.000332,0.000169,  36.467
    94.0,0.000143,0.000118,-0.000359,0.000169,  36.465
    94.2,0.000142,0.000115,-0.000332,0.000183,  36.468
    94.4,0.000151,0.000112,-0.000287,0.000134,  36.466
    94.6,0.000153,0.000118,-0.000229,0.000169,  36.467
    94.8,0.000147,0.000121,-0.000222,0.000169,  36.465
    95.0,0.000153,0.000123,-0.000228,0.000134,  36.470
    95.2,0.000156,0.000126,-0.000254,0.000169,  36.468
    95.4,0.000159,0.000128,-0.000280,0.000169,  36.466
    95.6,0.000165,0.000132,-0.000306,0.000183,  36.468
    95.8,0.000170,0.000139,-0.000339,0.000169,  36.468
    96.0,0.000176,0.000139,-0.000391,0.000183,  36.466
    96.2,0.000182,0.000142,-0.000384,0.000183,  36.469
    96.4,0.000187,0.000142,-0.000364,0.000183,  36.469
    96.6,0.000186,0.000150,-0.000331,0.000196,  36.473
    96.8,0.000189,0.000153,-0.000311,0.000183,  36.468
    97.0,0.000197,0.000157,-0.000286,0.000183,  36.471
    97.2,0.000205,0.000162,-0.000274,0.000196,  36.467
    97.4,0.000210,0.000171,-0.000254,0.000183,  36.470
    97.6,0.000216,0.000174,-0.000229,0.000183,  36.468
    97.8,0.000221,0.000182,-0.000204,0.000196,  36.467
    98.0,0.000212,0.000185,-0.000247,0.000183,  36.472
    98.2,0.000218,0.000186,-0.000334,0.000183,  36.473
    98.4,0.000215,0.000192,-0.000435,0.000196,  36.471
    98.6,0.000217,0.000199,-0.000435,0.000183,  36.472
    98.8,0.000226,0.000205,-0.000418,0.000183,  36.475
    99.0,0.000231,0.000209,-0.000358,0.000196,  36.476
    99.2,0.000237,0.000213,-0.000308,0.000183,  36.472
    99.4,0.000242,0.000221,-0.000251,0.000183,  36.476
    99.6,0.000250,0.000227,-0.000187,0.000196,  36.472
    99.8,0.000255,0.000232,-0.000142,0.000183,  36.474
   100.0,0.000258,0.000242,-0.000105,0.000183,  36.475
   100.2,0.000263,0.000244,-0.000080,0.000196,  36.474
   100.4,0.000269,0.000252,-0.000042,0.000196,  36.470
   100.6,0.000274,0.000258,-0.000012,0.000196,  36.472
   100.8,0.000282,0.000259,0.000006,0.000196,  36.474
   101.0,0.000287,0.000266,0.000026,0.000210,  36.473
   101.2,0.000298,0.000272,0.000068,0.000161,  36.475
   101.4,0.000306,0.000269,0.000086,0.000196,  36.471
   101.6,0.000309,0.000278,0.000111,0.000196,  36.473
   101.8,0.000317,0.000282,0.000148,0.000161,  36.477
   102.0,0.000325,0.000283,0.000185,0.000210,  36.476
   102.2,0.000333,0.000287,0.000169,0.000223,  36.469
   102.4,0.000345,0.000293,0.000122,0.000210,  36.465
   102.6,0.000353,0.000299,0.000054,0.000210,  36.471
   102.8,0.000366,0.000300,-0.000046,0.000223,  36.468
   103.0,0.000374,0.000306,0.000044,0.000187,  36.470
   103.2,0.000385,0.000312,0.000204,0.000187,  36.468
   103.4,0.000398,0.000312,0.000418,0.000214,  36.471
   103.6,0.000411,0.000316,0.000553,0.000179,  36.470
   103.8,0.000425,0.000320,0.000681,0.000179,  36.470
   104.0,0.000441,0.000327,0.000796,0.000192,  36.469
   104.2,0.000457,0.000335,0.000910,0.000192,  36.464
   104.4,0.000470,0.000343,0.001036,0.000179,  36.464
   104.6,0.000481,0.000349,0.001136,0.000165,  36.457
   104.8,0.000489,0.000362,0.001111,0.000165,  36.452
   105.0,0.000494,0.000374,0.001013,0.000165,  36.453
   105.2,0.000515,0.000381,0.000849,0.000152,  36.456
   105.4,0.000530,0.000394,0.000962,0.000139,  36.455
   105.6,0.000563,0.000412,0.001185,0.000139,  36.451
   105.8,0.000592,0.000428,0.001525,0.000152,  36.446
   106.0,0.000622,0.000443,0.001735,0.000139,  36.445
   106.2,0.000653,0.000461,0.001950,0.000174,  36.445
   106.4,0.000685,0.000480,0.002165,0.000187,  36.440
   106.6,0.000723,0.000499,0.002406,0.000139,  36.443
   106.8,0.000757,0.000519,0.002647,0.000174,  36.439
   107.0,0.000797,0.000538,0.002895,0.000187,  36.437
   107.2,0.000840,0.000564,0.003188,0.000152,  36.440
   107.4,0.000885,0.000590,0.003487,0.000187,  36.438
   107.6,0.000930,0.000616,0.003800,0.000201,  36.439
   107.8,0.000973,0.000648,0.004085,0.000165,  36.441
   108.0,0.001018,0.000678,0.004362,0.000201,  36.439
   108.2,0.001071,0.000708,0.004638,0.000201,  36.438
   108.4,0.001130,0.000744,0.004980,0.000179,  36.442
   108.6,0.001188,0.000776,0.005360,0.000214,  36.443
   108.8,0.001252,0.000800,0.005768,0.000201,  36.441
   109.0,0.001322,0.000832,0.006118,0.000201,  36.440
   109.2,0.001391,0.000861,0.006443,0.000165,  36.439
   109.4,0.001468,0.000899,0.006774,0.000201,  36.441
   109.6,0.001545,0.000942,0.007073,0.000214,  36.444
   109.8,0.001628,0.000990,0.007501,0.000179,  36.445
   110.0,0.001713,0.001037,0.007984,0.000214,  36.443
   110.2,0.001796,0.001091,0.008507,0.000228,  36.442
   110.4,0.001881,0.001147,0.009025,0.000205,  36.446
   110.6,0.001989,0.001201,0.009574,0.000205,  36.443
   110.8,0.002096,0.001265,0.010136,0.000205,  36.446
   111.0,0.002211,0.001330,0.010758,0.000205,  36.444
   111.2,0.002309,0.001396,0.011425,0.000241,  36.450
   111.4,0.002406,0.001463,0.012125,0.000241,  36.448
   111.6,0.002486,0.001539,0.012708,0.000205,  36.448
   111.8,0.002566,0.001612,0.013241,0.000241,  36.448
   112.0,0.002683,0.001685,0.013731,0.000241,  36.447
   112.2,0.002809,0.001763,0.014575,0.000205,  36.445
   112.4,0.002945,0.001845,0.015576,0.000241,  36.444
   112.6,0.003087,0.001928,0.016728,0.000241,  36.444
   112.8,0.003237,0.002014,0.017760,0.000219,  36.445
   113.0,0.003395,0.002107,0.018808,0.000254,  36.445
   113.2,0.003550,0.002199,0.019871,0.000254,  36.447
   113.4,0.003708,0.002295,0.021050,0.000219,  36.445
   113.6,0.003869,0.002396,0.022272,0.000241,  36.443
   113.8,0.004046,0.002502,0.023559,0.000241,  36.446
   114.0,0.004228,0.002611,0.024860,0.000205,  36.446
   114.2,0.004416,0.002729,0.026186,0.000241,  36.443
   114.4,0.004612,0.002844,0.027541,0.000241,  36.441
   114.6,0.004816,0.002964,0.028961,0.000205,  36.440
   114.8,0.005023,0.003094,0.030424,0.000254,  36.440
   115.0,0.005240,0.003226,0.031943,0.000254,  36.443
   115.2,0.005466,0.003362,0.033380,0.000232,  36.441
   115.4,0.005695,0.003482,0.034802,0.000268,  36.444
   115.6,0.005937,0.003593,0.036209,0.000268,  36.443
   115.8,0.006188,0.003708,0.037602,0.000281,  36.438
   116.0,0.006444,0.003812,0.038989,0.000245,  36.438
   116.2,0.006689,0.003949,0.040345,0.000294,  36.434
   116.4,0.006935,0.004102,0.041708,0.000308,  36.436
   116.6,0.007175,0.004258,0.043542,0.000272,  36.434
   116.8,0.007448,0.004409,0.045563,0.000308,  36.436
   117.0,0.007740,0.004567,0.047768,0.000308,  36.439
   117.2,0.008042,0.004729,0.049919,0.000294,  36.439
   117.4,0.008302,0.004909,0.052129,0.000290,  36.447
   117.6,0.008549,0.005096,0.054393,0.000290,  36.447
   117.8,0.008779,0.005304,0.056763,0.000303,  36.439
   118.0,0.008996,0.005504,0.059218,0.000290,  36.436
   118.2,0.009302,0.005709,0.061752,0.000303,  36.436
   118.4,0.009634,0.005917,0.064319,0.000281,  36.437
   118.6,0.009995,0.006126,0.066956,0.000294,  36.433
   118.8,0.010343,0.006332,0.069655,0.000308,  36.434
   119.0,0.010691,0.006539,0.072189,0.000272,  36.436
   119.2,0.011052,0.006759,0.074668,0.000321,  36.436
   119.4,0.011410,0.006985,0.077087,0.000334,  36.434
   119.6,0.011780,0.007211,0.080044,0.000312,  36.432
   119.8,0.012157,0.007441,0.083261,0.000361,  36.431
   120.0,0.012533,0.007671,0.086722,0.000375,  36.430
   120.2,0.012928,0.007899,0.090005,0.000339,  36.431
   120.4,0.013322,0.008148,0.093323,0.000361,  36.429
   120.6,0.013738,0.008405,0.096689,0.000375,  36.432
   120.8,0.014180,0.008679,0.099986,0.000339,  36.433
   121.0,0.014633,0.008951,0.103256,0.000388,  36.428
   121.2,0.015091,0.009236,0.106518,0.000375,  36.431
   121.4,0.015576,0.009535,0.110170,0.000352,  36.431
   121.6,0.016067,0.009830,0.114014,0.000388,  36.431
   121.8,0.016560,0.010132,0.118046,0.000388,  36.432
   122.0,0.017068,0.010436,0.121599,0.000401,  36.432
   122.2,0.017586,0.010687,0.125007,0.000366,  36.432
   122.4,0.018061,0.010917,0.128230,0.000401,  36.434
   122.6,0.018527,0.011115,0.131557,0.000415,  36.434
   122.8,0.018981,0.011295,0.134844,0.000379,  36.434
   123.0,0.019516,0.011609,0.138100,0.000415,  36.436
   123.2,0.020104,0.011957,0.141317,0.000428,  36.441
   123.4,0.020719,0.012349,0.145648,0.000393,  36.441
   123.6,0.021301,0.012706,0.150422,0.000441,  36.437
   123.8,0.021899,0.013061,0.155655,0.000441,  36.435
   124.0,0.022489,0.013420,0.160597,0.000379,  36.437
   124.2,0.023087,0.013779,0.165635,0.000388,  36.438
   124.4,0.023699,0.014143,0.170766,0.000401,  36.435
   124.6,0.024310,0.014517,0.175768,0.000379,  36.439
   124.8,0.024833,0.014888,0.180751,0.000428,  36.437
   125.0,0.025305,0.015265,0.185717,0.000455,  36.442
   125.2,0.025745,0.015643,0.191143,0.000433,  36.438
   125.4,0.026134,0.016025,0.196805,0.000468,  36.435
   125.6,0.026715,0.016421,0.202701,0.000482,  36.438
   125.8,0.027363,0.016815,0.208431,0.000459,  36.443
   126.0,0.028054,0.017223,0.214198,0.000482,  36.438
   126.2,0.028705,0.017636,0.220001,0.000482,  36.440
   126.4,0.029379,0.018057,0.225831,0.000459,  36.442
   126.6,0.030059,0.018492,0.231675,0.000495,  36.434
   126.8,0.030750,0.018932,0.237546,0.000508,  36.437
   127.0,0.031470,0.019377,0.243623,0.000486,  36.441
   127.2,0.032199,0.019829,0.249837,0.000535,  36.438
   127.4,0.032925,0.020287,0.256181,0.000548,  36.437
   127.6,0.033674,0.020757,0.262290,0.000513,  36.441
   127.8,0.034427,0.021227,0.268328,0.000548,  36.438
   128.0,0.035172,0.021698,0.274322,0.000548,  36.441
   128.2,0.035924,0.022176,0.280787,0.000526,  36.441
   128.4,0.036687,0.022620,0.287473,0.000562,  36.440
   128.6,0.037372,0.023044,0.294383,0.000548,  36.442
   128.8,0.038027,0.023454,0.301284,0.000526,  36.441
   129.0,0.038650,0.023843,0.308297,0.000562,  36.444
   129.2,0.039417,0.024218,0.315385,0.000562,  36.449
   129.4,0.040256,0.024583,0.321609,0.000562,  36.452
   129.6,0.041143,0.024926,0.327426,0.000526,  36.456
   129.8,0.041981,0.025415,0.332792,0.000548,  36.455
   130.0,0.042842,0.025960,0.337702,0.000562,  36.459
   130.2,0.043702,0.026558,0.344729,0.000526,  36.458
   130.4,0.044548,0.027104,0.352379,0.000562,  36.460
   130.6,0.045406,0.027644,0.360684,0.000562,  36.460
   130.8,0.046256,0.028194,0.368129,0.000562,  36.460
   131.0,0.047113,0.028744,0.375417,0.000584,  36.464
   131.2,0.047988,0.029293,0.382559,0.000611,  36.462
   131.4,0.048858,0.029844,0.389971,0.000611,  36.464
   131.6,0.049578,0.030380,0.397444,0.000611,  36.462
   131.8,0.050218,0.030907,0.404953,0.000624,  36.466
   132.0,0.050794,0.031425,0.413161,0.000637,  36.471
   132.2,0.051287,0.031973,0.421765,0.000637,  36.467
   132.4,0.052088,0.032528,0.430762,0.000651,  36.467
   132.6,0.052982,0.033101,0.439259,0.000651,  36.471
   132.8,0.053949,0.033674,0.447691,0.000664,  36.473
   133.0,0.054855,0.034253,0.456055,0.000677,  36.477
   133.2,0.055784,0.034843,0.464599,0.000677,  36.473
   133.4,0.056712,0.035460,0.473178,0.000691,  36.478
   133.6,0.057664,0.036086,0.481824,0.000704,  36.478
   133.8,0.058648,0.036729,0.490193,0.000704,  36.477
   134.0,0.059637,0.037368,0.498405,0.000704,  36.481
   134.2,0.060600,0.038009,0.506480,0.000718,  36.478
   134.4,0.061573,0.038652,0.514784,0.000718,  36.484
   134.6,0.062535,0.039270,0.523155,0.000704,  36.482
   134.8,0.063502,0.039871,0.531550,0.000704,  36.483
   135.0,0.064487,0.040467,0.540328,0.000718,  36.479
   135.2,0.065468,0.041118,0.549308,0.000669,  36.481
   135.4,0.066478,0.041792,0.558505,0.000718,  36.489
   135.6,0.067517,0.042492,0.567832,0.000718,  36.486
   135.8,0.068567,0.043072,0.577326,0.000682,  36.489
   136.0,0.069594,0.043602,0.587042,0.000718,  36.482
   136.2,0.070634,0.044082,0.595484,0.000718,  36.485
   136.4,0.071666,0.044517,0.603349,0.000718,  36.485
   136.6,0.072704,0.045152,0.610532,0.000718,  36.488
   136.8,0.073754,0.045839,0.617073,0.000731,  36.484
   137.0,0.074800,0.046579,0.625825,0.000731,  36.484
   137.2,0.075824,0.047253,0.635158,0.000731,  36.486
   137.4,0.076846,0.047929,0.645046,0.000744,  36.483
   137.6,0.077849,0.048605,0.655122,0.000744,  36.481
   137.8,0.078864,0.049286,0.665566,0.000731,  36.481
   138.0,0.079891,0.049970,0.676452,0.000731,  36.480
   138.2,0.080907,0.050662,0.686747,0.000722,  36.479
   138.4,0.081788,0.051349,0.696879,0.000736,  36.476
   138.6,0.082597,0.052030,0.706908,0.000749,  36.480
   138.8,0.083343,0.052709,0.717249,0.000714,  36.476
   139.0,0.084012,0.053419,0.727653,0.000749,  36.476
   139.2,0.084990,0.054139,0.738136,0.000762,  36.476
   139.4,0.086070,0.054876,0.748710,0.000727,  36.472
   139.6,0.087228,0.055601,0.759282,0.000762,  36.473
   139.8,0.088294,0.056325,0.769894,0.000776,  36.471
   140.0,0.089376,0.057054,0.780322,0.000740,  36.471
   140.2,0.090450,0.057771,0.790603,0.000762,  36.469
   140.4,0.091495,0.058482,0.800675,0.000776,  36.468
   140.6,0.092546,0.059191,0.810765,0.000740,  36.468
   140.8,0.093582,0.059836,0.820817,0.000776,  36.468
   141.0,0.094549,0.060442,0.830650,0.000789,  36.468
   141.2,0.095494,0.061011,0.840992,0.000740,  36.466
   141.4,0.096392,0.061721,0.851580,0.000776,  36.467
   141.6,0.097471,0.062487,0.862302,0.000776,  36.471
   141.8,0.098636,0.063303,0.872816,0.000754,  36.470
   142.0,0.099870,0.064049,0.883251,0.000776,  36.472
   142.2,0.100982,0.064791,0.893606,0.000776,  36.467
   142.4,0.102079,0.065528,0.904075,0.000754,  36.465
   142.6,0.103162,0.066278,0.914607,0.000776,  36.463
   142.8,0.104255,0.067022,0.925147,0.000776,  36.464
   143.0,0.105353,0.067771,0.934956,0.000789,  36.460
   143.2,0.106452,0.068409,0.944340,0.000754,  36.461
   143.4,0.107522,0.068985,0.953369,0.000789,  36.460
   143.6,0.108591,0.069507,0.962056,0.000803,  36.457
   143.8,0.109640,0.069966,0.970446,0.000767,  36.459
   144.0,0.110667,0.070619,0.978341,0.000803,  36.458
   144.2,0.111689,0.071314,0.985898,0.000816,  36.453
   144.4,0.112686,0.072053,0.995759,0.000794,  36.454
   144.6,0.113697,0.072746,1.006356,0.000829,  36.454
   144.8,0.114719,0.073436,1.017871,0.000829,  36.456
   145.0,0.115730,0.074136,1.028433,0.000829,  36.450
   145.2,0.116629,0.074849,1.038996,0.000825,  36.439
   145.4,0.117464,0.075570,1.049401,0.000838,  36.436
   145.6,0.118251,0.076307,1.059894,0.000838,  36.433
   145.8,0.118969,0.077040,1.070286,0.000851,  36.436
   146.0,0.119960,0.077786,1.080626,0.000865,  36.433
   146.2,0.121042,0.078539,1.090556,0.000878,  36.432
   146.4,0.122198,0.079262,1.100098,0.000865,  36.430
   146.6,0.123217,0.079969,1.109226,0.000865,  36.427
   146.8,0.124223,0.080675,1.118903,0.000878,  36.426
   147.0,0.125196,0.081398,1.128527,0.000878,  36.427
   147.2,0.126247,0.082116,1.138171,0.000878,  36.422
   147.4,0.127338,0.082840,1.148075,0.000878,  36.422
   147.6,0.128457,0.083557,1.158058,0.000878,  36.419
   147.8,0.129516,0.084263,1.168188,0.000878,  36.417
   148.0,0.130573,0.084970,1.178344,0.000878,  36.414
   148.2,0.131618,0.085672,1.188652,0.000878,  36.409
   148.4,0.132656,0.086361,1.199008,0.000878,  36.401
   148.6,0.133701,0.087060,1.209121,0.000856,  36.398
   148.8,0.134735,0.087751,1.219071,0.000856,  36.397
   149.0,0.135751,0.088439,1.228730,0.000856,  36.391
   149.2,0.136769,0.089122,1.238585,0.000834,  36.388
   149.4,0.137778,0.089809,1.248448,0.000856,  36.383
   149.6,0.138773,0.090499,1.258075,0.000869,  36.378
   149.8,0.139774,0.091186,1.267928,0.000883,  36.380
   150.0,0.140756,0.091766,1.277895,0.000834,  36.377
   150.2,0.141724,0.092286,1.287612,0.000869,  36.358
   150.4,0.142690,0.092754,1.295951,0.000883,  36.352
   150.6,0.143653,0.093169,1.303570,0.000834,  36.350
   150.8,0.144638,0.093781,1.310184,0.000869,  36.345
   151.0,0.145636,0.094440,1.315863,0.000883,  36.338
   151.2,0.146651,0.095148,1.324496,0.000834,  36.334
   151.4,0.147625,0.095790,1.333845,0.000869,  36.328
   151.6,0.148588,0.096430,1.343814,0.000869,  36.324
   151.8,0.149535,0.097063,1.353293,0.000834,  36.319
   152.0,0.150515,0.097708,1.362841,0.000856,  36.313
   152.2,0.151514,0.098359,1.372457,0.000869,  36.308
   152.4,0.152523,0.099018,1.381693,0.000847,  36.300
   152.6,0.153316,0.099624,1.390674,0.000883,  36.287
   152.8,0.154009,0.100208,1.399535,0.000896,  36.279
   153.0,0.154593,0.100774,1.408742,0.000861,  36.276
   153.2,0.155085,0.101343,1.417504,0.000896,  36.267
   153.4,0.155952,0.101915,1.426279,0.000910,  36.260
   153.6,0.156903,0.102481,1.434910,0.000874,  36.256
   153.8,0.157949,0.103097,1.443557,0.000910,  36.252
   154.0,0.158930,0.103745,1.451681,0.000936,  36.249
   154.2,0.159937,0.104413,1.460438,0.000901,  36.243
   154.4,0.160950,0.105042,1.469170,0.000936,  36.226
   154.6,0.161906,0.105666,1.478055,0.000936,  36.220
   154.8,0.162858,0.106278,1.486782,0.000901,  36.202
   155.0,0.163783,0.106874,1.495117,0.000910,  36.189
   155.2,0.164730,0.107467,1.503427,0.000923,  36.185
   155.4,0.165688,0.108052,1.511074,0.000901,  36.172
   155.6,0.166650,0.108635,1.518451,0.000963,  36.165
   155.8,0.167580,0.109219,1.525127,0.000977,  36.158
   156.0,0.168506,0.109806,1.533592,0.000954,  36.149
   156.2,0.169411,0.110360,1.542656,0.001003,  36.125
   156.4,0.170304,0.110909,1.552583,0.001003,  36.114
   156.6,0.171199,0.111440,1.561613,0.000995,  36.106
   156.8,0.172071,0.111912,1.570374,0.001043,  36.091
   157.0,0.172997,0.112344,1.578840,0.001057,  36.077
   157.2,0.173954,0.112747,1.586018,0.001070,  36.053
   157.4,0.174930,0.113115,1.592832,0.001048,  36.041
   157.6,0.175906,0.113656,1.598264,0.001084,  36.030
   157.8,0.176905,0.114243,1.603266,0.001097,  36.016
   158.0,0.177916,0.114878,1.611119,0.001075,  36.000
   158.2,0.178943,0.115468,1.619382,0.001088,  35.974
   158.4,0.179989,0.116065,1.628598,0.001102,  35.948
   158.6,0.181052,0.116664,1.636661,0.001124,  35.937
   158.8,0.181911,0.117232,1.644330,0.001146,  35.921
   159.0,0.182687,0.117785,1.651580,0.001173,  35.893
   159.2,0.183365,0.118321,1.659507,0.001164,  35.877
   159.4,0.183945,0.118923,1.667587,0.001191,  35.857
   159.6,0.184948,0.119556,1.675513,0.001218,  35.829
   159.8,0.186055,0.120208,1.684196,0.001209,  35.812
   160.0,0.187280,0.120822,1.692748,0.001258,  35.791
   160.2,0.188401,0.121439,1.701163,0.001271,  35.762
   160.4,0.189521,0.122053,1.709738,0.001236,  35.734
   160.6,0.190651,0.122671,1.718164,0.001285,  35.712
   160.8,0.191793,0.123291,1.726762,0.001298,  35.684
   161.0,0.192947,0.123921,1.735522,0.001276,  35.660
   161.2,0.194112,0.124553,1.743757,0.001311,  35.631
   161.4,0.195289,0.125187,1.752158,0.001338,  35.593
   161.6,0.196477,0.125823,1.761435,0.001329,  35.575
   161.8,0.197677,0.126452,1.770536,0.001378,  35.546
   162.0,0.198872,0.127076,1.780204,0.001405,  35.509
   162.2,0.200062,0.127700,1.789361,0.001383,  35.478
   162.4,0.201261,0.128352,1.798726,0.001445,  35.436
   162.6,0.202525,0.129013,1.807905,0.001459,  35.417
   162.8,0.203808,0.129695,1.817259,0.001437,  35.374
   163.0,0.205130,0.130379,1.826814,0.001486,  35.342
   163.2,0.206457,0.131073,1.836578,0.001486,  35.301
   163.4,0.207790,0.131771,1.846556,0.001463,  35.259
   163.6,0.209146,0.132373,1.856319,0.001477,  35.223
   163.8,0.210528,0.132925,1.865383,0.001490,  35.189
   164.0,0.211928,0.133434,1.873732,0.001504,  35.146
   164.2,0.213362,0.133900,1.881778,0.001504,  35.098
   164.4,0.214775,0.134572,1.888536,0.001504,  35.054
   164.6,0.216186,0.135297,1.894920,0.001517,  35.018
   164.8,0.217614,0.136077,1.904864,0.001530,  34.975
   165.0,0.218944,0.136759,1.915036,0.001530,  34.925
   165.2,0.220220,0.137424,1.926501,0.001530,  34.874
   165.4,0.221462,0.138069,1.937724,0.001544,  34.820
   165.6,0.222889,0.138789,1.948683,0.001544,  34.783
   165.8,0.224380,0.139534,1.959347,0.001557,  34.742
   166.0,0.225952,0.140309,1.970876,0.001584,  34.691
   166.2,0.227259,0.141068,1.981530,0.001598,  34.657
   166.4,0.228468,0.141834,1.992448,0.001611,  34.590
   166.6,0.229586,0.142601,2.003659,0.001598,  34.542
   166.8,0.230601,0.143367,2.015183,0.001584,  34.492
   167.0,0.232043,0.144146,2.026361,0.001584,  34.434
   167.2,0.233604,0.144932,2.037839,0.001557,  34.374
   167.4,0.235286,0.145712,2.048932,0.001530,  34.305
   167.6,0.236873,0.146503,2.058889,0.001517,  34.262
   167.8,0.238475,0.147302,2.070521,0.001504,  34.199
   168.0,0.240094,0.148058,2.082461,0.001490,  34.142
   168.2,0.241624,0.148804,2.094733,0.001477,  34.093
   168.4,0.243112,0.149521,2.106556,0.001477,  34.018
   168.6,0.244580,0.150233,2.118695,0.001490,  33.973
   168.8,0.246052,0.150938,2.130344,0.001490,  33.913
   169.0,0.247504,0.151630,2.143196,0.001490,  33.847
   169.2,0.248954,0.152335,2.154649,0.001490,  33.786
   169.4,0.250412,0.153041,2.165507,0.001490,  33.711
   169.6,0.251864,0.153755,2.177568,0.001477,  33.664
   169.8,0.253324,0.154477,2.189980,0.001441,  33.596
   170.0,0.254769,0.155200,2.200766,0.001463,  33.527
   170.2,0.256197,0.155929,2.212842,0.001428,  33.458
   170.4,0.257633,0.156548,2.224225,0.001437,  33.382
   170.6,0.259058,0.157106,2.234844,0.001445,  33.334
   170.8,0.260462,0.157619,2.245729,0.001432,  33.263
   171.0,0.261869,0.158069,2.255770,0.001383,  33.197
   171.2,0.263254,0.158688,2.264906,0.001405,  33.136
   171.4,0.264614,0.159342,2.273056,0.001392,  33.052
   171.6,0.265975,0.160032,2.281351,0.001343,  32.992
   171.8,0.267246,0.160638,2.288601,0.001378,  32.931
   172.0,0.268455,0.161222,2.294737,0.001378,  32.876
   172.2,0.269626,0.161784,2.303461,0.001329,  32.815
   172.4,0.270798,0.162328,2.313655,0.001303,  32.730
   172.6,0.271938,0.162849,2.325422,0.001303,  32.677
   172.8,0.273068,0.163346,2.336141,0.001303,  32.610
   173.0,0.274001,0.163840,2.345746,0.001289,  32.545
   173.2,0.274819,0.164320,2.354158,0.001289,  32.482
   173.4,0.275536,0.164777,2.364164,0.001276,  32.412
   173.6,0.276142,0.165242,2.371452,0.001262,  32.369
   173.8,0.277061,0.165705,2.378870,0.001249,  32.310
   174.0,0.278043,0.166159,2.387961,0.001249,  32.247
   174.2,0.279077,0.166543,2.395692,0.001249,  32.196
   174.4,0.279896,0.166887,2.401996,0.001236,  32.128
   174.6,0.280625,0.167196,2.409998,0.001236,  32.088
   174.8,0.281264,0.167513,2.418154,0.001236,  32.036
   175.0,0.281965,0.167801,2.423137,0.001249,  31.981
   175.2,0.282647,0.168071,2.431500,0.001249,  31.927
   175.4,0.283304,0.168328,2.436594,0.001236,  31.873
   175.6,0.283886,0.168567,2.441726,0.001249,  31.836
   175.8,0.284417,0.168791,2.448670,0.001236,  31.800
   176.0,0.284893,0.168969,2.455728,0.001222,  31.755
   176.2,0.285353,0.169128,2.459279,0.001222,  31.716
   176.4,0.285767,0.169266,2.464692,0.001222,  31.667
   176.6,0.286146,0.169369,2.470185,0.001173,  31.644
   176.8,0.286500,0.169448,2.473891,0.001195,  31.607
   177.0,0.286814,0.169511,2.477657,0.001160,  31.581
   177.2,0.287086,0.169553,2.481483,0.001160,  31.543
   177.4,0.287333,0.169584,2.485363,0.001209,  31.522
   177.6,0.287549,0.169595,2.489196,0.001222,  31.495
   177.8,0.287730,0.169630,2.493051,0.001222,  31.478
   178.0,0.287889,0.169666,2.496909,0.001209,  31.457
   178.2,0.288018,0.169707,2.500841,0.001195,  31.442
   178.4,0.288116,0.169754,2.502812,0.001169,  31.436
   178.6,0.288147,0.169696,2.506809,0.001115,  31.424
   178.8,0.288121,0.169596,2.506809,0.001129,  31.403
   179.0,0.288049,0.169454,2.508852,0.001155,  31.392
   179.2,0.287962,0.169324,2.510921,0.001182,  31.389
   179.4,0.287838,0.169194,2.515053,0.001209,  31.381
   179.6,0.287673,0.169044,2.519159,0.001236,  31.381
   179.8,0.287534,0.168904,2.521204,0.001249,  31.385
   180.0,0.287395,0.168762,2.521144,0.001262,  31.392
   180.2,0.287246,0.168621,2.525298,0.001262,  31.395
   180.4,0.287024,0.168428,2.525288,0.001262,  31.405
   180.6,0.286762,0.168213,2.527391,0.001276,  31.415
   180.8,0.286471,0.167974,2.529521,0.001289,  31.428
   181.0,0.286132,0.167706,2.531672,0.001289,  31.446
   181.2,0.285747,0.167409,2.529602,0.001289,  31.464
   181.4,0.285318,0.167092,2.529597,0.001289,  31.487
   181.6,0.284847,0.166751,2.531693,0.001289,  31.517
   181.8,0.284371,0.166379,2.531650,0.001289,  31.536
   182.0,0.283849,0.165985,2.531639,0.001303,  31.560
   182.2,0.283313,0.165621,2.533767,0.001338,  31.596
   182.4,0.282778,0.165264,2.533773,0.001352,  31.630
   182.6,0.282217,0.164915,2.535912,0.001329,  31.661
   182.8,0.281654,0.164528,2.535901,0.001378,  31.703
   183.0,0.281065,0.164135,2.535907,0.001405,  31.736
   183.2,0.280450,0.163731,2.538051,0.001383,  31.778
   183.4,0.279829,0.163372,2.535879,0.001432,  31.832
   183.6,0.279238,0.163036,2.535868,0.001445,  31.868
   183.8,0.278646,0.162722,2.535863,0.001437,  31.913
   184.0,0.278077,0.162314,2.535857,0.001459,  31.956
   184.2,0.277418,0.161871,2.533724,0.001459,  32.005
   184.4,0.276708,0.161398,2.533718,0.001423,  32.063
   184.6,0.275971,0.160937,2.533713,0.001445,  32.106
   184.8,0.275250,0.160476,2.531573,0.001432,  32.153
   185.0,0.274509,0.160005,2.531562,0.001410,  32.207
   185.2,0.273761,0.159593,2.531557,0.001459,  32.263
   185.4,0.272949,0.159204,2.529422,0.001486,  32.331
   185.6,0.272102,0.158838,2.529422,0.001499,  32.377
   185.8,0.271225,0.158502,2.529428,0.001477,  32.436
   186.0,0.270382,0.158055,2.531573,0.001526,  32.497
   186.2,0.269540,0.157577,2.529471,0.001539,  32.556
   186.4,0.268708,0.157065,2.529466,0.001530,  32.631
   186.6,0.267846,0.156549,2.527347,0.001544,  32.675
   186.8,0.266955,0.156013,2.525238,0.001544,  32.738
   187.0,0.266063,0.155451,2.523145,0.001530,  32.799
   187.2,0.265172,0.154905,2.521068,0.001526,  32.861
   187.4,0.264272,0.154367,2.521079,0.001526,  32.940
   187.6,0.263376,0.153817,2.523162,0.001504,  32.990
   187.8,0.262598,0.153259,2.518995,0.001566,  33.050
   188.0,0.261872,0.152699,2.516926,0.001593,  33.112
   188.2,0.261213,0.152140,2.516921,0.001557,  33.182
   188.4,0.260608,0.151589,2.514856,0.001593,  33.251
   188.6,0.259768,0.151038,2.510773,0.001606,  33.312
   188.8,0.258865,0.150499,2.508743,0.001571,  33.378
   189.0,0.257893,0.149939,2.508754,0.001620,  33.437
   189.2,0.256956,0.149372,2.504744,0.001633,  33.498
   189.4,0.256001,0.148802,2.502741,0.001584,  33.563
   189.6,0.255041,0.148306,2.500754,0.001620,  33.625
   189.8,0.254215,0.147849,2.496800,0.001633,  33.681
   190.0,0.253442,0.147422,2.496789,0.001598,  33.738
   190.2,0.252749,0.146903,2.494823,0.001646,  33.797
   190.4,0.251856,0.146363,2.490922,0.001646,  33.864
   190.6,0.250879,0.145783,2.488977,0.001598,  33.911
   190.8,0.249850,0.145230,2.487040,0.001606,  33.963
   191.0,0.248897,0.144679,2.483214,0.001606,  34.027
   191.2,0.247945,0.144124,2.481324,0.001584,  34.085
   191.4,0.247008,0.143558,2.479448,0.001633,  34.154
   191.6,0.246038,0.142985,2.475721,0.001660,  34.200
   191.8,0.245050,0.142407,2.473853,0.001638,  34.248
   192.0,0.244058,0.141921,2.471982,0.001673,  34.300
   192.2,0.243104,0.141479,2.468269,0.001687,  34.358
   192.4,0.242156,0.141081,2.466428,0.001700,  34.422
   192.6,0.241224,0.140722,2.466422,0.001665,  34.467
   192.8,0.240217,0.140161,2.462767,0.001713,  34.523
   193.0,0.239174,0.139552,2.460959,0.001727,  34.566
   193.2,0.238098,0.138881,2.457388,0.001705,  34.620
   193.4,0.237070,0.138274,2.453868,0.001718,  34.682
   193.6,0.236044,0.137675,2.450394,0.001745,  34.718
   193.8,0.235021,0.137082,2.448643,0.001710,  34.764
   194.0,0.233995,0.136483,2.445130,0.001710,  34.812
   194.2,0.232968,0.135885,2.441622,0.001710,  34.862
   194.4,0.231945,0.135288,2.438154,0.001674,  34.914
   194.6,0.231091,0.134700,2.436419,0.001696,  34.945
   194.8,0.230303,0.134129,2.431297,0.001683,  34.999
   195.0,0.229620,0.133564,2.427914,0.001683,  35.032
   195.2,0.228998,0.132994,2.424568,0.001732,  35.078
   195.4,0.228122,0.132439,2.419599,0.001732,  35.131
   195.6,0.227195,0.131886,2.416311,0.001718,  35.157
   195.8,0.226199,0.131342,2.411434,0.001740,  35.198
   196.0,0.225262,0.130816,2.406618,0.001754,  35.232
   196.2,0.224321,0.130289,2.403436,0.001705,  35.268
   196.4,0.223379,0.129747,2.397158,0.001740,  35.308
   196.6,0.222443,0.129209,2.392519,0.001754,  35.337
   196.8,0.221508,0.128662,2.389444,0.001718,  35.365
   197.0,0.220576,0.128117,2.383354,0.001754,  35.399
   197.2,0.219637,0.127572,2.378849,0.001767,  35.431
   197.4,0.218687,0.127030,2.375853,0.001732,  35.471
   197.6,0.217730,0.126492,2.369928,0.001754,  35.488
   197.8,0.216817,0.125964,2.365526,0.001754,  35.515
   198.0,0.215903,0.125439,2.362620,0.001732,  35.550
   198.2,0.215005,0.124898,2.356887,0.001767,  35.568
   198.4,0.214071,0.124351,2.352647,0.001754,  35.611
   198.6,0.213116,0.123800,2.349847,0.001767,  35.629
   198.8,0.212134,0.123258,2.344301,0.001754,  35.649
   199.0,0.211192,0.122720,2.340204,0.001776,  35.680
   199.2,0.210252,0.122190,2.337473,0.001789,  35.700
   199.4,0.209317,0.121732,2.332050,0.001776,  35.723
   199.6,0.208390,0.121310,2.326683,0.001776,  35.752
   199.8,0.207464,0.120935,2.322706,0.001789,  35.767
   200.0,0.206536,0.120592,2.318764,0.001789,  35.784
   200.2,0.205620,0.120109,2.316148,0.001789,  35.815
   200.4,0.204717,0.119597,2.310982,0.001816,  35.838
   200.6,0.203820,0.119055,2.307150,0.001794,  35.848
   200.8,0.202927,0.118545,2.302100,0.001794,  35.867
   201.0,0.202047,0.118045,2.295874,0.001794,  35.891
   201.2,0.201179,0.117554,2.290953,0.001781,  35.901
   201.4,0.200445,0.117065,2.284884,0.001776,  35.919
   201.6,0.199780,0.116569,2.280096,0.001789,  35.926
   201.8,0.199191,0.116077,2.275372,0.001754,  35.956
   202.0,0.198671,0.115643,2.268386,0.001781,  35.964
   202.2,0.197956,0.115237,2.261534,0.001794,  35.980
   202.4,0.197225,0.114858,2.257003,0.001758,  35.995
   202.6,0.196452,0.114425,2.251385,0.001781,  36.013
   202.8,0.195681,0.113970,2.245838,0.001781,  36.027
   203.0,0.194886,0.113509,2.240350,0.001745,  36.032
   203.2,0.194071,0.113062,2.236002,0.001781,  36.036
   203.4,0.193279,0.112618,2.228496,0.001781,  36.049
   203.6,0.192480,0.112177,2.222159,0.001758,  36.052
   203.8,0.191686,0.111726,2.216949,0.001794,  36.061
   204.0,0.190900,0.111275,2.209759,0.001794,  36.073
   204.2,0.190106,0.110817,2.204699,0.001772,  36.072
   204.4,0.189308,0.110369,2.200700,0.001794,  36.086
   204.6,0.188523,0.109931,2.196743,0.001794,  36.099
   204.8,0.187732,0.109491,2.190874,0.001772,  36.112
   205.0,0.186933,0.109030,2.185094,0.001794,  36.117
   205.2,0.186117,0.108562,2.179390,0.001794,  36.119
   205.4,0.185282,0.108086,2.173745,0.001772,  36.130
   205.6,0.184441,0.107696,2.168171,0.001794,  36.136
   205.8,0.183629,0.107336,2.162663,0.001807,  36.140
   206.0,0.182819,0.107021,2.157223,0.001772,  36.142
   206.2,0.182019,0.106738,2.150963,0.001807,  36.147
   206.4,0.181240,0.106330,2.143919,0.001807,  36.167
   206.6,0.180471,0.105897,2.139586,0.001807,  36.173
   206.8,0.179711,0.105434,2.134442,0.001772,  36.174
   207.0,0.178957,0.105017,2.131064,0.001807,  36.185
   207.2,0.178208,0.104606,2.127718,0.001807,  36.183
   207.4,0.177464,0.104200,2.121888,0.001785,  36.193
   207.6,0.176777,0.103803,2.115324,0.001785,  36.196
   207.8,0.176119,0.103421,2.107242,0.001785,  36.196
   208.0,0.175490,0.103052,2.100879,0.001799,  36.201
   208.2,0.174826,0.102678,2.093841,0.001785,  36.207
   208.4,0.174159,0.102301,2.086904,0.001785,  36.215
   208.6,0.173490,0.101937,2.080824,0.001799,  36.216
   208.8,0.172912,0.101570,2.074096,0.001785,  36.228
   209.0,0.172379,0.101203,2.066736,0.001785,  36.225
   209.2,0.171883,0.100830,2.060919,0.001799,  36.226
   209.4,0.171444,0.100461,2.054468,0.001785,  36.228
   209.6,0.170815,0.100100,2.047407,0.001799,  36.233
   209.8,0.170145,0.099735,2.041190,0.001799,  36.235
   210.0,0.169433,0.099377,2.033734,0.001799,  36.237
   210.2,0.168780,0.099028,2.025768,0.001812,  36.239
   210.4,0.168138,0.098687,2.019837,0.001799,  36.239
   210.6,0.167511,0.098330,2.013971,0.001799,  36.245
   210.8,0.166861,0.097972,2.008171,0.001812,  36.244
   211.0,0.166214,0.097614,2.002447,0.001812,  36.246
   211.2,0.165566,0.097260,1.996171,0.001812,  36.251
   211.4,0.164919,0.096909,1.989989,0.001826,  36.247
   211.6,0.164275,0.096564,1.983893,0.001826,  36.252
   211.8,0.163640,0.096214,1.977891,0.001812,  36.254
   212.0,0.163017,0.095868,1.971972,0.001812,  36.258
   212.2,0.162391,0.095527,1.966136,0.001812,  36.254
   212.4,0.161781,0.095195,1.959824,0.001777,  36.255
   212.6,0.161170,0.094865,1.953608,0.001812,  36.258
   212.8,0.160570,0.094551,1.947458,0.001777,  36.259
   213.0,0.159980,0.094273,1.941388,0.001777,  36.264
   213.2,0.159387,0.094029,1.934319,0.001812,  36.267
   213.4,0.158813,0.093805,1.928472,0.001826,  36.266
   213.6,0.158249,0.093611,1.922725,0.001812,  36.269
   213.8,0.157712,0.093319,1.917082,0.001834,  36.267
   214.0,0.157200,0.093007,1.911026,0.001848,  36.267
   214.2,0.156719,0.092678,1.904930,0.001812,  36.273
   214.4,0.156225,0.092415,1.898890,0.001861,  36.277
   214.6,0.155756,0.092170,1.892900,0.001874,  36.278
   214.8,0.155291,0.091949,1.887043,0.001790,  36.281
   215.0,0.154803,0.091706,1.880792,0.001790,  36.287
   215.2,0.154318,0.091459,1.874647,0.001803,  36.281
   215.4,0.153829,0.091207,1.868581,0.001741,  36.281
   215.6,0.153406,0.090949,1.862143,0.001763,  36.282
   215.8,0.153020,0.090690,1.855804,0.001777,  36.287
   216.0,0.152658,0.090424,1.849556,0.001741,  36.282
   216.2,0.152336,0.090160,1.842960,0.001777,  36.283
   216.4,0.151891,0.089894,1.836463,0.001790,  36.279
   216.6,0.151406,0.089633,1.831333,0.001755,  36.282
   216.8,0.150909,0.089363,1.825843,0.001790,  36.285
   217.0,0.150395,0.089088,1.820847,0.001803,  36.281
   217.2,0.149876,0.088813,1.815499,0.001803,  36.288
   217.4,0.149333,0.088544,1.809811,0.001839,  36.288
   217.6,0.148832,0.088284,1.804203,0.001852,  36.291
   217.8,0.148353,0.088029,1.798256,0.001852,  36.289
   218.0,0.147882,0.087772,1.792379,0.001839,  36.294
   218.2,0.147402,0.087522,1.786574,0.001852,  36.293
   218.4,0.146935,0.087280,1.780850,0.001852,  36.294
   218.6,0.146462,0.087042,1.774839,0.001839,  36.295
   218.8,0.146006,0.086810,1.768921,0.001852,  36.294
   219.0,0.145570,0.086587,1.763808,0.001852,  36.297
   219.2,0.145136,0.086355,1.757684,0.001839,  36.294
   219.4,0.144691,0.086118,1.752021,0.001839,  36.296
   219.6,0.144245,0.085881,1.746394,0.001852,  36.298
   219.8,0.143803,0.085681,1.740133,0.001803,  36.310
   220.0,0.143411,0.085486,1.733960,0.001852,  36.311
   220.2,0.143043,0.085313,1.728220,0.001830,  36.311
   220.4,0.142706,0.085146,1.721557,0.001830,  36.313
   220.6,0.142334,0.084990,1.715331,0.001852,  36.317
   220.8,0.141959,0.084852,1.709834,0.001852,  36.320
   221.0,0.141586,0.084721,1.705364,0.001852,  36.318
   221.2,0.141212,0.084543,1.700944,0.001852,  36.315
   221.4,0.140845,0.084345,1.697203,0.001866,  36.315
   221.6,0.140478,0.084138,1.691935,0.001866,  36.313
   221.8,0.140116,0.083956,1.685514,0.001866,  36.316
   222.0,0.139774,0.083782,1.678888,0.001866,  36.315
   222.2,0.139429,0.083623,1.673541,0.001852,  36.318
   222.4,0.139076,0.083448,1.668265,0.001848,  36.313
   222.6,0.138738,0.083273,1.663345,0.001848,  36.313
   222.8,0.138398,0.083100,1.657911,0.001812,  36.315
   223.0,0.138106,0.082925,1.652258,0.001826,  36.317
   223.2,0.137837,0.082753,1.646417,0.001839,  36.315
   223.4,0.137603,0.082582,1.640905,0.001839,  36.316
   223.6,0.137388,0.082405,1.635723,0.001839,  36.317
   223.8,0.137068,0.082228,1.630333,0.001852,  36.316
   224.0,0.136726,0.082053,1.625274,0.001852,  36.315
   224.2,0.136365,0.081884,1.620278,0.001852,  36.319
   224.4,0.136036,0.081728,1.615086,0.001866,  36.315
   224.6,0.135730,0.081578,1.609961,0.001866,  36.319
   224.8,0.135428,0.081425,1.605154,0.001866,  36.322
   225.0,0.135118,0.081272,1.600166,0.001866,  36.320
   225.2,0.134816,0.081130,1.595208,0.001866,  36.322
   225.4,0.134508,0.080979,1.590057,0.001852,  36.321
   225.6,0.134191,0.080826,1.584480,0.001852,  36.322
   225.8,0.133890,0.080675,1.579216,0.001866,  36.319
   226.0,0.133575,0.080533,1.573786,0.001817,  36.323
   226.2,0.133320,0.080399,1.568428,0.001852,  36.322
   226.4,0.133107,0.080280,1.563578,0.001830,  36.325
   226.6,0.132919,0.080178,1.558327,0.001830,  36.327
   226.8,0.132700,0.080094,1.553593,0.001866,  36.327
   227.0,0.132488,0.080025,1.548687,0.001866,  36.336
   227.2,0.132278,0.079949,1.543618,0.001866,  36.335
   227.4,0.132056,0.079868,1.538617,0.001852,  36.328
   227.6,0.131836,0.079801,1.534520,0.001852,  36.330
   227.8,0.131619,0.079730,1.530673,0.001852,  36.329
   228.0,0.131390,0.079630,1.527287,0.001866,  36.330
   228.2,0.131164,0.079523,1.523921,0.001879,  36.330
   228.4,0.130940,0.079407,1.518576,0.001879,  36.331
   228.6,0.130708,0.079299,1.512520,0.001866,  36.332
   228.8,0.130482,0.079203,1.505980,0.001852,  36.334
   229.0,0.130262,0.079109,1.501799,0.001839,  36.338
   229.2,0.130009,0.078990,1.498610,0.001848,  36.333
   229.4,0.129751,0.078867,1.496184,0.001848,  36.332
   229.6,0.129485,0.078735,1.492446,0.001826,  36.331
   229.8,0.129281,0.078626,1.488739,0.001852,  36.336
   230.0,0.129103,0.078522,1.484680,0.001866,  36.332
   230.2,0.128956,0.078427,1.480675,0.001866,  36.334
   230.4,0.128827,0.078330,1.476525,0.001866,  36.340
   230.6,0.128645,0.078242,1.472053,0.001879,  36.336
   230.8,0.128453,0.078158,1.468162,0.001893,  36.338
   231.0,0.128252,0.078080,1.464482,0.001879,  36.340
   231.2,0.128071,0.078002,1.461019,0.001879,  36.340
   231.4,0.127906,0.077945,1.457062,0.001893,  36.344
   231.6,0.127738,0.077850,1.452790,0.001879,  36.343
   231.8,0.127540,0.077745,1.448215,0.001879,  36.346
   232.0,0.127339,0.077631,1.444176,0.001893,  36.345
   232.2,0.127115,0.077565,1.440164,0.001893,  36.346
   232.4,0.126952,0.077523,1.436182,0.001893,  36.348
   232.6,0.126831,0.077495,1.432094,0.001893,  36.351
   232.8,0.126720,0.077445,1.427725,0.001893,  36.351
   233.0,0.126586,0.077400,1.423244,0.001893,  36.352
   233.2,0.126457,0.077346,1.419276,0.001893,  36.353
   233.4,0.126326,0.077293,1.415506,0.001857,  36.352
   233.6,0.126188,0.077241,1.411607,0.001893,  36.355
   233.8,0.126056,0.077186,1.407417,0.001857,  36.357
   234.0,0.125914,0.077146,1.403425,0.001857,  36.356
   234.2,0.125790,0.077106,1.398999,0.001893,  36.362
   234.4,0.125666,0.077080,1.395878,0.001879,  36.362
   234.6,0.125552,0.077052,1.393237,0.001866,  36.363
   234.8,0.125431,0.077007,1.390943,0.001874,  36.361
   235.0,0.125304,0.076962,1.389115,0.001888,  36.361
   235.2,0.125190,0.076917,1.385901,0.001852,  36.362
   235.4,0.125073,0.076870,1.382409,0.001866,  36.365
   235.6,0.124946,0.076832,1.378645,0.001879,  36.368
   235.8,0.124836,0.076794,1.375204,0.001857,  36.375
   236.0,0.124730,0.076747,1.371801,0.001844,  36.371
   236.2,0.124621,0.076707,1.368273,0.001844,  36.377
   236.4,0.124528,0.076662,1.365058,0.001822,  36.378
   236.6,0.124440,0.076624,1.361717,0.001844,  36.379
   236.8,0.124358,0.076584,1.358258,0.001844,  36.378
   237.0,0.124288,0.076548,1.354887,0.001857,  36.379
   237.2,0.124220,0.076515,1.351288,0.001879,  36.383
   237.4,0.124133,0.076494,1.347469,0.001879,  36.381
   237.6,0.124051,0.076475,1.344167,0.001893,  36.384
   237.8,0.123962,0.076433,1.340873,0.001879,  36.380
   238.0,0.123846,0.076395,1.337729,0.001879,  36.380
   238.2,0.123709,0.076345,1.334721,0.001893,  36.382
   238.4,0.123567,0.076338,1.331723,0.001879,  36.379
   238.6,0.123518,0.076343,1.328595,0.001879,  36.383
   238.8,0.123497,0.076366,1.325643,0.001893,  36.384
   239.0,0.123535,0.076371,1.322848,0.001879,  36.380
   239.2,0.123514,0.076381,1.319820,0.001879,  36.390
   239.4,0.123476,0.076388,1.317061,0.001879,  36.385
   239.6,0.123443,0.076395,1.314325,0.001866,  36.386
   239.8,0.123408,0.076407,1.311617,0.001866,  36.386
   240.0,0.123366,0.076414,1.308682,0.001866,  36.380
   240.2,0.123326,0.076407,1.305524,0.001830,  36.381
   240.4,0.123277,0.076399,1.302023,0.001866,  36.377
   240.6,0.123224,0.076381,1.299526,0.001844,  36.378
   240.8,0.123168,0.076369,1.297276,0.001844,  36.375
   241.0,0.123108,0.076357,1.295160,0.001879,  36.375
   241.2,0.123037,0.076343,1.293177,0.001879,  36.377
   241.4,0.122963,0.076329,1.291443,0.001893,  36.374
   241.6,0.122903,0.076314,1.289848,0.001879,  36.372
   241.8,0.122840,0.076298,1.288370,0.001879,  36.375
   242.0,0.122776,0.076281,1.286098,0.001893,  36.373
   242.2,0.122731,0.076272,1.283259,0.001893,  36.379
   242.4,0.122688,0.076272,1.280097,0.001879,  36.373
   242.6,0.122650,0.076272,1.277600,0.001866,  36.372
   242.8,0.122628,0.076282,1.275212,0.001888,  36.375
   243.0,0.122612,0.076303,1.272933,0.001888,  36.374
   243.2,0.122605,0.076322,1.270916,0.001852,  36.372
   243.4,0.122584,0.076336,1.268907,0.001901,  36.374
   243.6,0.122563,0.076350,1.267023,0.001915,  36.372
   243.8,0.122545,0.076364,1.264703,0.001879,  36.371
   244.0,0.122524,0.076368,1.262171,0.001901,  36.369
   244.2,0.122524,0.076366,1.259221,0.001901,  36.371
   244.4,0.122533,0.076363,1.256732,0.001879,  36.372
   244.6,0.122547,0.076382,1.254262,0.001928,  36.369
   244.8,0.122544,0.076410,1.251700,0.001928,  36.371
   245.0,0.122530,0.076446,1.249360,0.001893,  36.372
   245.2,0.122511,0.076474,1.247253,0.001928,  36.373
   245.4,0.122508,0.076503,1.244925,0.001928,  36.367
   245.6,0.122502,0.076541,1.242719,0.001906,  36.367
   245.8,0.122511,0.076573,1.240530,0.001942,  36.365
   246.0,0.122518,0.076599,1.238346,0.001942,  36.366
   246.2,0.122523,0.076623,1.236178,0.001919,  36.363
   246.4,0.122543,0.076656,1.233699,0.001942,  36.364
   246.6,0.122547,0.076689,1.231352,0.001942,  36.369
   246.8,0.122544,0.076720,1.229431,0.001906,  36.369
   247.0,0.122547,0.076742,1.227629,0.001919,  36.364
   247.2,0.122547,0.076758,1.226046,0.001906,  36.366
   247.4,0.122544,0.076772,1.224159,0.001884,  36.367
   247.6,0.122550,0.076791,1.222297,0.001884,  36.368
   247.8,0.122561,0.076808,1.220443,0.001919,  36.366
   248.0,0.122569,0.076827,1.218793,0.001933,  36.367
   248.2,0.122596,0.076848,1.217443,0.001919,  36.366
   248.4,0.122610,0.076874,1.215999,0.001919,  36.367
   248.6,0.122614,0.076910,1.214863,0.001933,  36.367
   248.8,0.122631,0.076948,1.213218,0.001933,  36.367
   249.0,0.122652,0.076981,1.211590,0.001933,  36.364
   249.2,0.122664,0.077019,1.209765,0.001946,  36.367
   249.4,0.122687,0.077054,1.208043,0.001911,  36.363
   249.6,0.122705,0.077095,1.206329,0.001911,  36.366
   249.8,0.122719,0.077139,1.204331,0.001924,  36.365
   250.0,0.122732,0.077179,1.202531,0.001875,  36.365
   250.2,0.122732,0.077186,1.200832,0.001897,  36.370
   250.4,0.122729,0.077182,1.198953,0.001911,  36.367
   250.6,0.122712,0.077160,1.197257,0.001875,  36.366
   250.8,0.122701,0.077207,1.195661,0.001897,  36.367
   251.0,0.122761,0.077283,1.194064,0.001911,  36.369
   251.2,0.122842,0.077387,1.192582,0.001862,  36.370
   251.4,0.122951,0.077446,1.191208,0.001884,  36.372
   251.6,0.123018,0.077494,1.189940,0.001897,  36.376
   251.8,0.123065,0.077532,1.188596,0.001848,  36.367
   252.0,0.123110,0.077579,1.187170,0.001884,  36.363
   252.2,0.123153,0.077622,1.185579,0.001897,  36.363
   252.4,0.123184,0.077652,1.183860,0.001848,  36.363
   252.6,0.123215,0.077697,1.182053,0.001884,  36.364
   252.8,0.123261,0.077742,1.179959,0.001897,  36.365
   253.0,0.123311,0.077787,1.178996,0.001848,  36.359
   253.2,0.123363,0.077806,1.178413,0.001884,  36.349
   253.4,0.123378,0.077823,1.178202,0.001884,  36.352
   253.6,0.123371,0.077832,1.177248,0.001884,  36.349
   253.8,0.123346,0.077856,1.176020,0.001884,  36.349
   254.0,0.123353,0.077889,1.174432,0.001884,  36.350
   254.2,0.123363,0.077927,1.173223,0.001862,  36.350
   254.4,0.123374,0.077960,1.172029,0.001884,  36.354
   254.6,0.123406,0.077989,1.170750,0.001871,  36.349
   254.8,0.123455,0.078024,1.169742,0.001884,  36.350
   255.0,0.123512,0.078055,1.168736,0.001848,  36.352
   255.2,0.123565,0.078103,1.167825,0.001884,  36.354
   255.4,0.123618,0.078153,1.166921,0.001897,  36.353
   255.6,0.123674,0.078210,1.165905,0.001862,  36.353
   255.8,0.123716,0.078248,1.164709,0.001911,  36.356
   256.0,0.123748,0.078286,1.163596,0.001911,  36.354
   256.2,0.123776,0.078324,1.162224,0.001884,  36.354
   256.4,0.123840,0.078374,1.160686,0.001893,  36.356
   256.6,0.123907,0.078429,1.159069,0.001906,  36.355
   256.8,0.123992,0.078488,1.157801,0.001906,  36.357
   257.0,0.124048,0.078543,1.156622,0.001919,  36.361
   257.2,0.124098,0.078590,1.155619,0.001933,  36.374
   257.4,0.124134,0.078645,1.154467,0.001933,  36.372
   257.6,0.124172,0.078695,1.153234,0.001933,  36.370
   257.8,0.124229,0.078735,1.151922,0.001946,  36.374
   258.0,0.124282,0.078783,1.150857,0.001933,  36.373
   258.2,0.124338,0.078830,1.149707,0.001919,  36.375
   258.4,0.124395,0.078877,1.148643,0.001933,  36.371
   258.6,0.124451,0.078929,1.147833,0.001919,  36.375
   258.8,0.124508,0.078974,1.147020,0.001919,  36.376
   259.0,0.124557,0.079014,1.146302,0.001933,  36.374
   259.2,0.124596,0.079047,1.145432,0.001919,  36.376
   259.4,0.124635,0.079083,1.144481,0.001919,  36.379
   259.6,0.124684,0.079125,1.143462,0.001933,  36.377
   259.8,0.124723,0.079165,1.142510,0.001919,  36.384
   260.0,0.124758,0.079201,1.141642,0.001919,  36.378
   260.2,0.124811,0.079239,1.140689,0.001919,  36.384
   260.4,0.124857,0.079285,1.139900,0.001919,  36.381
   260.6,0.124893,0.079325,1.139020,0.001884,  36.382
   260.8,0.124946,0.079364,1.138057,0.001919,  36.383
   261.0,0.124995,0.079402,1.137192,0.001897,  36.384
   261.2,0.125049,0.079440,1.136409,0.001884,  36.389
   261.4,0.125112,0.079479,1.135638,0.001919,  36.389
   261.6,0.125176,0.079528,1.134869,0.001933,  36.387
   261.8,0.125243,0.079573,1.134106,0.001919,  36.388
   262.0,0.125286,0.079612,1.133430,0.001919,  36.390
   262.2,0.125318,0.079647,1.132681,0.001933,  36.392
   262.4,0.125332,0.079685,1.131747,0.001919,  36.385
   262.6,0.125403,0.079717,1.130731,0.001919,  36.391
   262.8,0.125495,0.079762,1.129627,0.001919,  36.392
   263.0,0.125611,0.079807,1.128773,0.001906,  36.394
   263.2,0.125679,0.079857,1.128005,0.001893,  36.391
   263.4,0.125747,0.079919,1.127317,0.001893,  36.399
   263.6,0.125810,0.079988,1.126629,0.001893,  36.404
   263.8,0.125867,0.080047,1.126037,0.001879,  36.400
   264.0,0.125910,0.080094,1.125530,0.001879,  36.398
   264.2,0.125959,0.080146,1.124784,0.001879,  36.397
   264.4,0.125994,0.080193,1.123878,0.001866,  36.395
   264.6,0.126027,0.080227,1.122990,0.001866,  36.398
   264.8,0.126065,0.080265,1.122160,0.001879,  36.400
   265.0,0.126094,0.080313,1.121237,0.001879,  36.402
   265.2,0.126130,0.080365,1.120311,0.001879,  36.401
   265.4,0.126176,0.080424,1.119888,0.001893,  36.406
   265.6,0.126225,0.080451,1.119629,0.001879,  36.410
   265.8,0.126240,0.080470,1.119618,0.001879,  36.409
   266.0,0.126258,0.080473,1.119294,0.001906,  36.408
   266.2,0.126264,0.080490,1.118739,0.001906,  36.408
   266.4,0.126279,0.080518,1.118043,0.001906,  36.409
   266.6,0.126300,0.080540,1.117468,0.001919,  36.406
   266.8,0.126332,0.080569,1.116720,0.001906,  36.408
   267.0,0.126368,0.080607,1.115885,0.001906,  36.410
   267.2,0.126414,0.080645,1.115248,0.001906,  36.410
   267.4,0.126477,0.080686,1.114547,0.001884,  36.412
   267.6,0.126528,0.080731,1.113939,0.001906,  36.412
   267.8,0.126588,0.080779,1.113196,0.001884,  36.412
   268.0,0.126655,0.080810,1.112444,0.001884,  36.415
   268.2,0.126684,0.080829,1.111601,0.001906,  36.409
   268.4,0.126706,0.080851,1.110943,0.001906,  36.414
   268.6,0.126722,0.080853,1.110280,0.001919,  36.410
   268.8,0.126770,0.080899,1.109710,0.001906,  36.410
   269.0,0.126826,0.080949,1.109066,0.001906,  36.412
   269.2,0.126907,0.081015,1.108411,0.001906,  36.414
   269.4,0.126954,0.081061,1.107528,0.001893,  36.416
   269.6,0.127001,0.081109,1.106732,0.001893,  36.415
   269.8,0.127046,0.081159,1.105886,0.001879,  36.414
   270.0,0.127089,0.081195,1.105062,0.001866,  36.408
   270.2,0.127122,0.081225,1.104024,0.001866,  36.407
   270.4,0.127163,0.081263,1.103309,0.001866,  36.408
   270.6,0.127192,0.081299,1.102822,0.001866,  36.404
   270.8,0.127228,0.081331,1.102393,0.001866,  36.405
   271.0,0.127277,0.081372,1.102059,0.001879,  36.405
   271.2,0.127327,0.081399,1.101964,0.001879,  36.403
   271.4,0.127353,0.081418,1.101953,0.001879,  36.400
   271.6,0.127381,0.081430,1.101778,0.001893,  36.403
   271.8,0.127398,0.081447,1.101451,0.001879,  36.400
   272.0,0.127413,0.081466,1.100971,0.001879,  36.400
   272.2,0.127437,0.081478,1.100497,0.001857,  36.398
   272.4,0.127451,0.081497,1.099867,0.001844,  36.397
   272.6,0.127470,0.081525,1.099169,0.001844,  36.398
   272.8,0.127504,0.081551,1.098608,0.001822,  36.393
   273.0,0.127536,0.081573,1.098131,0.001844,  36.398
   273.2,0.127555,0.081594,1.097644,0.001844,  36.392
   273.4,0.127590,0.081613,1.097085,0.001844,  36.393
   273.6,0.127615,0.081642,1.096381,0.001844,  36.397
   273.8,0.127633,0.081674,1.095600,0.001830,  36.395
   274.0,0.127658,0.081708,1.094960,0.001808,  36.390
   274.2,0.127668,0.081727,1.094254,0.001830,  36.395
   274.4,0.127673,0.081735,1.093538,0.001830,  36.392
   274.6,0.127686,0.081741,1.092994,0.001830,  36.395
   274.8,0.127686,0.081738,1.092452,0.001808,  36.396
   275.0,0.127730,0.081774,1.091932,0.001844,  36.392
   275.2,0.127807,0.081826,1.091489,0.001830,  36.394
   275.4,0.127896,0.081895,1.091026,0.001795,  36.395
   275.6,0.127936,0.081933,1.090480,0.001817,  36.395
   275.8,0.127982,0.081960,1.089864,0.001790,  36.397
   276.0,0.128000,0.081972,1.089265,0.001777,  36.392
   276.2,0.128024,0.081989,1.088529,0.001785,  36.390
   276.4,0.128041,0.082003,1.087730,0.001799,  36.387
   276.6,0.128057,0.082018,1.087112,0.001812,  36.386
   276.8,0.128062,0.082034,1.086636,0.001812,  36.387
   277.0,0.128074,0.082056,1.086151,0.001826,  36.384
   277.2,0.128092,0.082077,1.086053,0.001839,  36.381
   277.4,0.128104,0.082086,1.086189,0.001839,  36.380
   277.6,0.128101,0.082100,1.086478,0.001852,  36.381
   277.8,0.128092,0.082101,1.086249,0.001852,  36.384
   278.0,0.128081,0.082091,1.085796,0.001839,  36.380
   278.2,0.128067,0.082084,1.085056,0.001852,  36.380
   278.4,0.128053,0.082065,1.084453,0.001852,  36.378
   278.6,0.128042,0.082051,1.083850,0.001839,  36.377
   278.8,0.128026,0.082048,1.083102,0.001852,  36.378
   279.0,0.128010,0.082043,1.082567,0.001852,  36.380
   279.2,0.127989,0.082038,1.082172,0.001839,  36.375
   279.4,0.127976,0.082039,1.081696,0.001852,  36.372
   279.6,0.127968,0.082046,1.081313,0.001852,  36.372
   279.8,0.127965,0.082048,1.080947,0.001839,  36.369
   280.0,0.127955,0.082056,1.080516,0.001839,  36.370
   280.2,0.127948,0.082070,1.079844,0.001839,  36.372
   280.4,0.127951,0.082075,1.078948,0.001803,  36.367
   280.6,0.127962,0.082089,1.077828,0.001839,  36.373
   280.8,0.127987,0.082103,1.077011,0.001803,  36.368
   281.0,0.128029,0.082112,1.076046,0.001803,  36.370
   281.2,0.128030,0.082121,1.075077,0.001839,  36.368
   281.4,0.128023,0.082126,1.074402,0.001852,  36.370
   281.6,0.128009,0.082127,1.073877,0.001852,  36.374
   281.8,0.128005,0.082131,1.073495,0.001839,  36.370
   282.0,0.128001,0.082136,1.073188,0.001852,  36.366
   282.2,0.127994,0.082136,1.072590,0.001817,  36.363
   282.4,0.127991,0.082139,1.071919,0.001817,  36.364
   282.6,0.127987,0.082137,1.071181,0.001803,  36.363
   282.8,0.127984,0.082144,1.070517,0.001790,  36.362
   283.0,0.127980,0.082147,1.069640,0.001785,  36.362
   283.2,0.127976,0.082151,1.068775,0.001799,  36.362
   283.4,0.127983,0.082158,1.068268,0.001799,  36.361
   283.6,0.127983,0.082149,1.067901,0.001799,  36.361
   283.8,0.127955,0.082134,1.067614,0.001812,  36.360
   284.0,0.127923,0.082119,1.067238,0.001812,  36.361
   284.2,0.127887,0.082093,1.066783,0.001826,  36.362
   284.4,0.127848,0.082069,1.066391,0.001839,  36.358
   284.6,0.127805,0.082045,1.065948,0.001826,  36.362
   284.8,0.127762,0.082026,1.065443,0.001826,  36.357
   285.0,0.127716,0.082014,1.064878,0.001839,  36.356
   285.2,0.127681,0.082000,1.064364,0.001826,  36.352
   285.4,0.127648,0.081986,1.063917,0.001826,  36.356
   285.6,0.127609,0.081981,1.063321,0.001839,  36.354
   285.8,0.127584,0.081969,1.062736,0.001826,  36.353
   286.0,0.127561,0.081950,1.062008,0.001826,  36.356
   286.2,0.127523,0.081933,1.061225,0.001826,  36.352
   286.4,0.127490,0.081912,1.060499,0.001826,  36.343
   286.6,0.127447,0.081883,1.059698,0.001803,  36.347
   286.8,0.127416,0.081857,1.058831,0.001826,  36.346
   287.0,0.127401,0.081828,1.057988,0.001790,  36.342
   287.2,0.127380,0.081818,1.057163,0.001790,  36.342
   287.4,0.127359,0.081828,1.056356,0.001826,  36.347
   287.6,0.127362,0.081844,1.055709,0.001839,  36.350
   287.8,0.127358,0.081837,1.055053,0.001812,  36.355
   288.0,0.127331,0.081830,1.054452,0.001799,  36.367
   288.2,0.127309,0.081809,1.053873,0.001812,  36.362
   288.4,0.127273,0.081783,1.053372,0.001777,  36.358
   288.6,0.127231,0.081757,1.052942,0.001777,  36.355
   288.8,0.127191,0.081735,1.052447,0.001790,  36.356
   289.0,0.127145,0.081713,1.051806,0.001755,  36.352
   289.2,0.127110,0.081694,1.050960,0.001777,  36.345
   289.4,0.127088,0.081680,1.049970,0.001777,  36.344
   289.6,0.127067,0.081675,1.049625,0.001763,  36.341
   289.8,0.127030,0.081644,1.049571,0.001758,  36.340
   290.0,0.126987,0.081612,1.049593,0.001758,  36.341
   290.2,0.126937,0.081576,1.048860,0.001772,  36.344
   290.4,0.126876,0.081533,1.047865,0.001758,  36.345
   290.6,0.126802,0.081483,1.046471,0.001758,  36.345
   290.8,0.126726,0.081432,1.045529,0.001772,  36.344
   291.0,0.126631,0.081384,1.044718,0.001758,  36.346
   291.2,0.126550,0.081331,1.043908,0.001758,  36.341
   291.4,0.126472,0.081278,1.043435,0.001772,  36.340
   291.6,0.126394,0.081231,1.043100,0.001772,  36.341
   291.8,0.126313,0.081181,1.043042,0.001772,  36.338
   292.0,0.126242,0.081126,1.042611,0.001772,  36.341
   292.2,0.126167,0.081079,1.041958,0.001758,  36.341
   292.4,0.126094,0.081039,1.041162,0.001758,  36.342
   292.6,0.126036,0.081003,1.040436,0.001736,  36.344
   292.8,0.125972,0.080968,1.039506,0.001723,  36.346
   293.0,0.125909,0.080944,1.038498,0.001723,  36.349
   293.2,0.125866,0.080925,1.037446,0.001723,  36.346
   293.4,0.125820,0.080889,1.036140,0.001723,  36.349
   293.6,0.125750,0.080846,1.034787,0.001723,  36.354
   293.8,0.125681,0.080801,1.033703,0.001687,  36.352
   294.0,0.125603,0.080765,1.032622,0.001687,  36.348
   294.2,0.125530,0.080729,1.031622,0.001687,  36.348
   294.4,0.125472,0.080703,1.030685,0.001652,  36.347
   294.6,0.125415,0.080679,1.029813,0.001701,  36.347
   294.8,0.125341,0.080641,1.028937,0.001687,  36.346
   295.0,0.125274,0.080595,1.028396,0.001687,  36.345
   295.2,0.125209,0.080545,1.027984,0.001687,  36.347
   295.4,0.125132,0.080502,1.027712,0.001710,  36.343
   295.6,0.125061,0.080471,1.027634,0.001696,  36.342
   295.8,0.124997,0.080444,1.026890,0.001661,  36.346
   296.0,0.124909,0.080392,1.026019,0.001696,  36.343
   296.2,0.124820,0.080337,1.024891,0.001683,  36.346
   296.4,0.124731,0.080270,1.024085,0.001647,  36.343
   296.6,0.124653,0.080213,1.023352,0.001696,  36.346
   296.8,0.124573,0.080159,1.022483,0.001696,  36.344
   297.0,0.124512,0.080104,1.021561,0.001661,  36.341
   297.2,0.124445,0.080040,1.020662,0.001696,  36.342
   297.4,0.124356,0.079982,1.019575,0.001696,  36.340
   297.6,0.124261,0.079915,1.018730,0.001661,  36.345
   297.8,0.124158,0.079853,1.018022,0.001696,  36.344
   298.0,0.124064,0.079801,1.017245,0.001696,  36.341
   298.2,0.123979,0.079746,1.016264,0.001661,  36.337
   298.4,0.123900,0.079688,1.015220,0.001683,  36.340
   298.6,0.123806,0.079625,1.013979,0.001696,  36.338
   298.8,0.123707,0.079565,1.013058,0.001661,  36.340
   299.0,0.123601,0.079527,1.012145,0.001683,  36.342
   299.2,0.123545,0.079503,1.011287,0.001696,  36.341
   299.4,0.123520,0.079489,1.010201,0.001661,  36.339
   299.6,0.123506,0.079437,1.009007,0.001683,  36.342
   299.8,0.123415,0.079373,1.007699,0.001696,  36.343
   300.0,0.123305,0.079295,1.006686,0.001647,  36.348
   300.2,0.123166,0.079228,1.005670,0.001656,  36.351
   300.4,0.123054,0.079169,1.004783,0.001656,  36.344
   300.6,0.122945,0.079114,1.003766,0.001656,  36.341
   300.8,0.122846,0.079045,1.002677,0.001669,  36.344
   301.0,0.122737,0.078980,1.001528,0.001656,  36.339
   301.2,0.122632,0.078916,1.000650,0.001634,  36.342
   301.4,0.122529,0.078871,0.999841,0.001669,  36.340
   301.6,0.122438,0.078831,0.999096,0.001656,  36.341
   301.8,0.122360,0.078807,0.998306,0.001669,  36.337
   302.0,0.122293,0.078790,0.997529,0.001634,  36.339
   302.2,0.122181,0.078721,0.996832,0.001656,  36.342
   302.4,0.122065,0.078636,0.996018,0.001669,  36.337
   302.6,0.121938,0.078543,0.995134,0.001634,  36.337
   302.8,0.121801,0.078458,0.994179,0.001669,  36.345
   303.0,0.121671,0.078382,0.993137,0.001647,  36.343
   303.2,0.121541,0.078301,0.992198,0.001634,  36.342
   303.4,0.121397,0.078216,0.991154,0.001634,  36.344
   303.6,0.121257,0.078123,0.990056,0.001647,  36.346
   303.8,0.121112,0.078035,0.989251,0.001634,  36.341
   304.0,0.120996,0.077943,0.988518,0.001656,  36.344
   304.2,0.120881,0.077845,0.987782,0.001669,  36.345
   304.4,0.120791,0.077750,0.986859,0.001634,  36.347
   304.6,0.120707,0.077663,0.985817,0.001656,  36.343
   304.8,0.120591,0.077580,0.984661,0.001669,  36.348
   305.0,0.120468,0.077509,0.983504,0.001620,  36.344
   305.2,0.120329,0.077435,0.982229,0.001642,  36.348
   305.4,0.120204,0.077362,0.980963,0.001642,  36.348
   305.6,0.120084,0.077300,0.979701,0.001607,  36.350
   305.8,0.119962,0.077227,0.978269,0.001629,  36.356
   306.0,0.119830,0.077149,0.976853,0.001629,  36.352
   306.2,0.119707,0.077066,0.975495,0.001594,  36.351
   306.4,0.119567,0.076986,0.974195,0.001616,  36.353
   306.6,0.119438,0.076908,0.972782,0.001616,  36.352
   306.8,0.119323,0.076825,0.971543,0.001580,  36.353
   307.0,0.119207,0.076740,0.970366,0.001616,  36.354
   307.2,0.119086,0.076655,0.969240,0.001616,  36.359
   307.4,0.118971,0.076569,0.968297,0.001580,  36.368
   307.6,0.118855,0.076484,0.967419,0.001616,  36.370
   307.8,0.118716,0.076397,0.966665,0.001616,  36.367
   308.0,0.118580,0.076314,0.965669,0.001616,  36.375
   308.2,0.118439,0.076224,0.964445,0.001616,  36.370
   308.4,0.118287,0.076132,0.963114,0.001616,  36.373
   308.6,0.118140,0.076033,0.961897,0.001580,  36.372
   308.8,0.118000,0.075955,0.960688,0.001602,  36.375
   309.0,0.117841,0.075889,0.959437,0.001602,  36.376
   309.2,0.117684,0.075819,0.958360,0.001602,  36.377
   309.4,0.117530,0.075769,0.957411,0.001580,  36.378
   309.6,0.117378,0.075684,0.956520,0.001616,  36.378
   309.8,0.117235,0.075590,0.955703,0.001616,  36.380
   310.0,0.117102,0.075493,0.954738,0.001580,  36.383
   310.2,0.116946,0.075395,0.953656,0.001616,  36.383
   310.4,0.116794,0.075291,0.952566,0.001616,  36.382
   310.6,0.116637,0.075184,0.951389,0.001567,  36.385
   310.8,0.116488,0.075093,0.950109,0.001589,  36.386
   311.0,0.116362,0.075003,0.948671,0.001589,  36.381
   311.2,0.116237,0.074926,0.947382,0.001553,  36.382
   311.4,0.116132,0.074862,0.946097,0.001589,  36.382
   311.6,0.116025,0.074802,0.944816,0.001575,  36.379
   311.8,0.115945,0.074748,0.943588,0.001540,  36.387
   312.0,0.115859,0.074659,0.942369,0.001575,  36.388
   312.2,0.115710,0.074550,0.941153,0.001562,  36.391
   312.4,0.115557,0.074423,0.939298,0.001527,  36.388
   312.6,0.115384,0.074317,0.937073,0.001562,  36.386
   312.8,0.115218,0.074216,0.934491,0.001575,  36.385
   313.0,0.115069,0.074120,0.933009,0.001540,  36.383
   313.2,0.114913,0.074024,0.931883,0.001562,  36.387
   313.4,0.114755,0.073930,0.931111,0.001575,  36.380
   313.6,0.114612,0.073843,0.930571,0.001540,  36.384
   313.8,0.114471,0.073754,0.930249,0.001562,  36.384
   314.0,0.114326,0.073663,0.930200,0.001575,  36.380
   314.2,0.114187,0.073585,0.929256,0.001540,  36.380
   314.4,0.114046,0.073482,0.927901,0.001562,  36.385
   314.6,0.113887,0.073372,0.926297,0.001562,  36.381
   314.8,0.113718,0.073254,0.924967,0.001562,  36.386
   315.0,0.113545,0.073142,0.923500,0.001575,  36.384
   315.2,0.113366,0.073027,0.922049,0.001575,  36.379
   315.4,0.113170,0.072912,0.920608,0.001540,  36.381
   315.6,0.112983,0.072811,0.919016,0.001575,  36.383
   315.8,0.112794,0.072722,0.917395,0.001562,  36.386
   316.0,0.112612,0.072633,0.916049,0.001575,  36.382
   316.2,0.112426,0.072551,0.914878,0.001540,  36.380
   316.4,0.112241,0.072443,0.913824,0.001575,  36.383
   316.6,0.112065,0.072338,0.912892,0.001575,  36.376
   316.8,0.111880,0.072224,0.911740,0.001540,  36.376
   317.0,0.111722,0.072121,0.910553,0.001575,  36.382
   317.2,0.111577,0.072016,0.909375,0.001553,  36.379
   317.4,0.111446,0.071929,0.907962,0.001567,  36.379
   317.6,0.111271,0.071817,0.906530,0.001567,  36.376
   317.8,0.111076,0.071698,0.904912,0.001531,  36.380
   318.0,0.110884,0.071572,0.903379,0.001567,  36.378
   318.2,0.110723,0.071451,0.901851,0.001540,  36.383
   318.4,0.110579,0.071336,0.900234,0.001491,  36.380
   318.6,0.110449,0.071212,0.898860,0.001527,  36.382
   318.8,0.110335,0.071096,0.897539,0.001540,  36.379
   319.0,0.110168,0.070991,0.896271,0.001504,  36.381
   319.2,0.109990,0.070886,0.894745,0.001540,  36.378
   319.4,0.109798,0.070781,0.893099,0.001540,  36.383
   319.6,0.109631,0.070679,0.891390,0.001504,  36.384
   319.8,0.109470,0.070578,0.890027,0.001540,  36.382
   320.0,0.109310,0.070466,0.888705,0.001527,  36.380
   320.2,0.109135,0.070356,0.887533,0.001504,  36.376
   320.4,0.108945,0.070238,0.886085,0.001540,  36.381
   320.6,0.108754,0.070112,0.884456,0.001527,  36.375
   320.8,0.108563,0.069981,0.882796,0.001527,  36.378
   321.0,0.108355,0.069852,0.881407,0.001500,  36.378
   321.2,0.108157,0.069727,0.880058,0.001495,  36.374
   321.4,0.107963,0.069601,0.878761,0.001517,  36.378
   321.6,0.107763,0.069485,0.877337,0.001482,  36.377
   321.8,0.107575,0.069364,0.875917,0.001530,  36.373
   322.0,0.107385,0.069241,0.874414,0.001508,  36.372
   322.2,0.107192,0.069120,0.872946,0.001486,  36.375
   322.4,0.107011,0.069016,0.871484,0.001522,  36.376
   322.6,0.106831,0.068930,0.870031,0.001522,  36.374
   322.8,0.106648,0.068839,0.868774,0.001535,  36.373
   323.0,0.106478,0.068767,0.867572,0.001486,  36.374
   323.2,0.106322,0.068674,0.866419,0.001522,  36.374
   323.4,0.106173,0.068572,0.865372,0.001500,  36.378
   323.6,0.106037,0.068475,0.863916,0.001500,  36.373
   323.8,0.105857,0.068364,0.862287,0.001513,  36.377
   324.0,0.105661,0.068239,0.860534,0.001513,  36.380
   324.2,0.105447,0.068118,0.858998,0.001486,  36.382
   324.4,0.105275,0.067986,0.857507,0.001482,  36.386
   324.6,0.105122,0.067845,0.856016,0.001482,  36.384
   324.8,0.104967,0.067703,0.854496,0.001460,  36.382
   325.0,0.104831,0.067571,0.852897,0.001495,  36.382
   325.2,0.104646,0.067441,0.851266,0.001495,  36.378
   325.4,0.104457,0.067323,0.849768,0.001473,  36.379
   325.6,0.104257,0.067207,0.848231,0.001508,  36.381
   325.8,0.104085,0.067101,0.846754,0.001508,  36.377
   326.0,0.103913,0.066999,0.845524,0.001486,  36.383
   326.2,0.103758,0.066886,0.844473,0.001508,  36.378
   326.4,0.103583,0.066771,0.843549,0.001508,  36.379
   326.6,0.103394,0.066655,0.842094,0.001473,  36.379
   326.8,0.103209,0.066528,0.840470,0.001495,  36.379
   327.0,0.103010,0.066404,0.838712,0.001495,  36.382
   327.2,0.102795,0.066272,0.837100,0.001460,  36.379
   327.4,0.102580,0.066136,0.835339,0.001495,  36.376
   327.6,0.102361,0.065986,0.833586,0.001495,  36.385
   327.8,0.102136,0.065841,0.832046,0.001495,  36.386
   328.0,0.101905,0.065698,0.830555,0.001508,  36.381
   328.2,0.101690,0.065555,0.829158,0.001495,  36.381
   328.4,0.101469,0.065412,0.827724,0.001473,  36.379
   328.6,0.101254,0.065276,0.826300,0.001508,  36.380
   328.8,0.101046,0.065143,0.824922,0.001495,  36.380
   329.0,0.100839,0.065009,0.823454,0.001495,  36.378
   329.2,0.100641,0.064908,0.821862,0.001460,  36.380
   329.4,0.100450,0.064816,0.820233,0.001495,  36.377
   329.6,0.100266,0.064747,0.818710,0.001495,  36.381
   329.8,0.100089,0.064687,0.817274,0.001495,  36.380
   330.0,0.099882,0.064561,0.815807,0.001517,  36.383
   330.2,0.099661,0.064420,0.814397,0.001517,  36.384
   330.4,0.099424,0.064259,0.812767,0.001495,  36.384
   330.6,0.099210,0.064124,0.810969,0.001482,  36.384
   330.8,0.099004,0.063991,0.809144,0.001482,  36.383
   331.0,0.098797,0.063865,0.807413,0.001446,  36.382
   331.2,0.098584,0.063727,0.805733,0.001468,  36.376
   331.4,0.098374,0.063585,0.804032,0.001468,  36.382
   331.6,0.098164,0.063443,0.802746,0.001433,  36.382
   331.8,0.097991,0.063319,0.801618,0.001468,  36.380
   332.0,0.097841,0.063204,0.800680,0.001468,  36.379
   332.2,0.097705,0.063106,0.799105,0.001433,  36.379
   332.4,0.097594,0.062973,0.797278,0.001468,  36.376
   332.6,0.097402,0.062837,0.795201,0.001468,  36.381
   332.8,0.097202,0.062688,0.793491,0.001433,  36.376
   333.0,0.096980,0.062547,0.791844,0.001468,  36.375
   333.2,0.096771,0.062405,0.790263,0.001468,  36.379
   333.4,0.096562,0.062270,0.788516,0.001433,  36.376
   333.6,0.096350,0.062130,0.786645,0.001468,  36.376
   333.8,0.096134,0.061993,0.784695,0.001455,  36.377
   334.0,0.095919,0.061856,0.783004,0.001419,  36.372
   334.2,0.095701,0.061717,0.781406,0.001455,  36.376
   334.4,0.095489,0.061580,0.779900,0.001441,  36.375
   334.6,0.095277,0.061443,0.778275,0.001406,  36.376
   334.8,0.095059,0.061311,0.776609,0.001455,  36.375
   335.0,0.094861,0.061185,0.774974,0.001455,  36.374
   335.2,0.094669,0.061062,0.773288,0.001455,  36.371
   335.4,0.094481,0.060957,0.771556,0.001455,  36.372
   335.6,0.094326,0.060871,0.769800,0.001455,  36.378
   335.8,0.094187,0.060798,0.768108,0.001419,  36.373
   336.0,0.094062,0.060695,0.766354,0.001441,  36.376
   336.2,0.093858,0.060597,0.764645,0.001428,  36.379
   336.4,0.093621,0.060481,0.763036,0.001441,  36.384
   336.6,0.093351,0.060372,0.761492,0.001379,  36.386
   336.8,0.093114,0.060235,0.759959,0.001401,  36.382
   337.0,0.092880,0.060090,0.758489,0.001415,  36.381
   337.2,0.092647,0.059933,0.756937,0.001366,  36.379
   337.4,0.092430,0.059789,0.755334,0.001401,  36.373
   337.6,0.092226,0.059657,0.753739,0.001401,  36.374
   337.8,0.092029,0.059523,0.752328,0.001366,  36.375
   338.0,0.091842,0.059394,0.751034,0.001388,  36.373
   338.2,0.091656,0.059278,0.749819,0.001401,  36.374
   338.4,0.091482,0.059167,0.748478,0.001366,  36.370
   338.6,0.091315,0.059035,0.747153,0.001401,  36.372
   338.8,0.091151,0.058899,0.745807,0.001415,  36.370
   339.0,0.091004,0.058763,0.744072,0.001379,  36.367
   339.2,0.090866,0.058620,0.742142,0.001415,  36.371
   339.4,0.090647,0.058477,0.739912,0.001428,  36.369
   339.6,0.090418,0.058327,0.738144,0.001392,  36.369
   339.8,0.090160,0.058173,0.736515,0.001415,  36.369
   340.0,0.089924,0.058028,0.734949,0.001428,  36.367
   340.2,0.089689,0.057881,0.733320,0.001392,  36.370
   340.4,0.089454,0.057725,0.731741,0.001415,  36.367
   340.6,0.089220,0.057574,0.730156,0.001428,  36.367
   340.8,0.088985,0.057424,0.728606,0.001392,  36.366
   341.0,0.088747,0.057282,0.727050,0.001415,  36.370
   341.2,0.088539,0.057148,0.725495,0.001392,  36.367
   341.4,0.088327,0.057022,0.723851,0.001392,  36.369
   341.6,0.088132,0.056882,0.722146,0.001392,  36.367
   341.8,0.087921,0.056744,0.720389,0.001357,  36.367
   342.0,0.087700,0.056606,0.718490,0.001370,  36.365
   342.2,0.087482,0.056469,0.716508,0.001344,  36.368
   342.4,0.087271,0.056338,0.714454,0.001366,  36.375
   342.6,0.087054,0.056205,0.712554,0.001366,  36.372
   342.8,0.086853,0.056072,0.710653,0.001366,  36.372
   343.0,0.086635,0.055937,0.708823,0.001366,  36.369
   343.2,0.086412,0.055801,0.706801,0.001366,  36.369
   343.4,0.086185,0.055682,0.704678,0.001352,  36.373
   343.6,0.085975,0.055567,0.702436,0.001374,  36.372
   343.8,0.085771,0.055459,0.701010,0.001339,  36.374
   344.0,0.085570,0.055365,0.699863,0.001352,  36.376
   344.2,0.085354,0.055232,0.699089,0.001352,  36.369
   344.4,0.085137,0.055088,0.698617,0.001317,  36.371
   344.6,0.084911,0.054939,0.697215,0.001366,  36.371
   344.8,0.084695,0.054798,0.695621,0.001352,  36.378
   345.0,0.084479,0.054661,0.693816,0.001317,  36.375
   345.2,0.084263,0.054524,0.692112,0.001366,  36.381
   345.4,0.084047,0.054384,0.690365,0.001352,  36.378
   345.6,0.083821,0.054248,0.688493,0.001317,  36.380
   345.8,0.083593,0.054106,0.686694,0.001366,  36.381
   346.0,0.083406,0.053962,0.684872,0.001352,  36.382
   346.2,0.083226,0.053826,0.683052,0.001317,  36.379
   346.4,0.083081,0.053684,0.681494,0.001366,  36.380
   346.6,0.082943,0.053543,0.680061,0.001352,  36.380
   346.8,0.082737,0.053402,0.678711,0.001317,  36.378
   347.0,0.082522,0.053265,0.677114,0.001366,  36.382
   347.2,0.082294,0.053133,0.675444,0.001352,  36.383
   347.4,0.082092,0.053003,0.673609,0.001317,  36.384
   347.6,0.081906,0.052880,0.671835,0.001366,  36.386
   347.8,0.081727,0.052771,0.670085,0.001352,  36.382
   348.0,0.081538,0.052677,0.668248,0.001317,  36.385
   348.2,0.081355,0.052587,0.666467,0.001352,  36.386
   348.4,0.081176,0.052444,0.664669,0.001339,  36.389
   348.6,0.080958,0.052290,0.662874,0.001303,  36.391
   348.8,0.080725,0.052116,0.661195,0.001325,  36.399
   349.0,0.080476,0.051971,0.659528,0.001312,  36.396
   349.2,0.080255,0.051828,0.657895,0.001312,  36.392
   349.4,0.080044,0.051700,0.656189,0.001290,  36.390
   349.6,0.079843,0.051564,0.654462,0.001312,  36.393
   349.8,0.079633,0.051424,0.652701,0.001325,  36.391
   350.0,0.079419,0.051288,0.651448,0.001339,  36.393
   350.2,0.079206,0.051181,0.650438,0.001325,  36.392
   350.4,0.079008,0.051085,0.649654,0.001325,  36.389
   350.6,0.078814,0.051002,0.648442,0.001290,  36.384
   350.8,0.078623,0.050940,0.647079,0.001339,  36.391
   351.0,0.078416,0.050815,0.645670,0.001325,  36.391
   351.2,0.078203,0.050679,0.644122,0.001290,  36.389
   351.4,0.077981,0.050530,0.642497,0.001303,  36.393
   351.6,0.077752,0.050383,0.640709,0.001303,  36.391
   351.8,0.077517,0.050239,0.638824,0.001268,  36.392
   352.0,0.077273,0.050083,0.637056,0.001281,  36.395
   352.2,0.077048,0.049932,0.635289,0.001281,  36.392
   352.4,0.076816,0.049783,0.633541,0.001246,  36.392
   352.6,0.076582,0.049632,0.631955,0.001281,  36.391
   352.8,0.076389,0.049478,0.630476,0.001303,  36.394
   353.0,0.076208,0.049332,0.629067,0.001268,  36.394
   353.2,0.076063,0.049185,0.627265,0.001303,  36.397
   353.4,0.075924,0.049052,0.625270,0.001325,  36.395
   353.6,0.075737,0.048933,0.623075,0.001290,  36.396
   353.8,0.075547,0.048817,0.621338,0.001325,  36.396
   354.0,0.075355,0.048680,0.619686,0.001312,  36.399
   354.2,0.075137,0.048531,0.618147,0.001277,  36.400
   354.4,0.074913,0.048383,0.616388,0.001312,  36.401
   354.6,0.074676,0.048243,0.614584,0.001312,  36.404
   354.8,0.074453,0.048102,0.612690,0.001277,  36.402
   355.0,0.074235,0.047967,0.610911,0.001312,  36.401
   355.2,0.074027,0.047834,0.609126,0.001312,  36.401
   355.4,0.073816,0.047697,0.607347,0.001277,  36.401
   355.6,0.073602,0.047566,0.605722,0.001312,  36.395
   355.8,0.073389,0.047443,0.604129,0.001312,  36.402
   356.0,0.073191,0.047312,0.602585,0.001312,  36.396
   356.2,0.072993,0.047193,0.601022,0.001277,  36.401
   356.4,0.072798,0.047059,0.599434,0.001312,  36.401
   356.6,0.072594,0.046922,0.597847,0.001312,  36.398
   356.8,0.072378,0.046778,0.596202,0.001312,  36.402
   357.0,0.072145,0.046659,0.594500,0.001312,  36.401
   357.2,0.071926,0.046551,0.592761,0.001312,  36.398
   357.4,0.071713,0.046454,0.591292,0.001277,  36.402
   357.6,0.071500,0.046372,0.589950,0.001312,  36.403
   357.8,0.071275,0.046240,0.588704,0.001312,  36.400
   358.0,0.071059,0.046099,0.587593,0.001277,  36.405
   358.2,0.070843,0.045947,0.586099,0.001312,  36.399
   358.4,0.070628,0.045808,0.584490,0.001312,  36.400
   358.6,0.070419,0.045670,0.582820,0.001263,  36.404
   358.8,0.070213,0.045533,0.581122,0.001299,  36.399
   359.0,0.069997,0.045397,0.579383,0.001299,  36.401
   359.2,0.069788,0.045258,0.577603,0.001250,  36.403
   359.4,0.069583,0.045126,0.575897,0.001285,  36.400
   359.6,0.069424,0.045008,0.574225,0.001299,  36.401
   359.8,0.069296,0.044900,0.572589,0.001263,  36.400
   360.0,0.069190,0.044801,0.570937,0.001299,  36.403
   360.2,0.069109,0.044674,0.569269,0.001299,  36.399
   360.4,0.068913,0.044549,0.567577,0.001263,  36.405
   360.6,0.068698,0.044422,0.565892,0.001285,  36.408
   360.8,0.068453,0.044283,0.564183,0.001272,  36.411
   361.0,0.068235,0.044141,0.562468,0.001250,  36.413
   361.2,0.068018,0.044001,0.560825,0.001272,  36.415
   361.4,0.067798,0.043865,0.559188,0.001272,  36.406
   361.6,0.067593,0.043733,0.557574,0.001250,  36.409
   361.8,0.067391,0.043608,0.556022,0.001285,  36.411
   362.0,0.067193,0.043486,0.554481,0.001285,  36.408
   362.2,0.067013,0.043367,0.552974,0.001263,  36.408
   362.4,0.066837,0.043256,0.551645,0.001299,  36.412
   362.6,0.066672,0.043136,0.550414,0.001285,  36.412
   362.8,0.066484,0.043015,0.549281,0.001285,  36.416
   363.0,0.066283,0.042893,0.547748,0.001250,  36.414
   363.2,0.066072,0.042762,0.546049,0.001285,  36.414
   363.4,0.065868,0.042628,0.544199,0.001285,  36.416
   363.6,0.065664,0.042488,0.542415,0.001299,  36.420
   363.8,0.065458,0.042366,0.540618,0.001285,  36.416
   364.0,0.065238,0.042252,0.538801,0.001285,  36.417
   364.2,0.065013,0.042148,0.537402,0.001263,  36.419
   364.4,0.064779,0.042050,0.536227,0.001285,  36.418
   364.6,0.064560,0.041919,0.535217,0.001272,  36.419
   364.8,0.064348,0.041779,0.534406,0.001250,  36.419
   365.0,0.064138,0.041631,0.533052,0.001272,  36.416
   365.2,0.063938,0.041498,0.531629,0.001272,  36.416
   365.4,0.063735,0.041365,0.530125,0.001272,  36.418
   365.6,0.063536,0.041239,0.528588,0.001245,  36.418
   365.8,0.063342,0.041117,0.526973,0.001254,  36.420
   366.0,0.063155,0.040997,0.525301,0.001254,  36.416
   366.2,0.062964,0.040883,0.523614,0.001232,  36.421
   366.4,0.062793,0.040757,0.521912,0.001267,  36.421
   366.6,0.062621,0.040624,0.520181,0.001267,  36.426
   366.8,0.062477,0.040485,0.518452,0.001245,  36.427
   367.0,0.062327,0.040349,0.516735,0.001267,  36.421
   367.2,0.062140,0.040218,0.515019,0.001245,  36.424
   367.4,0.061941,0.040081,0.513331,0.001245,  36.424
   367.6,0.061736,0.039950,0.511626,0.001245,  36.425
   367.8,0.061534,0.039824,0.509919,0.001223,  36.420
   368.0,0.061335,0.039699,0.508474,0.001245,  36.423
   368.2,0.061136,0.039576,0.507163,0.001245,  36.418
   368.4,0.060947,0.039459,0.505946,0.001223,  36.422
   368.6,0.060763,0.039348,0.504427,0.001245,  36.422
   368.8,0.060580,0.039227,0.502853,0.001245,  36.424
   369.0,0.060394,0.039103,0.501179,0.001223,  36.423
   369.2,0.060202,0.038982,0.499518,0.001245,  36.424
   369.4,0.060016,0.038850,0.497848,0.001245,  36.423
   369.6,0.059812,0.038713,0.496177,0.001245,  36.426
   369.8,0.059604,0.038574,0.494598,0.001210,  36.427
   370.0,0.059398,0.038442,0.493044,0.001258,  36.427
   370.2,0.059190,0.038316,0.491541,0.001245,  36.427
   370.4,0.058996,0.038199,0.490086,0.001258,  36.429
   370.6,0.058808,0.038091,0.488617,0.001258,  36.441
   370.8,0.058607,0.037987,0.487189,0.001258,  36.439
   371.0,0.058413,0.037896,0.485927,0.001236,  36.440
   371.2,0.058215,0.037816,0.484745,0.001272,  36.446
   371.4,0.058024,0.037708,0.483681,0.001258,  36.442
   371.6,0.057851,0.037593,0.482702,0.001236,  36.445
   371.8,0.057675,0.037468,0.481225,0.001258,  36.446
   372.0,0.057520,0.037369,0.479565,0.001245,  36.445
   372.2,0.057393,0.037284,0.477779,0.001210,  36.449
   372.4,0.057275,0.037207,0.475906,0.001232,  36.446
   372.6,0.057087,0.037086,0.473905,0.001205,  36.452
   372.8,0.056885,0.036954,0.471770,0.001169,  36.456
   373.0,0.056652,0.036808,0.470141,0.001205,  36.456
   373.2,0.056467,0.036674,0.468725,0.001191,  36.462
   373.4,0.056313,0.036547,0.467495,0.001156,  36.456
   373.6,0.056155,0.036424,0.466037,0.001205,  36.458
   373.8,0.056029,0.036297,0.464601,0.001205,  36.460
   374.0,0.055854,0.036176,0.463174,0.001169,  36.460
   374.2,0.055679,0.036065,0.461830,0.001218,  36.460
   374.4,0.055486,0.035955,0.460549,0.001205,  36.455
   374.6,0.055314,0.035848,0.459312,0.001169,  36.459
   374.8,0.055163,0.035755,0.458102,0.001218,  36.460
   375.0,0.055012,0.035650,0.456915,0.001205,  36.457
   375.2,0.054843,0.035536,0.455768,0.001169,  36.458
   375.4,0.054681,0.035424,0.454371,0.001218,  36.458
   375.6,0.054506,0.035310,0.452818,0.001205,  36.456
   375.8,0.054317,0.035187,0.451162,0.001169,  36.458
   376.0,0.054121,0.035067,0.449679,0.001218,  36.455
   376.2,0.053920,0.034945,0.448202,0.001205,  36.455
   376.4,0.053715,0.034810,0.446752,0.001205,  36.461
   376.6,0.053514,0.034679,0.445376,0.001169,  36.457
   376.8,0.053313,0.034551,0.444058,0.001205,  36.459
   377.0,0.053112,0.034426,0.442783,0.001205,  36.460
   377.2,0.052917,0.034301,0.441396,0.001205,  36.463
   377.4,0.052728,0.034183,0.439968,0.001205,  36.458
   377.6,0.052545,0.034071,0.438498,0.001205,  36.462
   377.8,0.052377,0.033966,0.437137,0.001169,  36.460
   378.0,0.052219,0.033870,0.435780,0.001218,  36.461
   378.2,0.052033,0.033777,0.434461,0.001205,  36.460
   378.4,0.051850,0.033694,0.433185,0.001169,  36.457
   378.6,0.051668,0.033621,0.431919,0.001218,  36.459
   378.8,0.051479,0.033512,0.430702,0.001205,  36.460
   379.0,0.051294,0.033395,0.429499,0.001169,  36.463
   379.2,0.051112,0.033267,0.428048,0.001218,  36.461
   379.4,0.050927,0.033154,0.426534,0.001205,  36.458
   379.6,0.050754,0.033039,0.424921,0.001169,  36.457
   379.8,0.050581,0.032932,0.423435,0.001183,  36.458
   380.0,0.050399,0.032819,0.421943,0.001169,  36.460
   380.2,0.050223,0.032698,0.420457,0.001134,  36.458
   380.4,0.050050,0.032578,0.419139,0.001183,  36.460
   380.6,0.049901,0.032467,0.417886,0.001205,  36.458
   380.8,0.049764,0.032356,0.416707,0.001169,  36.457
   381.0,0.049642,0.032259,0.415336,0.001218,  36.459
   381.2,0.049535,0.032152,0.413872,0.001205,  36.458
   381.4,0.049375,0.032035,0.412348,0.001169,  36.460
   381.6,0.049211,0.031927,0.410926,0.001218,  36.459
   381.8,0.049024,0.031818,0.409509,0.001205,  36.460
   382.0,0.048848,0.031711,0.408112,0.001191,  36.461
   382.2,0.048691,0.031604,0.406672,0.001191,  36.458
   382.4,0.048525,0.031493,0.405210,0.001214,  36.458
   382.6,0.048341,0.031380,0.403738,0.001200,  36.462
   382.8,0.048166,0.031267,0.402433,0.001165,  36.464
   383.0,0.047979,0.031154,0.401174,0.001214,  36.463
   383.2,0.047798,0.031042,0.400013,0.001227,  36.458
   383.4,0.047635,0.030927,0.398683,0.001191,  36.460
   383.6,0.047469,0.030820,0.397254,0.001227,  36.461
   383.8,0.047309,0.030720,0.395793,0.001227,  36.462
   384.0,0.047164,0.030623,0.394440,0.001227,  36.466
   384.2,0.047017,0.030536,0.393091,0.001240,  36.468
   384.4,0.046865,0.030453,0.391756,0.001227,  36.463
   384.6,0.046724,0.030377,0.390369,0.001191,  36.464
   384.8,0.046576,0.030295,0.388951,0.001227,  36.464
   385.0,0.046404,0.030205,0.387493,0.001227,  36.466
   385.2,0.046233,0.030122,0.386202,0.001214,  36.463
   385.4,0.046048,0.030028,0.384997,0.001178,  36.469
   385.6,0.045870,0.029917,0.383852,0.001214,  36.462
   385.8,0.045702,0.029805,0.382776,0.001178,  36.462
   386.0,0.045540,0.029686,0.381612,0.001178,  36.463
   386.2,0.045369,0.029582,0.380441,0.001191,  36.459
   386.4,0.045207,0.029478,0.379275,0.001169,  36.461
   386.6,0.045054,0.029376,0.378354,0.001183,  36.463
   386.8,0.044922,0.029279,0.377581,0.001169,  36.459
   387.0,0.044807,0.029186,0.376929,0.001134,  36.461
   387.2,0.044701,0.029099,0.375742,0.001134,  36.461
   387.4,0.044613,0.029002,0.374349,0.001156,  36.462
   387.6,0.044468,0.028896,0.372760,0.001120,  36.454
   387.8,0.044322,0.028796,0.371446,0.001120,  36.462
   388.0,0.044157,0.028688,0.370129,0.001156,  36.459
   388.2,0.043992,0.028576,0.368826,0.001107,  36.455
   388.4,0.043831,0.028464,0.367410,0.001107,  36.454
   388.6,0.043658,0.028357,0.365944,0.001143,  36.453
   388.8,0.043487,0.028249,0.364418,0.001094,  36.457
   389.0,0.043317,0.028141,0.363211,0.001094,  36.456
   389.2,0.043147,0.028033,0.362136,0.001143,  36.454
   389.4,0.042974,0.027921,0.361194,0.001107,  36.453
   389.6,0.042804,0.027804,0.360042,0.001107,  36.452
   389.8,0.042634,0.027704,0.358799,0.001143,  36.452
   390.0,0.042479,0.027620,0.357522,0.001107,  36.453
   390.2,0.042338,0.027536,0.356240,0.001107,  36.448
   390.4,0.042210,0.027428,0.354916,0.001143,  36.443
   390.6,0.042042,0.027322,0.353554,0.001143,  36.446
   390.8,0.041876,0.027209,0.352250,0.001129,  36.449
   391.0,0.041704,0.027103,0.350964,0.001143,  36.450
   391.2,0.041534,0.027000,0.349676,0.001129,  36.447
   391.4,0.041373,0.026896,0.348350,0.001143,  36.446
   391.6,0.041219,0.026810,0.346983,0.001129,  36.442
   391.8,0.041055,0.026727,0.345601,0.001129,  36.445
   392.0,0.040900,0.026660,0.344417,0.001107,  36.446
   392.2,0.040746,0.026595,0.343297,0.001143,  36.442
   392.4,0.040601,0.026504,0.342276,0.001165,  36.440
   392.6,0.040458,0.026414,0.341319,0.001143,  36.439
   392.8,0.040330,0.026316,0.340166,0.001165,  36.439
   393.0,0.040182,0.026221,0.338970,0.001138,  36.437
   393.2,0.040021,0.026124,0.337761,0.001138,  36.441
   393.4,0.039870,0.026027,0.336596,0.001125,  36.435
   393.6,0.039719,0.025932,0.335455,0.001120,  36.437
   393.8,0.039562,0.025835,0.334304,0.001098,  36.436
   394.0,0.039420,0.025743,0.333134,0.001111,  36.436
   394.2,0.039292,0.025647,0.331952,0.001125,  36.435
   394.4,0.039169,0.025548,0.330764,0.001102,  36.432
   394.6,0.039068,0.025453,0.329588,0.001138,  36.434
   394.8,0.038969,0.025359,0.328418,0.001138,  36.430
   395.0,0.038836,0.025263,0.327243,0.001116,  36.434
   395.2,0.038694,0.025172,0.325710,0.001151,  36.431
   395.4,0.038537,0.025075,0.323990,0.001138,  36.433
   395.6,0.038392,0.024983,0.322089,0.001116,  36.431
   395.8,0.038247,0.024886,0.320818,0.001151,  36.431
   396.0,0.038102,0.024796,0.319758,0.001138,  36.429
   396.2,0.037975,0.024716,0.318929,0.001116,  36.429
   396.4,0.037850,0.024641,0.317934,0.001151,  36.427
   396.6,0.037737,0.024553,0.316949,0.001138,  36.423
   396.8,0.037601,0.024469,0.315994,0.001116,  36.426
   397.0,0.037447,0.024387,0.314918,0.001116,  36.431
   397.2,0.037297,0.024293,0.313791,0.001102,  36.428
   397.4,0.037143,0.024194,0.312614,0.001102,  36.433
   397.6,0.036996,0.024100,0.311519,0.001116,  36.436
   397.8,0.036848,0.024001,0.310437,0.001102,  36.430
   398.0,0.036700,0.023911,0.309358,0.001102,  36.425
   398.2,0.036568,0.023821,0.308309,0.001102,  36.429
   398.4,0.036432,0.023741,0.307249,0.001102,  36.427
   398.6,0.036302,0.023669,0.306210,0.001089,  36.422
   398.8,0.036172,0.023613,0.305191,0.001054,  36.428
   399.0,0.036052,0.023561,0.304181,0.001089,  36.428
   399.2,0.035919,0.023481,0.303202,0.001111,  36.424
   399.4,0.035792,0.023404,0.302208,0.001076,  36.428
   399.6,0.035662,0.023325,0.301187,0.001125,  36.428
   399.8,0.035527,0.023244,0.300143,0.001111,  36.429
   400.0,0.035391,0.023158,0.299075,0.001076,  36.425
   400.2,0.035256,0.023068,0.298093,0.001125,  36.427
   400.4,0.035115,0.022983,0.297149,0.001111,  36.423
   400.6,0.034965,0.022889,0.296214,0.001076,  36.428
   400.8,0.034825,0.022788,0.295241,0.001125,  36.422
   401.0,0.034704,0.022697,0.294250,0.001111,  36.425
   401.2,0.034586,0.022605,0.293234,0.001076,  36.423
   401.4,0.034488,0.022513,0.292258,0.001125,  36.418
   401.6,0.034396,0.022425,0.291307,0.001111,  36.420
   401.8,0.034276,0.022336,0.290352,0.001076,  36.418
   402.0,0.034146,0.022253,0.289209,0.001125,  36.420
   402.2,0.034011,0.022166,0.287987,0.001111,  36.418
   402.4,0.033879,0.022087,0.286666,0.001076,  36.417
   402.6,0.033741,0.022014,0.285559,0.001125,  36.422
   402.8,0.033615,0.021928,0.284512,0.001111,  36.417
   403.0,0.033481,0.021834,0.283498,0.001076,  36.418
   403.2,0.033340,0.021747,0.282456,0.001111,  36.426
   403.4,0.033208,0.021662,0.281434,0.001098,  36.421
   403.6,0.033077,0.021570,0.280421,0.001062,  36.416
   403.8,0.032939,0.021485,0.279403,0.001098,  36.415
   404.0,0.032810,0.021403,0.278399,0.001098,  36.415
   404.2,0.032681,0.021316,0.277385,0.001098,  36.418
   404.4,0.032543,0.021234,0.276485,0.001062,  36.416
   404.6,0.032424,0.021154,0.275634,0.001098,  36.413
   404.8,0.032301,0.021078,0.274808,0.001098,  36.408
   405.0,0.032172,0.021002,0.273586,0.001111,  36.399
   405.2,0.032055,0.020934,0.272202,0.001111,  36.400
   405.4,0.031932,0.020865,0.270652,0.001111,  36.403
   405.6,0.031800,0.020811,0.269573,0.001076,  36.400
   405.8,0.031675,0.020759,0.268657,0.001111,  36.401
   406.0,0.031549,0.020683,0.267901,0.001098,  36.405
   406.2,0.031415,0.020602,0.267084,0.001062,  36.403
   406.4,0.031290,0.020512,0.266315,0.001098,  36.401
   406.6,0.031167,0.020431,0.265588,0.001098,  36.402
   406.8,0.031035,0.020350,0.264906,0.001062,  36.404
   407.0,0.030916,0.020272,0.264049,0.001111,  36.402
   407.2,0.030794,0.020191,0.263148,0.001111,  36.402
   407.4,0.030665,0.020108,0.262203,0.001076,  36.400
   407.6,0.030549,0.020026,0.261201,0.001125,  36.402
   407.8,0.030449,0.019949,0.260145,0.001111,  36.403
   408.0,0.030353,0.019870,0.259034,0.001076,  36.402
   408.2,0.030280,0.019801,0.258000,0.001125,  36.402
   408.4,0.030210,0.019741,0.256974,0.001111,  36.400
   408.6,0.030128,0.019685,0.255956,0.001076,  36.403
   408.8,0.030045,0.019633,0.254992,0.001125,  36.406
   409.0,0.029956,0.019552,0.254042,0.001111,  36.406
   409.2,0.029833,0.019468,0.253128,0.001076,  36.412
   409.4,0.029697,0.019373,0.252148,0.001098,  36.416
   409.6,0.029543,0.019285,0.251124,0.001071,  36.429
   409.8,0.029412,0.019205,0.250076,0.001035,  36.428
   410.0,0.029284,0.019128,0.249080,0.001071,  36.422
   410.2,0.029168,0.019049,0.248103,0.001071,  36.419
   410.4,0.029052,0.018974,0.247117,0.001035,  36.422
   410.6,0.028936,0.018902,0.246310,0.001071,  36.423
   410.8,0.028822,0.018829,0.245609,0.001071,  36.426
   411.0,0.028714,0.018760,0.244987,0.001022,  36.423
   411.2,0.028606,0.018692,0.244162,0.001058,  36.428
   411.4,0.028500,0.018620,0.243289,0.001058,  36.428
   411.6,0.028396,0.018545,0.242336,0.001058,  36.426
   411.8,0.028288,0.018477,0.241391,0.001022,  36.426
   412.0,0.028184,0.018405,0.240431,0.001071,  36.424
   412.2,0.028073,0.018330,0.239424,0.001058,  36.424
   412.4,0.027951,0.018257,0.238468,0.001071,  36.423
   412.6,0.027838,0.018195,0.237504,0.001071,  36.424
   412.8,0.027719,0.018131,0.236553,0.001058,  36.423
   413.0,0.027591,0.018075,0.235744,0.001022,  36.425
   413.2,0.027468,0.018022,0.234990,0.001058,  36.423
   413.4,0.027349,0.017952,0.234318,0.001058,  36.423
   413.6,0.027224,0.017876,0.233707,0.001035,  36.424
   413.8,0.027114,0.017793,0.232893,0.001035,  36.420
   414.0,0.027010,0.017720,0.232048,0.001035,  36.423
   414.2,0.026899,0.017656,0.231156,0.001013,  36.422
   414.4,0.026809,0.017599,0.230309,0.001013,  36.424
   414.6,0.026705,0.017527,0.229458,0.001035,  36.423
   414.8,0.026588,0.017461,0.228609,0.001000,  36.422
   415.0,0.026485,0.017393,0.227666,0.001000,  36.426
   415.2,0.026389,0.017323,0.226668,0.001035,  36.424
   415.4,0.026298,0.017252,0.225609,0.000987,  36.428
   415.6,0.026225,0.017175,0.224683,0.000987,  36.422
   415.8,0.026148,0.017110,0.223785,0.001022,  36.420
   416.0,0.026050,0.017036,0.222925,0.000973,  36.417
   416.2,0.025943,0.016969,0.222052,0.000973,  36.421
   416.4,0.025824,0.016901,0.221170,0.001022,  36.422
   416.6,0.025720,0.016831,0.220307,0.000987,  36.421
   416.8,0.025619,0.016771,0.219491,0.001022,  36.418
   417.0,0.025514,0.016707,0.218703,0.001044,  36.418
   417.2,0.025413,0.016638,0.217932,0.001022,  36.417
   417.4,0.025312,0.016576,0.217100,0.001058,  36.413
   417.6,0.025213,0.016510,0.216223,0.001044,  36.400
   417.8,0.025115,0.016444,0.215307,0.001022,  36.404
   418.0,0.025016,0.016381,0.214372,0.001058,  36.403
   418.2,0.024912,0.016313,0.213436,0.001044,  36.405
   418.4,0.024808,0.016249,0.212466,0.001044,  36.402
   418.6,0.024711,0.016190,0.211568,0.001009,  36.403
   418.8,0.024610,0.016121,0.210692,0.001044,  36.400
   419.0,0.024509,0.016055,0.209848,0.001044,  36.400
   419.2,0.024402,0.015990,0.209072,0.001058,  36.404
   419.4,0.024301,0.015932,0.208332,0.001044,  36.401
   419.6,0.024203,0.015878,0.207618,0.001044,  36.402
   419.8,0.024099,0.015833,0.206778,0.001058,  36.398
   420.0,0.023998,0.015791,0.205907,0.001044,  36.397
   420.2,0.023905,0.015731,0.204985,0.001053,  36.394
   420.4,0.023816,0.015672,0.204013,0.001066,  36.391
   420.6,0.023732,0.015613,0.203326,0.001031,  36.392
   420.8,0.023645,0.015559,0.202712,0.001066,  36.387
   421.0,0.023561,0.015514,0.202190,0.001044,  36.383
   421.2,0.023477,0.015470,0.201485,0.001009,  36.388
   421.4,0.023384,0.015410,0.200734,0.001009,  36.387
   421.6,0.023277,0.015341,0.199920,0.000987,  36.388
   421.8,0.023168,0.015271,0.199170,0.000973,  36.389
   422.0,0.023082,0.015204,0.198406,0.000995,  36.390
   422.2,0.023001,0.015136,0.197653,0.000973,  36.380
   422.4,0.022932,0.015065,0.196975,0.000960,  36.371
   422.6,0.022869,0.014992,0.196316,0.000995,  36.373
   422.8,0.022783,0.014934,0.195698,0.000973,  36.367
   423.0,0.022690,0.014870,0.195128,0.000960,  36.364
   423.2,0.022586,0.014807,0.194575,0.000982,  36.358
   423.4,0.022495,0.014751,0.194065,0.000960,  36.357
   423.6,0.022409,0.014698,0.193356,0.000960,  36.356
   423.8,0.022328,0.014638,0.192551,0.000982,  36.352
   424.0,0.022238,0.014580,0.191664,0.000960,  36.347
   424.2,0.022148,0.014523,0.190862,0.000960,  36.349
   424.4,0.022059,0.014455,0.190066,0.000982,  36.345
   424.6,0.021960,0.014396,0.189257,0.000960,  36.333
   424.8,0.021863,0.014333,0.188486,0.000946,  36.330
   425.0,0.021759,0.014265,0.187740,0.000968,  36.331
   425.2,0.021656,0.014204,0.187009,0.000946,  36.326
   425.4,0.021552,0.014145,0.186314,0.000968,  36.320
   425.6,0.021457,0.014077,0.185646,0.001004,  36.325
   425.8,0.021363,0.014012,0.185004,0.001004,  36.316
   426.0,0.021265,0.013949,0.184342,0.000982,  36.316
   426.2,0.021174,0.013889,0.183679,0.001004,  36.319
   426.4,0.021090,0.013836,0.183007,0.000991,  36.316
   426.6,0.021009,0.013795,0.182309,0.000991,  36.315
   426.8,0.020934,0.013748,0.181574,0.000977,  36.314
   427.0,0.020848,0.013700,0.180833,0.000977,  36.310
   427.2,0.020756,0.013664,0.180155,0.000977,  36.311
   427.4,0.020664,0.013620,0.179497,0.000964,  36.308
   427.6,0.020578,0.013564,0.178875,0.000986,  36.317
   427.8,0.020489,0.013506,0.178254,0.000986,  36.311
   428.0,0.020402,0.013444,0.177437,0.000950,  36.306
   428.2,0.020319,0.013391,0.176562,0.000986,  36.304
   428.4,0.020233,0.013336,0.175604,0.000973,  36.304
   428.6,0.020146,0.013283,0.174868,0.000937,  36.301
   428.8,0.020066,0.013230,0.174230,0.000973,  36.298
   429.0,0.019985,0.013177,0.173636,0.000973,  36.301
   429.2,0.019905,0.013126,0.172962,0.000937,  36.299
   429.4,0.019824,0.013077,0.172293,0.000986,  36.299
   429.6,0.019737,0.013024,0.171606,0.000999,  36.293
   429.8,0.019657,0.012975,0.170922,0.000977,  36.292
   430.0,0.019587,0.012917,0.170249,0.000999,  36.294
   430.2,0.019526,0.012864,0.169571,0.000999,  36.295
   430.4,0.019468,0.012812,0.168922,0.000977,  36.297
   430.6,0.019415,0.012750,0.168301,0.000999,  36.297
   430.8,0.019340,0.012704,0.167704,0.000964,  36.292
   431.0,0.019257,0.012654,0.166986,0.000977,  36.291
   431.2,0.019168,0.012598,0.166241,0.000964,  36.289
   431.4,0.019088,0.012547,0.165439,0.000928,  36.288
   431.6,0.019001,0.012501,0.164761,0.000977,  36.289
   431.8,0.018924,0.012445,0.164108,0.000964,  36.287
   432.0,0.018844,0.012395,0.163482,0.000928,  36.286
   432.2,0.018763,0.012342,0.162847,0.000977,  36.289
   432.4,0.018689,0.012296,0.162213,0.000964,  36.291
   432.6,0.018617,0.012252,0.161575,0.000928,  36.289
   432.8,0.018548,0.012212,0.160899,0.000977,  36.290
   433.0,0.018484,0.012165,0.160203,0.000964,  36.288
   433.2,0.018415,0.012120,0.159492,0.000964,  36.287
   433.4,0.018337,0.012072,0.158824,0.000928,  36.284
   433.6,0.018257,0.012023,0.158178,0.000950,  36.287
   433.8,0.018182,0.011971,0.157547,0.000950,  36.289
   434.0,0.018107,0.011927,0.156951,0.000950,  36.308
   434.2,0.018027,0.011878,0.156381,0.000950,  36.298
   434.4,0.017955,0.011833,0.155830,0.000950,  36.293
   434.6,0.017883,0.011788,0.155239,0.000915,  36.288
   434.8,0.017809,0.011751,0.154636,0.000950,  36.279
   435.0,0.017740,0.011712,0.154018,0.000950,  36.276
   435.2,0.017670,0.011681,0.153471,0.000915,  36.272
   435.4,0.017601,0.011653,0.152965,0.000950,  36.274
   435.6,0.017535,0.011612,0.152477,0.000950,  36.274
   435.8,0.017469,0.011569,0.152018,0.000915,  36.275
   436.0,0.017400,0.011527,0.151504,0.000928,  36.272
   436.2,0.017330,0.011482,0.150975,0.000942,  36.276
   436.4,0.017259,0.011439,0.150431,0.000928,  36.268
   436.6,0.017184,0.011396,0.149785,0.000915,  36.271
   436.8,0.017119,0.011345,0.149080,0.000959,  36.273
   437.0,0.017041,0.011297,0.148316,0.000973,  36.274
   437.2,0.016967,0.011246,0.147759,0.000937,  36.271
   437.4,0.016909,0.011193,0.147263,0.000986,  36.273
   437.6,0.016854,0.011144,0.146843,0.000999,  36.270
   437.8,0.016799,0.011100,0.146368,0.000964,  36.271
   438.0,0.016746,0.011049,0.145905,0.000986,  36.269
   438.2,0.016680,0.011002,0.145436,0.000986,  36.268
   438.4,0.016605,0.010962,0.144918,0.000964,  36.268
   438.6,0.016525,0.010915,0.144374,0.000999,  36.267
   438.8,0.016450,0.010871,0.143812,0.000964,  36.270
   439.0,0.016381,0.010836,0.143228,0.000977,  36.270
   439.2,0.016312,0.010789,0.142613,0.000977,  36.269
   439.4,0.016234,0.010731,0.141984,0.000942,  36.272
   439.6,0.016163,0.010682,0.141400,0.000964,  36.276
   439.8,0.016089,0.010636,0.140829,0.000950,  36.281
   440.0,0.016017,0.010585,0.140267,0.000950,  36.270
   440.2,0.015943,0.010540,0.139703,0.000915,  36.270
   440.4,0.015869,0.010491,0.139130,0.000950,  36.269
   440.6,0.015797,0.010440,0.138564,0.000950,  36.273
   440.8,0.015726,0.010388,0.138027,0.000937,  36.265
   441.0,0.015654,0.010352,0.137502,0.000959,  36.265
   441.2,0.015591,0.010314,0.136988,0.000932,  36.269
   441.4,0.015527,0.010291,0.136401,0.000932,  36.266
   441.6,0.015464,0.010263,0.135781,0.000910,  36.265
   441.8,0.015398,0.010223,0.135142,0.000959,  36.261
   442.0,0.015332,0.010182,0.134496,0.000973,  36.264
   442.2,0.015258,0.010135,0.133835,0.000937,  36.265
   442.4,0.015192,0.010095,0.133170,0.000959,  36.259
   442.6,0.015126,0.010051,0.132481,0.000937,  36.263
   442.8,0.015060,0.010007,0.132035,0.000937,  36.259
   443.0,0.014994,0.009962,0.131667,0.000937,  36.254
   443.2,0.014925,0.009920,0.131384,0.000902,  36.250
   443.4,0.014851,0.009874,0.130956,0.000937,  36.247
   443.6,0.014785,0.009830,0.130471,0.000924,  36.248
   443.8,0.014722,0.009786,0.129949,0.000902,  36.246
   444.0,0.014653,0.009749,0.129381,0.000924,  36.247
   444.2,0.014598,0.009708,0.128779,0.000910,  36.239
   444.4,0.014549,0.009668,0.128122,0.000888,  36.236
   444.6,0.014505,0.009628,0.127629,0.000910,  36.237
   444.8,0.014464,0.009592,0.127193,0.000910,  36.232
   445.0,0.014424,0.009558,0.126830,0.000888,  36.228
   445.2,0.014374,0.009529,0.126376,0.000910,  36.222
   445.4,0.014330,0.009493,0.125901,0.000910,  36.205
   445.6,0.014276,0.009446,0.125422,0.000888,  36.210
   445.8,0.014210,0.009393,0.124941,0.000910,  36.213
   446.0,0.014130,0.009351,0.124454,0.000897,  36.217
   446.2,0.014067,0.009311,0.123959,0.000875,  36.218
   446.4,0.014007,0.009272,0.123434,0.000910,  36.202
   446.6,0.013949,0.009230,0.122891,0.000897,  36.191
   446.8,0.013894,0.009191,0.122328,0.000875,  36.180
   447.0,0.013834,0.009159,0.121866,0.000910,  36.171
   447.2,0.013780,0.009127,0.121460,0.000897,  36.173
   447.4,0.013722,0.009086,0.121085,0.000897,  36.166
   447.6,0.013672,0.009059,0.120666,0.000861,  36.159
   447.8,0.013629,0.009028,0.120244,0.000910,  36.147
   448.0,0.013574,0.008991,0.119828,0.000910,  36.144
   448.2,0.013522,0.008960,0.119322,0.000924,  36.140
   448.4,0.013473,0.008930,0.118768,0.000910,  36.128
   448.6,0.013409,0.008899,0.118161,0.000910,  36.127
   448.8,0.013352,0.008877,0.117715,0.000888,  36.124
   449.0,0.013295,0.008857,0.117315,0.000910,  36.120
   449.2,0.013231,0.008822,0.116965,0.000910,  36.117
   449.4,0.013171,0.008788,0.116665,0.000888,  36.109
   449.6,0.013117,0.008745,0.116236,0.000910,  36.102
   449.8,0.013054,0.008704,0.115786,0.000910,  36.098
   450.0,0.012993,0.008661,0.115328,0.000910,  36.094
   450.2,0.012934,0.008621,0.114792,0.000883,  36.085
   450.4,0.012873,0.008585,0.114217,0.000892,  36.078
   450.6,0.012818,0.008548,0.113607,0.000892,  36.073
   450.8,0.012764,0.008508,0.113138,0.000857,  36.072
   451.0,0.012715,0.008469,0.112713,0.000892,  36.070
   451.2,0.012671,0.008431,0.112353,0.000892,  36.076
   451.4,0.012627,0.008395,0.111923,0.000857,  36.074
   451.6,0.012586,0.008357,0.111493,0.000892,  36.073
   451.8,0.012534,0.008314,0.111064,0.000892,  36.080
   452.0,0.012477,0.008282,0.110603,0.000870,  36.088
   452.2,0.012417,0.008250,0.110137,0.000906,  36.076
   452.4,0.012362,0.008211,0.109661,0.000906,  36.074
   452.6,0.012310,0.008181,0.109234,0.000883,  36.075
   452.8,0.012256,0.008151,0.108818,0.000906,  36.074
   453.0,0.012206,0.008117,0.108423,0.000906,  36.073
   453.2,0.012155,0.008081,0.108053,0.000883,  36.077
   453.4,0.012103,0.008051,0.107697,0.000906,  36.073
   453.6,0.012056,0.008021,0.107346,0.000906,  36.077
   453.8,0.012010,0.007989,0.106934,0.000883,  36.075
   454.0,0.011961,0.007954,0.106496,0.000906,  36.076
   454.2,0.011917,0.007921,0.106019,0.000906,  36.075
   454.4,0.011868,0.007897,0.105576,0.000906,  36.078
   454.6,0.011819,0.007864,0.105148,0.000919,  36.081
   454.8,0.011770,0.007827,0.104714,0.000906,  36.077
   455.0,0.011718,0.007802,0.104239,0.000870,  36.077
   455.2,0.011670,0.007772,0.103746,0.000919,  36.082
   455.4,0.011614,0.007745,0.103238,0.000906,  36.086
   455.6,0.011560,0.007728,0.102797,0.000906,  36.082
   455.8,0.011511,0.007706,0.102380,0.000892,  36.087
   456.0,0.011462,0.007670,0.101977,0.000901,  36.087
   456.2,0.011410,0.007642,0.101611,0.000901,  36.086
   456.4,0.011355,0.007606,0.101252,0.000901,  36.083
   456.6,0.011309,0.007571,0.100909,0.000901,  36.088
   456.8,0.011265,0.007539,0.100586,0.000901,  36.092
   457.0,0.011219,0.007510,0.100230,0.000901,  36.091
   457.2,0.011178,0.007482,0.099864,0.000901,  36.099
   457.4,0.011135,0.007456,0.099502,0.000901,  36.097
   457.6,0.011094,0.007431,0.099105,0.000914,  36.100
   457.8,0.011053,0.007393,0.098698,0.000914,  36.106
   458.0,0.011018,0.007364,0.098272,0.000901,  36.113
   458.2,0.010980,0.007329,0.097866,0.000901,  36.124
   458.4,0.010941,0.007291,0.097466,0.000874,  36.129
   458.6,0.010898,0.007266,0.097079,0.000874,  36.128
   458.8,0.010852,0.007238,0.096744,0.000839,  36.126
   459.0,0.010797,0.007203,0.096443,0.000852,  36.124
   459.2,0.010754,0.007178,0.096181,0.000865,  36.118
   459.4,0.010710,0.007147,0.095878,0.000830,  36.124
   459.6,0.010667,0.007119,0.095569,0.000865,  36.124
   459.8,0.010628,0.007096,0.095261,0.000879,  36.122
   460.0,0.010590,0.007070,0.094874,0.000857,  36.124
   460.2,0.010555,0.007044,0.094439,0.000879,  36.126
   460.4,0.010514,0.007018,0.093973,0.000879,  36.131
   460.6,0.010473,0.006991,0.093568,0.000857,  36.126
   460.8,0.010430,0.006963,0.093164,0.000879,  36.132
   461.0,0.010386,0.006937,0.092784,0.000879,  36.142
   461.2,0.010340,0.006909,0.092409,0.000892,  36.149
   461.4,0.010291,0.006874,0.092034,0.000879,  36.153
   461.6,0.010245,0.006849,0.091680,0.000879,  36.149
   461.8,0.010196,0.006819,0.091334,0.000857,  36.154
   462.0,0.010147,0.006793,0.090994,0.000892,  36.157
   462.2,0.010104,0.006769,0.090665,0.000879,  36.156
   462.4,0.010058,0.006747,0.090372,0.000865,  36.161
   462.6,0.010009,0.006727,0.090102,0.000865,  36.163
   462.8,0.009968,0.006702,0.089869,0.000888,  36.162
   463.0,0.009930,0.006673,0.089645,0.000888,  36.158
   463.2,0.009886,0.006649,0.089297,0.000888,  36.165
   463.4,0.009843,0.006620,0.088915,0.000901,  36.171
   463.6,0.009797,0.006590,0.088499,0.000879,  36.170
   463.8,0.009748,0.006557,0.088121,0.000892,  36.171
   464.0,0.009705,0.006524,0.087715,0.000857,  36.180
   464.2,0.009658,0.006494,0.087322,0.000821,  36.182
   464.4,0.009621,0.006470,0.086939,0.000857,  36.174
   464.6,0.009583,0.006440,0.086556,0.000843,  36.177
   464.8,0.009544,0.006415,0.086169,0.000808,  36.180
   465.0,0.009517,0.006391,0.085852,0.000843,  36.177
   465.2,0.009496,0.006363,0.085554,0.000830,  36.182
   465.4,0.009452,0.006337,0.085286,0.000794,  36.179
   465.6,0.009414,0.006309,0.085035,0.000830,  36.183
   465.8,0.009377,0.006287,0.084802,0.000830,  36.181
   466.0,0.009333,0.006265,0.084571,0.000794,  36.181
   466.2,0.009298,0.006240,0.084231,0.000830,  36.185
   466.4,0.009263,0.006216,0.083839,0.000830,  36.183
   466.6,0.009219,0.006190,0.083388,0.000794,  36.181
   466.8,0.009181,0.006162,0.083012,0.000830,  36.182
   467.0,0.009149,0.006136,0.082630,0.000830,  36.181
   467.2,0.009105,0.006107,0.082263,0.000781,  36.184
   467.4,0.009064,0.006085,0.081914,0.000817,  36.178
   467.6,0.009033,0.006054,0.081561,0.000817,  36.180
   467.8,0.008988,0.006026,0.081234,0.000768,  36.184
   468.0,0.008948,0.006007,0.080894,0.000803,  36.183
   468.2,0.008913,0.005983,0.080560,0.000817,  36.182
   468.4,0.008869,0.005955,0.080217,0.000852,  36.186
   468.6,0.008831,0.005932,0.079748,0.000817,  36.182
   468.8,0.008797,0.005908,0.079207,0.000852,  36.186
   469.0,0.008753,0.005888,0.078604,0.000825,  36.183
   469.2,0.008718,0.005864,0.078288,0.000825,  36.177
   469.4,0.008689,0.005844,0.078068,0.000874,  36.179
   469.6,0.008647,0.005824,0.077963,0.000839,  36.181
   469.8,0.008609,0.005806,0.077735,0.000852,  36.178
   470.0,0.008578,0.005788,0.077510,0.000817,  36.182
   470.2,0.008536,0.005759,0.077280,0.000839,  36.189
   470.4,0.008495,0.005737,0.077032,0.000817,  36.199
   470.6,0.008461,0.005703,0.076784,0.000817,  36.200
   470.8,0.008420,0.005672,0.076545,0.000803,  36.186
   471.0,0.008385,0.005647,0.076296,0.000781,  36.183
   471.2,0.008358,0.005629,0.076014,0.000817,  36.181
   471.4,0.008317,0.005607,0.075714,0.000803,  36.175
   471.6,0.008282,0.005581,0.075395,0.000781,  36.173
   471.8,0.008250,0.005562,0.075183,0.000817,  36.172
   472.0,0.008224,0.005544,0.075003,0.000803,  36.167
   472.2,0.008194,0.005524,0.074880,0.000781,  36.167
   472.4,0.008177,0.005502,0.074597,0.000803,  36.163
   472.6,0.008166,0.005482,0.074238,0.000790,  36.147
   472.8,0.008133,0.005459,0.073829,0.000768,  36.149
   473.0,0.008094,0.005437,0.073596,0.000790,  36.139
   473.2,0.008064,0.005415,0.073421,0.000776,  36.136
   473.4,0.008028,0.005396,0.073296,0.000754,  36.131
   473.6,0.007998,0.005372,0.072986,0.000790,  36.129
   473.8,0.007963,0.005343,0.072613,0.000776,  36.125
   474.0,0.007925,0.005327,0.072172,0.000754,  36.120
   474.2,0.007895,0.005309,0.071850,0.000790,  36.114
   474.4,0.007862,0.005288,0.071551,0.000776,  36.113
   474.6,0.007826,0.005265,0.071274,0.000754,  36.108
   474.8,0.007794,0.005254,0.070960,0.000790,  36.101
   475.0,0.007762,0.005238,0.070623,0.000776,  36.096
   475.2,0.007728,0.005217,0.070276,0.000754,  36.093
   475.4,0.007699,0.005200,0.069967,0.000790,  36.089
   475.6,0.007672,0.005182,0.069680,0.000776,  36.085
   475.8,0.007636,0.005161,0.069401,0.000776,  36.063
   476.0,0.007606,0.005141,0.069111,0.000741,  36.064
   476.2,0.007580,0.005121,0.068834,0.000763,  36.070
   476.4,0.007544,0.005099,0.068557,0.000763,  36.062
   476.6,0.007520,0.005085,0.068328,0.000776,  36.055
   476.8,0.007499,0.005071,0.068110,0.000763,  36.045
   477.0,0.007466,0.005061,0.067919,0.000763,  36.040
   477.2,0.007443,0.005044,0.067714,0.000741,  36.039
   477.4,0.007413,0.005038,0.067500,0.000776,  36.033
   477.6,0.007380,0.005017,0.067299,0.000776,  36.033
   477.8,0.007362,0.005007,0.067085,0.000754,  36.028
   478.0,0.007335,0.004989,0.066798,0.000803,  36.023
   478.2,0.007296,0.004968,0.066499,0.000803,  36.011
   478.4,0.007270,0.004950,0.066163,0.000803,  36.009
   478.6,0.007244,0.004935,0.065909,0.000790,  36.012
   478.8,0.007208,0.004908,0.065680,0.000785,  36.009
   479.0,0.007181,0.004893,0.065481,0.000798,  36.012
   479.2,0.007157,0.004878,0.065257,0.000763,  36.012
   479.4,0.007133,0.004851,0.065006,0.000798,  36.010
   479.6,0.007114,0.004834,0.064772,0.000812,  36.010
   479.8,0.007084,0.004816,0.064564,0.000776,  36.008
   480.0,0.007071,0.004793,0.064374,0.000812,  36.009
   480.2,0.007038,0.004767,0.064197,0.000825,  36.012
   480.4,0.007006,0.004748,0.063949,0.000790,  36.015
   480.6,0.006979,0.004727,0.063673,0.000825,  36.015
   480.8,0.006946,0.004705,0.063380,0.000839,  36.017
   481.0,0.006916,0.004692,0.063139,0.000790,  36.018
   481.2,0.006893,0.004676,0.062894,0.000825,  36.020
   481.4,0.006863,0.004653,0.062659,0.000839,  36.018
   481.6,0.006838,0.004638,0.062436,0.000790,  36.025
   481.8,0.006817,0.004620,0.062214,0.000825,  36.026
   482.0,0.006783,0.004598,0.061992,0.000825,  36.027
   482.2,0.006757,0.004576,0.061762,0.000763,  36.036
   482.4,0.006720,0.004556,0.061531,0.000772,  36.050
   482.6,0.006686,0.004541,0.061286,0.000772,  36.066
   482.8,0.006666,0.004521,0.061073,0.000772,  36.064
   483.0,0.006636,0.004508,0.060859,0.000785,  36.044
   483.2,0.006603,0.004492,0.060653,0.000785,  36.047
   483.4,0.006585,0.004476,0.060477,0.000763,  36.041
   483.6,0.006558,0.004464,0.060305,0.000785,  36.028
   483.8,0.006527,0.004453,0.060154,0.000798,  36.026
   484.0,0.006512,0.004443,0.059953,0.000812,  36.021
   484.2,0.006491,0.004434,0.059735,0.000776,  36.019
   484.4,0.006463,0.004422,0.059495,0.000812,  36.014
   484.6,0.006447,0.004408,0.059283,0.000790,  36.017
   484.8,0.006418,0.004391,0.059073,0.000790,  36.013
   485.0,0.006385,0.004373,0.058869,0.000790,  36.006
   485.2,0.006367,0.004359,0.058665,0.000803,  36.009
   485.4,0.006343,0.004343,0.058446,0.000776,  36.003
   485.6,0.006313,0.004322,0.058233,0.000798,  36.001
   485.8,0.006286,0.004313,0.058021,0.000812,  35.996
   486.0,0.006265,0.004297,0.057783,0.000776,  35.993
   486.2,0.006237,0.004278,0.057537,0.000812,  35.989
   486.4,0.006210,0.004269,0.057272,0.000825,  35.983
   486.6,0.006190,0.004254,0.057033,0.000790,  35.976
   486.8,0.006168,0.004235,0.056807,0.000812,  35.975
   487.0,0.006146,0.004223,0.056575,0.000825,  35.973
   487.2,0.006127,0.004207,0.056345,0.000790,  35.977
   487.4,0.006111,0.004191,0.056121,0.000812,  35.980
   487.6,0.006083,0.004175,0.055898,0.000825,  35.973
   487.8,0.006065,0.004160,0.055609,0.000790,  35.970
   488.0,0.006044,0.004142,0.055287,0.000812,  35.969
   488.2,0.006016,0.004126,0.054922,0.000825,  35.986
   488.4,0.005998,0.004117,0.054718,0.000790,  35.996
   488.6,0.005976,0.004103,0.054575,0.000812,  35.999
   488.8,0.005948,0.004090,0.054489,0.000825,  35.989
   489.0,0.005930,0.004077,0.054346,0.000790,  35.977
   489.2,0.005908,0.004058,0.054209,0.000825,  35.978
   489.4,0.005883,0.004051,0.054072,0.000839,  35.978
   489.6,0.005859,0.004032,0.053902,0.000790,  35.978
   489.8,0.005838,0.004013,0.053707,0.000825,  35.980
   490.0,0.005810,0.003999,0.053493,0.000825,  35.979
   490.2,0.005786,0.003984,0.053325,0.000825,  35.983
   490.4,0.005771,0.003970,0.053160,0.000839,  35.983
   490.6,0.005743,0.003953,0.053011,0.000825,  35.987
   490.8,0.005716,0.003940,0.052827,0.000790,  35.992
   491.0,0.005698,0.003932,0.052606,0.000825,  35.992
   491.2,0.005670,0.003918,0.052382,0.000812,  35.996
   491.4,0.005646,0.003905,0.052172,0.000825,  35.994
   491.6,0.005628,0.003892,0.051957,0.000790,  35.997
   491.8,0.005603,0.003878,0.051746,0.000825,  35.998
   492.0,0.005579,0.003862,0.051528,0.000803,  35.999
   492.2,0.005561,0.003842,0.051385,0.000790,  36.006
   492.4,0.005533,0.003821,0.051278,0.000790,  36.003
   492.6,0.005514,0.003811,0.051202,0.000768,  36.010
   492.8,0.005497,0.003801,0.051050,0.000790,  36.018
   493.0,0.005469,0.003791,0.050860,0.000790,  36.014
   493.2,0.005450,0.003779,0.050645,0.000768,  36.025
   493.4,0.005435,0.003770,0.050455,0.000790,  36.024
   493.6,0.005419,0.003764,0.050264,0.000776,  36.021
   493.8,0.005399,0.003752,0.050064,0.000754,  36.020
   494.0,0.005388,0.003736,0.049921,0.000790,  36.023
   494.2,0.005384,0.003720,0.049802,0.000776,  36.032
   494.4,0.005359,0.003709,0.049706,0.000741,  36.042
   494.6,0.005337,0.003694,0.049572,0.000776,  36.046
   494.8,0.005319,0.003677,0.049449,0.000750,  36.062
   495.0,0.005297,0.003669,0.049297,0.000728,  36.060
   495.2,0.005281,0.003657,0.049101,0.000763,  36.046
   495.4,0.005271,0.003642,0.048891,0.000763,  36.037
   495.6,0.005246,0.003635,0.048644,0.000741,  36.035
   495.8,0.005230,0.003625,0.048514,0.000763,  36.032
   496.0,0.005220,0.003615,0.048441,0.000763,  36.030
   496.2,0.005197,0.003605,0.048405,0.000741,  36.032
   496.4,0.005181,0.003597,0.048282,0.000776,  36.039
   496.6,0.005174,0.003586,0.048151,0.000776,  36.036
   496.8,0.005154,0.003578,0.047990,0.000776,  36.039
   497.0,0.005141,0.003564,0.047800,0.000741,  36.039
   497.2,0.005128,0.003551,0.047580,0.000776,  36.043
   497.4,0.005103,0.003536,0.047343,0.000776,  36.045
   497.6,0.005082,0.003524,0.047124,0.000776,  36.046
   497.8,0.005064,0.003509,0.046897,0.000812,  36.045
   498.0,0.005036,0.003502,0.046687,0.000825,  36.049
   498.2,0.005021,0.003492,0.046524,0.000839,  36.049
   498.4,0.005006,0.003488,0.046397,0.000790,  36.050
   498.6,0.004981,0.003474,0.046284,0.000825,  36.048
   498.8,0.004963,0.003465,0.046207,0.000839,  36.052
   499.0,0.004939,0.003453,0.046090,0.000790,  36.049
   499.2,0.004914,0.003443,0.045973,0.000812,  36.058
   499.4,0.004901,0.003425,0.045853,0.000790,  36.051
   499.6,0.004882,0.003413,0.045723,0.000768,  36.057
   499.8,0.004857,0.003397,0.045586,0.000768,  36.058
   500.0,0.004842,0.003380,0.045441,0.000746,  36.059
   500.2,0.004820,0.003364,0.045289,0.000768,  36.059
   500.4,0.004804,0.003350,0.045135,0.000790,  36.069
   500.6,0.004782,0.003333,0.044961,0.000768,  36.078
   500.8,0.004771,0.003323,0.044851,0.000790,  36.073
   501.0,0.004758,0.003304,0.044768,0.000776,  36.067
   501.2,0.004738,0.003289,0.044709,0.000790,  36.073
   501.4,0.004723,0.003281,0.044542,0.000776,  36.074
   501.6,0.004708,0.003267,0.044347,0.000798,  36.075
   501.8,0.004685,0.003259,0.044112,0.000812,  36.073
   502.0,0.004673,0.003258,0.043937,0.000763,  36.075
   502.2,0.004654,0.003253,0.043778,0.000798,  36.079
   502.4,0.004632,0.003241,0.043634,0.000812,  36.071
   502.6,0.004625,0.003227,0.043466,0.000763,  36.076
   502.8,0.004609,0.003215,0.043285,0.000798,  36.078
   503.0,0.004589,0.003210,0.043096,0.000812,  36.082
   503.2,0.004579,0.003196,0.042915,0.000763,  36.082
   503.4,0.004563,0.003179,0.042719,0.000798,  36.082
   503.6,0.004543,0.003178,0.042522,0.000798,  36.079
   503.8,0.004533,0.003169,0.042379,0.000812,  36.078
   504.0,0.004520,0.003152,0.042245,0.000798,  36.078
   504.2,0.004500,0.003143,0.042139,0.000798,  36.081
   504.4,0.004488,0.003130,0.041994,0.000776,  36.079
   504.6,0.004472,0.003120,0.041834,0.000798,  36.082
   504.8,0.004449,0.003107,0.041665,0.000798,  36.087
   505.0,0.004437,0.003103,0.041467,0.000812,  36.086
   505.2,0.004422,0.003100,0.041265,0.000763,  36.096
   505.4,0.004399,0.003092,0.041035,0.000798,  36.096
   505.6,0.004381,0.003082,0.040788,0.000812,  36.098
   505.8,0.004359,0.003068,0.040651,0.000763,  36.100
   506.0,0.004337,0.003059,0.040548,0.000798,  36.103
   506.2,0.004330,0.003046,0.040471,0.000776,  36.103
   506.4,0.004316,0.003036,0.040387,0.000741,  36.114
   506.6,0.004294,0.003026,0.040318,0.000754,  36.120
   506.8,0.004287,0.003015,0.040269,0.000732,  36.132
   507.0,0.004271,0.003001,0.040185,0.000754,  36.146
   507.2,0.004260,0.002998,0.040106,0.000776,  36.150
   507.4,0.004243,0.002986,0.040019,0.000754,  36.136
   507.6,0.004244,0.002982,0.039972,0.000776,  36.134
   507.8,0.004236,0.002973,0.039947,0.000763,  36.137
   508.0,0.004216,0.002960,0.039949,0.000741,  36.134
   508.2,0.004209,0.002951,0.039882,0.000763,  36.141
   508.4,0.004196,0.002945,0.039796,0.000763,  36.142
   508.6,0.004179,0.002938,0.039677,0.000741,  36.143
   508.8,0.004174,0.002934,0.039518,0.000763,  36.145
   509.0,0.004163,0.002924,0.039337,0.000763,  36.143
   509.2,0.004146,0.002916,0.039122,0.000741,  36.150
   509.4,0.004139,0.002913,0.038949,0.000763,  36.150
   509.6,0.004129,0.002907,0.038789,0.000763,  36.152
   509.8,0.004114,0.002904,0.038641,0.000741,  36.155
   510.0,0.004107,0.002894,0.038512,0.000763,  36.153
   510.2,0.004094,0.002884,0.038390,0.000763,  36.160
   510.4,0.004077,0.002877,0.038271,0.000798,  36.163
   510.6,0.004070,0.002868,0.038156,0.000776,  36.165
   510.8,0.004056,0.002860,0.038040,0.000812,  36.165
   511.0,0.004037,0.002849,0.037929,0.000812,  36.163
   511.2,0.004029,0.002844,0.037716,0.000812,  36.170
   511.4,0.004019,0.002836,0.037447,0.000847,  36.171
   511.6,0.003999,0.002832,0.037132,0.000812,  36.171
   511.8,0.003989,0.002828,0.037006,0.000825,  36.168
   512.0,0.003973,0.002824,0.036949,0.000776,  36.176
   512.2,0.003953,0.002816,0.036954,0.000798,  36.175
   512.4,0.003946,0.002802,0.037028,0.000812,  36.175
   512.6,0.003930,0.002795,0.036970,0.000763,  36.184
   512.8,0.003911,0.002784,0.036893,0.000798,  36.191
   513.0,0.003904,0.002778,0.036807,0.000763,  36.184
   513.2,0.003890,0.002770,0.036707,0.000763,  36.181
   513.4,0.003870,0.002761,0.036597,0.000750,  36.180
   513.6,0.003863,0.002753,0.036471,0.000728,  36.179
   513.8,0.003850,0.002742,0.036370,0.000763,  36.182
   514.0,0.003830,0.002732,0.036281,0.000763,  36.178
   514.2,0.003820,0.002724,0.036199,0.000741,  36.183
   514.4,0.003804,0.002719,0.036031,0.000763,  36.184
   514.6,0.003794,0.002711,0.035840,0.000763,  36.183
   514.8,0.003777,0.002696,0.035611,0.000741,  36.185
   515.0,0.003778,0.002691,0.035512,0.000763,  36.179
   515.2,0.003767,0.002681,0.035471,0.000763,  36.186
   515.4,0.003753,0.002669,0.035494,0.000741,  36.184
   515.6,0.003743,0.002661,0.035343,0.000776,  36.180
   515.8,0.003727,0.002651,0.035140,0.000776,  36.184
   516.0,0.003710,0.002635,0.034883,0.000790,  36.177
   516.2,0.003700,0.002627,0.034791,0.000790,  36.181
   516.4,0.003684,0.002618,0.034764,0.000812,  36.174
   516.6,0.003664,0.002602,0.034801,0.000825,  36.178
   516.8,0.003654,0.002595,0.034694,0.000790,  36.168
   517.0,0.003636,0.002581,0.034549,0.000812,  36.172
   517.2,0.003613,0.002573,0.034366,0.000825,  36.169
   517.4,0.003604,0.002568,0.034258,0.000790,  36.161
   517.6,0.003588,0.002554,0.034163,0.000812,  36.165
   517.8,0.003565,0.002542,0.034077,0.000812,  36.159
   518.0,0.003558,0.002534,0.033984,0.000812,  36.154
   518.2,0.003545,0.002527,0.033883,0.000812,  36.162
   518.4,0.003522,0.002510,0.033789,0.000812,  36.153
   518.6,0.003513,0.002507,0.033711,0.000763,  36.154
   518.8,0.003500,0.002498,0.033649,0.000798,  36.161
   519.0,0.003478,0.002490,0.033598,0.000785,  36.165
   519.2,0.003464,0.002479,0.033502,0.000785,  36.172
   519.4,0.003452,0.002468,0.033378,0.000750,  36.155
   519.6,0.003432,0.002462,0.033250,0.000772,  36.146
   519.8,0.003425,0.002447,0.033080,0.000772,  36.141
   520.0,0.003418,0.002436,0.032964,0.000736,  36.128
   520.2,0.003401,0.002425,0.032854,0.000772,  36.122
   520.4,0.003394,0.002416,0.032758,0.000772,  36.125
   520.6,0.003383,0.002412,0.032680,0.000736,  36.117
   520.8,0.003373,0.002404,0.032623,0.000758,  36.116
   521.0,0.003365,0.002396,0.032585,0.000758,  36.113
   521.2,0.003357,0.002385,0.032486,0.000736,  36.120
   521.4,0.003349,0.002379,0.032373,0.000758,  36.118
   521.6,0.003332,0.002371,0.032238,0.000758,  36.112
   521.8,0.003321,0.002363,0.032154,0.000736,  36.111
   522.0,0.003310,0.002355,0.032097,0.000758,  36.106
   522.2,0.003296,0.002347,0.032056,0.000758,  36.102
   522.4,0.003291,0.002342,0.031956,0.000736,  36.102
   522.6,0.003287,0.002331,0.031834,0.000758,  36.102
   522.8,0.003270,0.002325,0.031688,0.000758,  36.101
   523.0,0.003268,0.002321,0.031602,0.000736,  36.095
   523.2,0.003258,0.002315,0.031517,0.000758,  36.095
   523.4,0.003241,0.002310,0.031445,0.000758,  36.095
   523.6,0.003234,0.002302,0.031351,0.000736,  36.094
   523.8,0.003220,0.002294,0.031243,0.000758,  36.092
   524.0,0.003203,0.002282,0.031115,0.000758,  36.093
   524.2,0.003193,0.002269,0.030950,0.000736,  36.092
   524.4,0.003179,0.002258,0.030757,0.000758,  36.088
   524.6,0.003165,0.002250,0.030546,0.000758,  36.089
   524.8,0.003152,0.002246,0.030427,0.000758,  36.097
   525.0,0.003147,0.002236,0.030343,0.000758,  36.101
   525.2,0.003133,0.002226,0.030313,0.000745,  36.094
   525.4,0.003126,0.002220,0.030119,0.000723,  36.090
   525.6,0.003119,0.002214,0.029841,0.000758,  36.086
   525.8,0.003102,0.002204,0.029515,0.000745,  36.086
   526.0,0.003097,0.002204,0.029383,0.000732,  36.082
   526.2,0.003084,0.002201,0.029321,0.000696,  36.073
   526.4,0.003070,0.002195,0.029303,0.000732,  36.072
   526.6,0.003068,0.002196,0.029363,0.000696,  36.074
   526.8,0.003060,0.002193,0.029292,0.000696,  36.070
   527.0,0.003048,0.002186,0.029219,0.000709,  36.068
   527.2,0.003044,0.002177,0.029134,0.000709,  36.069
   527.4,0.003033,0.002173,0.029042,0.000696,  36.067
   527.6,0.003019,0.002164,0.028955,0.000691,  36.066
   527.8,0.003014,0.002161,0.028861,0.000691,  36.068
   528.0,0.003004,0.002158,0.028784,0.000656,  36.068
   528.2,0.002996,0.002147,0.028707,0.000705,  36.067
   528.4,0.002990,0.002143,0.028649,0.000718,  36.069
   528.6,0.002980,0.002137,0.028613,0.000669,  36.067
   528.8,0.002972,0.002127,0.028590,0.000705,  36.057
   529.0,0.002964,0.002126,0.028568,0.000718,  36.063
   529.2,0.002953,0.002119,0.028509,0.000683,  36.066
   529.4,0.002948,0.002112,0.028422,0.000718,  36.063
   529.6,0.002940,0.002106,0.028320,0.000732,  36.061
   529.8,0.002921,0.002100,0.028227,0.000696,  36.062
   530.0,0.002911,0.002092,0.028118,0.000718,  36.058
   530.2,0.002894,0.002077,0.028004,0.000732,  36.060
   530.4,0.002881,0.002067,0.027897,0.000696,  36.061
   530.6,0.002865,0.002055,0.027794,0.000718,  36.064
   530.8,0.002848,0.002048,0.027692,0.000732,  36.064
   531.0,0.002841,0.002043,0.027598,0.000683,  36.073
   531.2,0.002830,0.002035,0.027511,0.000691,  36.083
   531.4,0.002813,0.002024,0.027431,0.000691,  36.097
   531.6,0.002811,0.002017,0.027351,0.000691,  36.091
   531.8,0.002803,0.002013,0.027278,0.000691,  36.071
   532.0,0.002793,0.002006,0.027191,0.000691,  36.065
   532.2,0.002785,0.002007,0.027161,0.000669,  36.069
   532.4,0.002783,0.002005,0.027172,0.000705,  36.067
   532.6,0.002780,0.001998,0.027198,0.000705,  36.066
   532.8,0.002771,0.001994,0.027151,0.000718,  36.066
   533.0,0.002772,0.001994,0.027064,0.000669,  36.065
   533.2,0.002769,0.001987,0.026954,0.000705,  36.068
   533.4,0.002758,0.001985,0.026816,0.000718,  36.069
   533.6,0.002756,0.001983,0.026730,0.000669,  36.071
   533.8,0.002751,0.001978,0.026646,0.000705,  36.074
   534.0,0.002736,0.001977,0.026575,0.000718,  36.071
   534.2,0.002735,0.001975,0.026504,0.000691,  36.069
   534.4,0.002732,0.001967,0.026427,0.000714,  36.077
   534.6,0.002718,0.001966,0.026368,0.000727,  36.081
   534.8,0.002716,0.001962,0.026296,0.000714,  36.081
   535.0,0.002711,0.001953,0.026210,0.000714,  36.083
   535.2,0.002705,0.001950,0.026122,0.000727,  36.085
   535.4,0.002703,0.001945,0.026058,0.000727,  36.079
   535.6,0.002697,0.001943,0.025999,0.000740,  36.087
   535.8,0.002689,0.001939,0.025953,0.000754,  36.086
   536.0,0.002679,0.001938,0.025886,0.000740,  36.085
   536.2,0.002677,0.001936,0.025818,0.000740,  36.090
   536.4,0.002666,0.001929,0.025742,0.000754,  36.088
   536.6,0.002653,0.001912,0.025620,0.000740,  36.089
   536.8,0.002637,0.001904,0.025488,0.000740,  36.093
   537.0,0.002626,0.001891,0.025317,0.000754,  36.102
   537.2,0.002613,0.001882,0.025232,0.000740,  36.109
   537.4,0.002602,0.001874,0.025193,0.000740,  36.109
   537.6,0.002594,0.001867,0.025177,0.000754,  36.110
   537.8,0.002586,0.001862,0.025111,0.000740,  36.109
   538.0,0.002578,0.001859,0.025045,0.000740,  36.113
   538.2,0.002570,0.001855,0.024971,0.000740,  36.113
   538.4,0.002562,0.001848,0.024890,0.000754,  36.109
   538.6,0.002554,0.001840,0.024795,0.000691,  36.104
   538.8,0.002546,0.001833,0.024693,0.000691,  36.105
   539.0,0.002541,0.001833,0.024620,0.000669,  36.101
   539.2,0.002533,0.001831,0.024554,0.000705,  36.101
   539.4,0.002525,0.001822,0.024477,0.000691,  36.098
   539.6,0.002513,0.001819,0.024384,0.000705,  36.101
   539.8,0.002505,0.001812,0.024289,0.000669,  36.096
   540.0,0.002497,0.001806,0.024174,0.000691,  36.096
   540.2,0.002483,0.001802,0.024059,0.000705,  36.095
   540.4,0.002478,0.001794,0.023935,0.000669,  36.094
   540.6,0.002470,0.001784,0.023805,0.000691,  36.091
   540.8,0.002456,0.001777,0.023666,0.000691,  36.092
   541.0,0.002452,0.001768,0.023643,0.000678,  36.093
   541.2,0.002441,0.001760,0.023654,0.000687,  36.097
   541.4,0.002427,0.001758,0.023702,0.000687,  36.088
   541.6,0.002425,0.001756,0.023656,0.000687,  36.091
   541.8,0.002417,0.001752,0.023564,0.000687,  36.089
   542.0,0.002406,0.001746,0.023441,0.000687,  36.078
   542.2,0.002401,0.001739,0.023376,0.000700,  36.080
   542.4,0.002393,0.001730,0.023325,0.000700,  36.084
   542.6,0.002382,0.001718,0.023281,0.000700,  36.082
   542.8,0.002374,0.001706,0.023238,0.000700,  36.078
   543.0,0.002370,0.001700,0.023188,0.000687,  36.086
   543.2,0.002364,0.001694,0.023164,0.000687,  36.096
   543.4,0.002353,0.001695,0.023106,0.000687,  36.104
   543.6,0.002348,0.001695,0.023015,0.000687,  36.105
   543.8,0.002345,0.001690,0.022926,0.000687,  36.087
   544.0,0.002333,0.001689,0.022881,0.000687,  36.079
   544.2,0.002334,0.001690,0.022839,0.000687,  36.079
   544.4,0.002332,0.001686,0.022814,0.000687,  36.077
   544.6,0.002325,0.001681,0.022797,0.000665,  36.075
   544.8,0.002326,0.001678,0.022799,0.000665,  36.073
   545.0,0.002317,0.001681,0.022800,0.000665,  36.069
   545.2,0.002312,0.001681,0.022713,0.000643,  36.075
   545.4,0.002307,0.001677,0.022586,0.000665,  36.074
   545.6,0.002304,0.001674,0.022427,0.000665,  36.074
   545.8,0.002296,0.001674,0.022354,0.000665,  36.072
   546.0,0.002294,0.001669,0.022304,0.000678,  36.068
   546.2,0.002283,0.001665,0.022274,0.000665,  36.073
   546.4,0.002277,0.001664,0.022188,0.000629,  36.072
   546.6,0.002272,0.001662,0.022098,0.000665,  36.071
   546.8,0.002263,0.001655,0.021975,0.000665,  36.068
   547.0,0.002267,0.001655,0.021901,0.000678,  36.066
   547.2,0.002261,0.001648,0.021835,0.000643,  36.066
   547.4,0.002252,0.001645,0.021788,0.000678,  36.066
   547.6,0.002253,0.001641,0.021748,0.000691,  36.063
   547.8,0.002245,0.001638,0.021695,0.000643,  36.069
   548.0,0.002240,0.001634,0.021644,0.000678,  36.068
   548.2,0.002232,0.001634,0.021604,0.000678,  36.064
   548.4,0.002233,0.001635,0.021526,0.000651,  36.058
   548.6,0.002227,0.001626,0.021453,0.000660,  36.047
   548.8,0.002216,0.001625,0.021372,0.000660,  36.045
   549.0,0.002217,0.001623,0.021306,0.000673,  36.050
   549.2,0.002214,0.001617,0.021233,0.000673,  36.057
   549.4,0.002209,0.001614,0.021165,0.000673,  36.054
   549.6,0.002209,0.001608,0.021072,0.000687,  36.047
   549.8,0.002206,0.001604,0.020971,0.000687,  36.041
   550.0,0.002201,0.001604,0.020855,0.000687,  36.040
   550.2,0.002187,0.001599,0.020809,0.000687,  36.041
   550.4,0.002185,0.001597,0.020784,0.000687,  36.041
   550.6,0.002179,0.001596,0.020798,0.000687,  36.034
   550.8,0.002168,0.001592,0.020782,0.000687,  36.035
   551.0,0.002169,0.001586,0.020766,0.000687,  36.037
   551.2,0.002166,0.001584,0.020762,0.000687,  36.035
   551.4,0.002154,0.001577,0.020712,0.000700,  36.035
   551.6,0.002155,0.001575,0.020644,0.000700,  36.040
   551.8,0.002150,0.001571,0.020562,0.000700,  36.039
   552.0,0.002142,0.001570,0.020532,0.000714,  36.034
   552.2,0.002143,0.001565,0.020536,0.000700,  36.035
   552.4,0.002140,0.001563,0.020560,0.000700,  36.034
   552.6,0.002131,0.001563,0.020508,0.000700,  36.034
   552.8,0.002129,0.001561,0.020448,0.000678,  36.037
   553.0,0.002122,0.001559,0.020366,0.000700,  36.033
   553.2,0.002117,0.001557,0.020335,0.000665,  36.031
   553.4,0.002109,0.001550,0.020318,0.000665,  36.036
   553.6,0.002098,0.001550,0.020308,0.000700,  36.031
   553.8,0.002101,0.001545,0.020276,0.000700,  36.027
   554.0,0.002093,0.001545,0.020243,0.000714,  36.027
   554.2,0.002082,0.001541,0.020197,0.000700,  36.031
   554.4,0.002074,0.001533,0.020149,0.000700,  36.030
   554.6,0.002066,0.001525,0.020090,0.000714,  36.031
   554.8,0.002054,0.001519,0.020031,0.000700,  36.032
   555.0,0.002052,0.001508,0.019972,0.000687,  36.028
   555.2,0.002053,0.001504,0.019802,0.000673,  36.030
   555.4,0.002044,0.001496,0.019581,0.000682,  36.044
   555.6,0.002045,0.001498,0.019304,0.000669,  36.049
   555.8,0.002040,0.001501,0.019218,0.000633,  36.055
   556.0,0.002034,0.001493,0.019207,0.000647,  36.036
   556.2,0.002032,0.001491,0.019270,0.000660,  36.028
   556.4,0.002029,0.001493,0.019287,0.000660,  36.021
   556.6,0.002029,0.001487,0.019325,0.000660,  36.018
   556.8,0.002023,0.001486,0.019381,0.000673,  36.015
   557.0,0.002024,0.001493,0.019376,0.000687,  36.018
   557.2,0.002024,0.001493,0.019343,0.000673,  36.011
   557.4,0.002018,0.001491,0.019295,0.000673,  36.010
   557.6,0.002021,0.001499,0.019236,0.000687,  36.000
   557.8,0.002016,0.001499,0.019159,0.000687,  36.000
   558.0,0.002010,0.001498,0.019086,0.000687,  35.995
   558.2,0.002018,0.001496,0.019056,0.000687,  35.994
   558.4,0.002016,0.001493,0.019059,0.000687,  35.994
   558.6,0.002013,0.001498,0.019083,0.000687,  35.990
   558.8,0.002017,0.001496,0.019058,0.000687,  35.990
   559.0,0.002018,0.001496,0.019011,0.000687,  35.985
   559.2,0.002015,0.001492,0.018937,0.000687,  35.981
   559.4,0.002010,0.001490,0.018905,0.000687,  35.981
   559.6,0.002007,0.001490,0.018892,0.000665,  35.980
   559.8,0.002004,0.001486,0.018867,0.000700,  35.974
   560.0,0.002002,0.001488,0.018828,0.000665,  35.979
   560.2,0.001996,0.001486,0.018782,0.000665,  35.975
   560.4,0.001994,0.001482,0.018722,0.000700,  35.968
   560.6,0.001991,0.001478,0.018683,0.000700,  35.967
   560.8,0.001986,0.001477,0.018657,0.000714,  35.966
   561.0,0.001983,0.001476,0.018632,0.000700,  35.962
   561.2,0.001980,0.001474,0.018624,0.000700,  35.974
   561.4,0.001975,0.001475,0.018586,0.000714,  35.979
   561.6,0.001972,0.001471,0.018553,0.000700,  35.970
   561.8,0.001961,0.001470,0.018513,0.000700,  35.956
   562.0,0.001958,0.001465,0.018502,0.000700,  35.954
   562.2,0.001955,0.001461,0.018492,0.000687,  35.954
   562.4,0.001944,0.001461,0.018501,0.000687,  35.956
   562.6,0.001945,0.001461,0.018475,0.000700,  35.950
   562.8,0.001946,0.001457,0.018428,0.000700,  35.944
   563.0,0.001944,0.001458,0.018379,0.000700,  35.944
   563.2,0.001940,0.001452,0.018311,0.000714,  35.947
   563.4,0.001941,0.001453,0.018235,0.000700,  35.945
   563.6,0.001935,0.001451,0.018134,0.000700,  35.931
   563.8,0.001935,0.001449,0.018166,0.000714,  35.929
   564.0,0.001929,0.001449,0.018259,0.000700,  35.930
   564.2,0.001923,0.001445,0.018414,0.000700,  35.931
   564.4,0.001911,0.001437,0.018390,0.000714,  35.930
   564.6,0.001906,0.001432,0.018310,0.000700,  35.926
   564.8,0.001903,0.001425,0.018179,0.000700,  35.923
   565.0,0.001900,0.001421,0.018092,0.000714,  35.923
   565.2,0.001895,0.001412,0.018010,0.000700,  35.921
   565.4,0.001890,0.001409,0.017921,0.000700,  35.913
   565.6,0.001884,0.001412,0.017862,0.000714,  35.916
   565.8,0.001879,0.001410,0.017836,0.000700,  35.915
   566.0,0.001874,0.001406,0.017816,0.000714,  35.910
   566.2,0.001868,0.001409,0.017750,0.000700,  35.919
   566.4,0.001863,0.001402,0.017668,0.000691,  35.914
   566.6,0.001858,0.001392,0.017573,0.000714,  35.912
   566.8,0.001850,0.001384,0.017501,0.000678,  35.910
   567.0,0.001839,0.001380,0.017453,0.000665,  35.906
   567.2,0.001836,0.001374,0.017401,0.000700,  35.909
   567.4,0.001836,0.001370,0.017356,0.000700,  35.927
   567.6,0.001836,0.001371,0.017329,0.000700,  35.937
   567.8,0.001834,0.001365,0.017303,0.000687,  35.947
   568.0,0.001828,0.001359,0.017285,0.000687,  35.942
   568.2,0.001820,0.001351,0.017261,0.000687,  35.922
   568.4,0.001818,0.001345,0.017254,0.000673,  35.906
   568.6,0.001806,0.001343,0.017249,0.000673,  35.909
   568.8,0.001803,0.001343,0.017257,0.000700,  35.908
   569.0,0.001801,0.001340,0.017271,0.000700,  35.903
   569.2,0.001792,0.001338,0.017287,0.000700,  35.903
   569.4,0.001793,0.001335,0.017234,0.000714,  35.899
   569.6,0.001790,0.001331,0.017154,0.000700,  35.901
   569.8,0.001787,0.001329,0.017052,0.000700,  35.900
   570.0,0.001785,0.001323,0.016918,0.000714,  35.896
   570.2,0.001779,0.001321,0.016754,0.000700,  35.897
   570.4,0.001777,0.001321,0.016564,0.000700,  35.886
   570.6,0.001765,0.001319,0.016514,0.000700,  35.886
   570.8,0.001766,0.001313,0.016530,0.000687,  35.885
   571.0,0.001763,0.001306,0.016589,0.000687,  35.885
   571.2,0.001752,0.001306,0.016578,0.000687,  35.884
   571.4,0.001755,0.001304,0.016561,0.000687,  35.879
   571.6,0.001753,0.001301,0.016527,0.000687,  35.886
   571.8,0.001753,0.001312,0.016524,0.000687,  35.877
   572.0,0.001759,0.001311,0.016528,0.000687,  35.872
   572.2,0.001756,0.001311,0.016545,0.000687,  35.878
   572.4,0.001754,0.001310,0.016535,0.000687,  35.869
   572.6,0.001751,0.001305,0.016510,0.000687,  35.870
   572.8,0.001751,0.001305,0.016484,0.000687,  35.866
   573.0,0.001751,0.001305,0.016446,0.000687,  35.860
   573.2,0.001746,0.001301,0.016407,0.000651,  35.859
   573.4,0.001746,0.001302,0.016360,0.000687,  35.864
   573.6,0.001746,0.001307,0.016320,0.000651,  35.874
   573.8,0.001740,0.001304,0.016275,0.000651,  35.860
   574.0,0.001740,0.001306,0.016229,0.000687,  35.851
   574.2,0.001740,0.001314,0.016223,0.000687,  35.853
   574.4,0.001738,0.001316,0.016205,0.000687,  35.848
   574.6,0.001738,0.001311,0.016201,0.000687,  35.847
   574.8,0.001743,0.001315,0.016175,0.000687,  35.846
   575.0,0.001746,0.001313,0.016142,0.000700,  35.840
   575.2,0.001748,0.001319,0.016101,0.000700,  35.834
   575.4,0.001751,0.001324,0.016047,0.000700,  35.837
   575.6,0.001754,0.001324,0.016014,0.000714,  35.836
   575.8,0.001759,0.001326,0.015968,0.000700,  35.837
   576.0,0.001762,0.001330,0.015935,0.000700,  35.832
   576.2,0.001767,0.001342,0.015883,0.000687,  35.840
   576.4,0.001773,0.001346,0.015842,0.000695,  35.840
   576.6,0.001770,0.001345,0.015781,0.000695,  35.843
   576.8,0.001771,0.001351,0.015751,0.000673,  35.840
   577.0,0.001765,0.001346,0.015740,0.000687,  35.839
   577.2,0.001759,0.001342,0.015736,0.000700,  35.843
   577.4,0.001756,0.001340,0.015723,0.000714,  35.843
   577.6,0.001756,0.001335,0.015709,0.000727,  35.850
   577.8,0.001756,0.001329,0.015700,0.000740,  35.842
   578.0,0.001747,0.001334,0.015672,0.000740,  35.846
   578.2,0.001739,0.001334,0.015631,0.000727,  35.853
   578.4,0.001728,0.001328,0.015589,0.000740,  35.852
   578.6,0.001723,0.001323,0.015590,0.000740,  35.845
   578.8,0.001709,0.001319,0.015605,0.000740,  35.843
   579.0,0.001704,0.001310,0.015646,0.000754,  35.844
   579.2,0.001699,0.001297,0.015667,0.000740,  35.846
   579.4,0.001697,0.001291,0.015682,0.000740,  35.854
   579.6,0.001694,0.001289,0.015696,0.000754,  35.861
   579.8,0.001688,0.001291,0.015662,0.000727,  35.879
   580.0,0.001691,0.001289,0.015600,0.000714,  35.897
   580.2,0.001691,0.001287,0.015511,0.000714,  35.890
   580.4,0.001688,0.001288,0.015499,0.000727,  35.870
   580.6,0.001691,0.001291,0.015514,0.000678,  35.871
   580.8,0.001691,0.001287,0.015555,0.000727,  35.868
   581.0,0.001685,0.001289,0.015535,0.000705,  35.863
   581.2,0.001689,0.001289,0.015501,0.000705,  35.858
   581.4,0.001689,0.001289,0.015451,0.000727,  35.846
   581.6,0.001680,0.001286,0.015411,0.000740,  35.848
   581.8,0.001684,0.001285,0.015371,0.000740,  35.853
   582.0,0.001677,0.001284,0.015331,0.000727,  35.856
   582.2,0.001677,0.001284,0.015285,0.000740,  35.861
   582.4,0.001677,0.001285,0.015150,0.000718,  35.857
   582.6,0.001675,0.001287,0.014974,0.000718,  35.855
   582.8,0.001672,0.001289,0.014776,0.000732,  35.860
   583.0,0.001673,0.001291,0.014738,0.000696,  35.855
   583.2,0.001670,0.001291,0.014773,0.000718,  35.865
   583.4,0.001661,0.001289,0.014877,0.000732,  35.859
   583.6,0.001662,0.001283,0.014906,0.000696,  35.859
   583.8,0.001660,0.001285,0.014935,0.000718,  35.862
   584.0,0.001660,0.001283,0.014958,0.000732,  35.861
   584.2,0.001657,0.001279,0.014994,0.000696,  35.870
   584.4,0.001657,0.001279,0.015037,0.000718,  35.870
   584.6,0.001654,0.001273,0.015073,0.000732,  35.869
   584.8,0.001645,0.001266,0.015012,0.000696,  35.871
   585.0,0.001646,0.001263,0.014916,0.000718,  35.871
   585.2,0.001646,0.001259,0.014776,0.000732,  35.868
   585.4,0.001637,0.001262,0.014701,0.000683,  35.872
   585.6,0.001641,0.001262,0.014635,0.000705,  35.882
   585.8,0.001638,0.001262,0.014583,0.000718,  35.892
   586.0,0.001636,0.001263,0.014578,0.000705,  35.891
   586.2,0.001639,0.001261,0.014607,0.000727,  35.887
   586.4,0.001636,0.001256,0.014658,0.000740,  35.880
   586.6,0.001634,0.001254,0.014681,0.000740,  35.876
   586.8,0.001631,0.001254,0.014709,0.000740,  35.874
   587.0,0.001634,0.001250,0.014730,0.000740,  35.873
   587.2,0.001631,0.001254,0.014705,0.000754,  35.877
   587.4,0.001628,0.001252,0.014653,0.000718,  35.881
   587.6,0.001626,0.001246,0.014577,0.000754,  35.875
   587.8,0.001621,0.001241,0.014572,0.000732,  35.877
   588.0,0.001619,0.001235,0.014575,0.000732,  35.871
   588.2,0.001616,0.001235,0.014604,0.000754,  35.874
   588.4,0.001604,0.001226,0.014434,0.000767,  35.875
   588.6,0.001605,0.001229,0.014168,0.000767,  35.880
   588.8,0.001603,0.001229,0.013821,0.000754,  35.877
   589.0,0.001594,0.001222,0.013383,0.000767,  35.872
   589.2,0.001589,0.001220,0.013411,0.000754,  35.873
   589.4,0.001583,0.001217,0.013544,0.000740,  35.883
   589.6,0.001575,0.001208,0.013818,0.000754,  35.878
   589.8,0.001567,0.001204,0.013923,0.000718,  35.879
   590.0,0.001562,0.001200,0.014021,0.000718,  35.882
   590.2,0.001557,0.001199,0.014103,0.000732,  35.883
   590.4,0.001551,0.001193,0.014126,0.000683,  35.887
   590.6,0.001546,0.001188,0.014120,0.000705,  35.889
   590.8,0.001538,0.001187,0.014087,0.000718,  35.888
   591.0,0.001533,0.001180,0.014020,0.000669,  35.885
   591.2,0.001525,0.001171,0.013914,0.000691,  35.891
   591.4,0.001519,0.001164,0.013778,0.000691,  35.894
   591.6,0.001509,0.001153,0.013726,0.000656,  35.895
   591.8,0.001501,0.001144,0.013687,0.000665,  35.901
   592.0,0.001495,0.001142,0.013674,0.000665,  35.912
   592.2,0.001495,0.001144,0.013683,0.000629,  35.935
   592.4,0.001495,0.001142,0.013719,0.000651,  35.920
   592.6,0.001493,0.001139,0.013769,0.000651,  35.904
   592.8,0.001490,0.001139,0.013771,0.000616,  35.895
   593.0,0.001490,0.001142,0.013763,0.000651,  35.896
   593.2,0.001493,0.001140,0.013730,0.000651,  35.894
   593.4,0.001490,0.001141,0.013684,0.000629,  35.893
   593.6,0.001487,0.001142,0.013623,0.000665,  35.892
   593.8,0.001490,0.001138,0.013542,0.000665,  35.896
   594.0,0.001487,0.001137,0.013526,0.000665,  35.898
   594.2,0.001485,0.001135,0.013536,0.000678,  35.899
   594.4,0.001487,0.001128,0.013561,0.000665,  35.896
   594.6,0.001485,0.001131,0.013558,0.000629,  35.890
   594.8,0.001485,0.001126,0.013554,0.000665,  35.893
   595.0,0.001485,0.001128,0.013534,0.000665,  35.892
   595.2,0.001485,0.001128,0.013522,0.000665,  35.899
   595.4,0.001482,0.001132,0.013511,0.000643,  35.899
   595.6,0.001482,0.001127,0.013506,0.000665,  35.903
   595.8,0.001485,0.001128,0.013500,0.000665,  35.892
   596.0,0.001482,0.001130,0.013475,0.000643,  35.896
   596.2,0.001482,0.001130,0.013456,0.000665,  35.901
   596.4,0.001479,0.001134,0.013431,0.000665,  35.899
   596.6,0.001474,0.001136,0.013413,0.000665,  35.898
   596.8,0.001474,0.001136,0.013401,0.000687,  35.892
   597.0,0.001474,0.001134,0.013390,0.000687,  35.889
   597.2,0.001474,0.001136,0.013337,0.000700,  35.895
   597.4,0.001480,0.001144,0.013276,0.000700,  35.888
   597.6,0.001477,0.001150,0.013195,0.000714,  35.894
   597.8,0.001486,0.001155,0.013175,0.000714,  35.897
   598.0,0.001486,0.001156,0.013158,0.000714,  35.902
   598.2,0.001482,0.001155,0.013172,0.000727,  35.897
   598.4,0.001491,0.001159,0.013228,0.000714,  35.880
   598.6,0.001491,0.001159,0.013312,0.000714,  35.881
   598.8,0.001494,0.001155,0.013430,0.000727,  35.871
   599.0,0.001485,0.001154,0.013418,0.000714,  35.870
   599.2,0.001485,0.001153,0.013368,0.000714,  35.869
   599.4,0.001485,0.001148,0.013266,0.000727,  35.860
   599.6,0.001482,0.001147,0.013226,0.000727,  35.848
   599.8,0.001477,0.001143,0.013193,0.000740,  35.840
   600.0,0.001474,0.001143,0.013154,0.000754,  35.827
   600.2,0.001474,0.001145,0.013113,0.000740,  35.830
   600.4,0.001471,0.001136,0.013066,0.000740,  35.829
   600.6,0.001469,0.001139,0.013017,0.000740,  35.824
   600.8,0.001460,0.001139,0.012984,0.000754,  35.815
   601.0,0.001457,0.001133,0.012958,0.000705,  35.809
   601.2,0.001457,0.001136,0.012945,0.000740,  35.798
   601.4,0.001454,0.001132,0.012905,0.000718,  35.776
   601.6,0.001453,0.001130,0.012857,0.000705,  35.778
   601.8,0.001453,0.001132,0.012809,0.000740,  35.773
   602.0,0.001455,0.001130,0.012802,0.000754,  35.770
   602.2,0.001453,0.001128,0.012803,0.000740,  35.768
   602.4,0.001450,0.001125,0.012819,0.000740,  35.763
   602.6,0.001441,0.001121,0.012807,0.000754,  35.764
   602.8,0.001436,0.001125,0.012789,0.000740,  35.762
   603.0,0.001430,0.001121,0.012769,0.000740,  35.758
   603.2,0.001416,0.001118,0.012742,0.000754,  35.759
   603.4,0.001414,0.001115,0.012703,0.000718,  35.752
   603.6,0.001414,0.001110,0.012670,0.000718,  35.749
   603.8,0.001414,0.001110,0.012636,0.000732,  35.755
   604.0,0.001423,0.001111,0.012597,0.000669,  35.768
   604.2,0.001426,0.001111,0.012550,0.000678,  35.784
   604.4,0.001435,0.001115,0.012502,0.000691,  35.800
   604.6,0.001429,0.001115,0.012469,0.000643,  35.783
   604.8,0.001431,0.001115,0.012435,0.000678,  35.758
   605.0,0.001434,0.001116,0.012402,0.000691,  35.750
   605.2,0.001434,0.001119,0.012376,0.000643,  35.748
   605.4,0.001431,0.001118,0.012367,0.000678,  35.745
   605.6,0.001434,0.001115,0.012353,0.000678,  35.744
   605.8,0.001437,0.001116,0.012362,0.000678,  35.728
   606.0,0.001439,0.001122,0.012384,0.000700,  35.726
   606.2,0.001442,0.001124,0.012420,0.000714,  35.737
   606.4,0.001436,0.001124,0.012421,0.000714,  35.736
   606.6,0.001433,0.001122,0.012396,0.000714,  35.733
   606.8,0.001436,0.001119,0.012363,0.000727,  35.740
   607.0,0.001427,0.001117,0.012343,0.000727,  35.744
   607.2,0.001430,0.001113,0.012310,0.000727,  35.753
   607.4,0.001430,0.001110,0.012275,0.000727,  35.756
   607.6,0.001428,0.001119,0.012262,0.000740,  35.765
   607.8,0.001431,0.001115,0.012244,0.000705,  35.757
   608.0,0.001431,0.001110,0.012232,0.000740,  35.761
   608.2,0.001431,0.001106,0.012214,0.000718,  35.771
   608.4,0.001429,0.001099,0.012188,0.000705,  35.774
   608.6,0.001426,0.001097,0.012180,0.000740,  35.777
   608.8,0.001421,0.001095,0.012160,0.000754,  35.783
   609.0,0.001419,0.001100,0.012128,0.000718,  35.781
   609.2,0.001414,0.001094,0.012096,0.000718,  35.790
   609.4,0.001402,0.001090,0.012103,0.000732,  35.799
   609.6,0.001406,0.001086,0.012119,0.000683,  35.798
   609.8,0.001403,0.001082,0.012161,0.000705,  35.809
   610.0,0.001394,0.001082,0.012210,0.000683,  35.822
   610.2,0.001391,0.001077,0.012216,0.000683,  35.836
   610.4,0.001391,0.001075,0.012190,0.000696,  35.828
   610.6,0.001389,0.001075,0.012152,0.000661,  35.825
   610.8,0.001390,0.001075,0.012111,0.000696,  35.827
   611.0,0.001387,0.001075,0.012063,0.000683,  35.830
   611.2,0.001377,0.001070,0.012008,0.000661,  35.841
   611.4,0.001381,0.001070,0.012002,0.000696,  35.839
   611.6,0.001375,0.001069,0.012018,0.000683,  35.841
   611.8,0.001372,0.001066,0.012055,0.000661,  35.848
   612.0,0.001360,0.001067,0.012091,0.000696,  35.858
   612.2,0.001364,0.001063,0.012133,0.000683,  35.864
   612.4,0.001364,0.001061,0.012175,0.000661,  35.868
   612.6,0.001355,0.001061,0.012157,0.000696,  35.872
   612.8,0.001361,0.001052,0.012103,0.000683,  35.880
   613.0,0.001361,0.001052,0.012023,0.000661,  35.877
   613.2,0.001352,0.001052,0.011971,0.000683,  35.881
   613.4,0.001353,0.001048,0.011917,0.000669,  35.886
   613.6,0.001351,0.001046,0.011857,0.000647,  35.892
   613.8,0.001342,0.001048,0.011818,0.000669,  35.891
   614.0,0.001345,0.001048,0.011791,0.000669,  35.893
   614.2,0.001343,0.001048,0.011758,0.000669,  35.899
   614.4,0.001340,0.001048,0.011705,0.000647,  35.891
   614.6,0.001346,0.001051,0.011652,0.000669,  35.895
   614.8,0.001343,0.001049,0.011585,0.000669,  35.898
   615.0,0.001336,0.001045,0.011546,0.000683,  35.902
   615.2,0.001328,0.001041,0.011532,0.000669,  35.906
   615.4,0.001325,0.001035,0.011514,0.000669,  35.909
   615.6,0.001320,0.001031,0.011495,0.000647,  35.906
   615.8,0.001317,0.001025,0.011471,0.000669,  35.907
   616.0,0.001320,0.001027,0.011464,0.000669,  35.917
   616.2,0.001317,0.001027,0.011451,0.000669,  35.926
   616.4,0.001317,0.001026,0.011438,0.000643,  35.942
   616.6,0.001320,0.001026,0.011426,0.000651,  35.962
   616.8,0.001322,0.001025,0.011408,0.000651,  35.946
   617.0,0.001328,0.001032,0.011409,0.000616,  35.933
   617.2,0.001330,0.001036,0.011405,0.000651,  35.935
   617.4,0.001330,0.001035,0.011419,0.000665,  35.937
   617.6,0.001330,0.001037,0.011413,0.000629,  35.936
   617.8,0.001330,0.001037,0.011393,0.000678,  35.941
   618.0,0.001330,0.001039,0.011377,0.000691,  35.940
   618.2,0.001333,0.001038,0.011351,0.000643,  35.939
   618.4,0.001330,0.001038,0.011306,0.000678,  35.945
   618.6,0.001330,0.001032,0.011253,0.000691,  35.949
   618.8,0.001330,0.001029,0.011098,0.000678,  35.948
   619.0,0.001328,0.001027,0.010886,0.000714,  35.950
   619.2,0.001325,0.001024,0.010608,0.000727,  35.957
   619.4,0.001322,0.001027,0.010590,0.000727,  35.954
   619.6,0.001322,0.001027,0.010679,0.000727,  35.958
   619.8,0.001325,0.001027,0.010871,0.000740,  35.959
   620.0,0.001322,0.001025,0.010933,0.000740,  35.964
   620.2,0.001320,0.001022,0.010988,0.000727,  35.968
   620.4,0.001320,0.001020,0.011028,0.000740,  35.970
   620.6,0.001320,0.001020,0.011050,0.000740,  35.968
   620.8,0.001314,0.001019,0.011059,0.000740,  35.973
   621.0,0.001312,0.001014,0.011046,0.000754,  35.972
   621.2,0.001309,0.001018,0.011048,0.000740,  35.976
   621.4,0.001301,0.001018,0.011055,0.000740,  35.978
   621.6,0.001301,0.001015,0.011049,0.000740,  35.982
   621.8,0.001298,0.001015,0.011050,0.000754,  35.984
   622.0,0.001298,0.001010,0.011033,0.000691,  35.992
   622.2,0.001301,0.001011,0.011027,0.000727,  35.994
   622.4,0.001296,0.001008,0.011028,0.000705,  36.002
   622.6,0.001293,0.001008,0.011017,0.000705,  35.996
   622.8,0.001293,0.001002,0.011018,0.000727,  35.994
   623.0,0.001293,0.001001,0.011005,0.000740,  35.994
   623.2,0.001290,0.000999,0.010985,0.000740,  35.997
   623.4,0.001290,0.001002,0.010972,0.000727,  36.004
   623.6,0.001290,0.001000,0.010950,0.000740,  36.008
   623.8,0.001285,0.001000,0.010903,0.000705,  36.008
   624.0,0.001285,0.000996,0.010842,0.000691,  36.013
   624.2,0.001279,0.001000,0.010756,0.000691,  36.017
   624.4,0.001276,0.001000,0.010703,0.000678,  36.016
   624.6,0.001273,0.000998,0.010664,0.000673,  36.021
   624.8,0.001273,0.000999,0.010632,0.000673,  36.032
   625.0,0.001277,0.001002,0.010620,0.000700,  36.036
   625.2,0.001274,0.000999,0.010622,0.000700,  36.038
   625.4,0.001283,0.000994,0.010649,0.000714,  36.041
   625.6,0.001274,0.000996,0.010672,0.000714,  36.045
   625.8,0.001274,0.000993,0.010707,0.000714,  36.042
   626.0,0.001272,0.000991,0.010743,0.000714,  36.045
   626.2,0.001266,0.000985,0.010731,0.000714,  36.050
   626.4,0.001261,0.000981,0.010698,0.000700,  36.051
   626.6,0.001258,0.000981,0.010638,0.000700,  36.050
   626.8,0.001258,0.000981,0.010572,0.000714,  36.053
   627.0,0.001253,0.000974,0.010503,0.000700,  36.050
   627.2,0.001250,0.000972,0.010409,0.000700,  36.053
   627.4,0.001245,0.000975,0.010377,0.000714,  36.048
   627.6,0.001237,0.000975,0.010365,0.000700,  36.048
   627.8,0.001237,0.000971,0.010380,0.000700,  36.044
   628.0,0.001237,0.000965,0.010342,0.000714,  36.044
   628.2,0.001234,0.000968,0.010315,0.000700,  36.052
   628.4,0.001237,0.000973,0.010274,0.000700,  36.059
   628.6,0.001236,0.000971,0.010263,0.000700,  36.062
   628.8,0.001241,0.000971,0.010272,0.000678,  36.071
   629.0,0.001244,0.000974,0.010306,0.000700,  36.053
   629.2,0.001240,0.000982,0.010239,0.000665,  36.046
   629.4,0.001249,0.000983,0.010125,0.000665,  36.041
   629.6,0.001252,0.000983,0.009974,0.000700,  36.037
   629.8,0.001255,0.000982,0.009962,0.000700,  36.037
   630.0,0.001261,0.000987,0.009984,0.000700,  36.032
   630.2,0.001266,0.000991,0.010072,0.000687,  36.036
   630.4,0.001269,0.000990,0.010195,0.000700,  36.030
   630.6,0.001269,0.000992,0.010217,0.000700,  36.029
   630.8,0.001272,0.000994,0.010231,0.000714,  36.031
   631.0,0.001272,0.000994,0.010225,0.000727,  36.029
   631.2,0.001272,0.000995,0.010193,0.000705,  36.027
   631.4,0.001274,0.000997,0.010152,0.000718,  36.026
   631.6,0.001274,0.001000,0.010096,0.000732,  36.014
   631.8,0.001272,0.001002,0.010076,0.000683,  36.015
   632.0,0.001272,0.001002,0.010076,0.000705,  36.010
   632.2,0.001269,0.001003,0.010090,0.000718,  36.015
   632.4,0.001266,0.000998,0.010106,0.000669,  36.016
   632.6,0.001261,0.000992,0.010139,0.000691,  36.016
   632.8,0.001258,0.000991,0.010174,0.000705,  36.014
   633.0,0.001250,0.000986,0.010182,0.000656,  36.003
   633.2,0.001242,0.000978,0.010189,0.000678,  36.008
   633.4,0.001237,0.000976,0.010177,0.000691,  36.006
   633.6,0.001234,0.000969,0.010158,0.000643,  36.009
   633.8,0.001232,0.000965,0.010151,0.000678,  36.002
   634.0,0.001229,0.000965,0.010130,0.000691,  35.998
   634.2,0.001220,0.000958,0.010111,0.000643,  36.002
   634.4,0.001217,0.000954,0.010099,0.000678,  36.007
   634.6,0.001217,0.000954,0.010091,0.000678,  36.005
   634.8,0.001209,0.000947,0.010079,0.000643,  35.999
   635.0,0.001207,0.000945,0.010073,0.000665,  35.993
   635.2,0.001204,0.000942,0.010067,0.000651,  35.993
   635.4,0.001195,0.000936,0.010069,0.000665,  35.990
   635.6,0.001193,0.000929,0.010090,0.000665,  35.986
   635.8,0.001188,0.000925,0.010105,0.000665,  35.985
   636.0,0.001177,0.000923,0.010067,0.000629,  35.980
   636.2,0.001178,0.000919,0.010006,0.000665,  35.984
   636.4,0.001172,0.000918,0.009925,0.000665,  35.980
   636.6,0.001163,0.000914,0.009884,0.000665,  35.975
   636.8,0.001164,0.000915,0.009839,0.000629,  35.977
   637.0,0.001164,0.000908,0.009806,0.000651,  35.972
   637.2,0.001164,0.000909,0.009774,0.000651,  35.969
   637.4,0.001165,0.000902,0.009755,0.000616,  35.965
   637.6,0.001162,0.000896,0.009742,0.000651,  35.963
   637.8,0.001162,0.000903,0.009725,0.000616,  35.949
   638.0,0.001163,0.000906,0.009720,0.000629,  35.935
   638.2,0.001166,0.000903,0.009716,0.000629,  35.931
   638.4,0.001160,0.000905,0.009711,0.000594,  35.923
   638.6,0.001169,0.000903,0.009652,0.000629,  35.916
   638.8,0.001162,0.000903,0.009558,0.000616,  35.909
   639.0,0.001160,0.000903,0.009437,0.000616,  35.900
   639.2,0.001151,0.000904,0.009452,0.000616,  35.895
   639.4,0.001152,0.000901,0.009509,0.000651,  35.865
   639.6,0.001147,0.000897,0.009615,0.000651,  35.860
   639.8,0.001144,0.000904,0.009605,0.000616,  35.850
   640.0,0.001139,0.000898,0.009564,0.000638,  35.842
   640.2,0.001139,0.000892,0.009490,0.000625,  35.833
   640.4,0.001139,0.000890,0.009412,0.000589,  35.829
   640.6,0.001139,0.000890,0.009338,0.000611,  35.836
   640.8,0.001139,0.000889,0.009245,0.000598,  35.835
   641.0,0.001139,0.000887,0.009200,0.000562,  35.834
   641.2,0.001145,0.000888,0.009193,0.000611,  35.803
   641.4,0.001145,0.000895,0.009200,0.000625,  35.770
   641.6,0.001141,0.000893,0.009181,0.000589,  35.760
   641.8,0.001150,0.000892,0.009173,0.000625,  35.735
   642.0,0.001150,0.000899,0.009145,0.000625,  35.725
   642.2,0.001147,0.000901,0.009085,0.000638,  35.719
   642.4,0.001153,0.000900,0.008997,0.000625,  35.711
   642.6,0.001153,0.000904,0.008889,0.000625,  35.708
   642.8,0.001155,0.000908,0.008876,0.000589,  35.702
   643.0,0.001159,0.000910,0.008898,0.000625,  35.692
   643.2,0.001159,0.000908,0.008948,0.000625,  35.687
   643.4,0.001155,0.000912,0.008740,0.000625,  35.676
   643.6,0.001153,0.000910,0.008432,0.000602,  35.667
   643.8,0.001153,0.000908,0.007996,0.000638,  35.661
   644.0,0.001155,0.000908,0.007454,0.000638,  35.654
   644.2,0.001159,0.000910,0.007502,0.000616,  35.651
   644.4,0.001159,0.000907,0.007716,0.000651,  35.645
   644.6,0.001162,0.000909,0.008100,0.000629,  35.635
   644.8,0.001159,0.000907,0.008241,0.000629,  35.634
   645.0,0.001159,0.000903,0.008336,0.000643,  35.628
   645.2,0.001159,0.000904,0.008396,0.000620,  35.616
   645.4,0.001154,0.000909,0.008486,0.000643,  35.609
   645.6,0.001154,0.000905,0.008574,0.000643,  35.606
   645.8,0.001145,0.000901,0.008663,0.000607,  35.606
   646.0,0.001145,0.000897,0.008556,0.000643,  35.597
   646.2,0.001142,0.000895,0.008348,0.000629,  35.590
   646.4,0.001139,0.000896,0.008057,0.000594,  35.612
   646.6,0.001147,0.000902,0.007983,0.000643,  35.620
   646.8,0.001150,0.000902,0.007963,0.000629,  35.609
   647.0,0.001155,0.000902,0.008015,0.000629,  35.595
   647.2,0.001149,0.000904,0.008083,0.000629,  35.589
   647.4,0.001155,0.000904,0.008184,0.000651,  35.578
   647.6,0.001158,0.000906,0.008320,0.000651,  35.576
   647.8,0.001152,0.000910,0.008362,0.000629,  35.579
   648.0,0.001161,0.000907,0.008383,0.000665,  35.585
   648.2,0.001163,0.000909,0.008377,0.000665,  35.581
   648.4,0.001154,0.000907,0.008366,0.000643,  35.583
   648.6,0.001161,0.000903,0.008352,0.000665,  35.582
   648.8,0.001163,0.000900,0.008319,0.000665,  35.582
   649.0,0.001158,0.000903,0.008220,0.000665,  35.578
   649.2,0.001162,0.000903,0.008093,0.000678,  35.586
   649.4,0.001162,0.000902,0.007933,0.000665,  35.585
   649.6,0.001162,0.000902,0.007935,0.000629,  35.586
   649.8,0.001159,0.000902,0.008010,0.000665,  35.586
   650.0,0.001159,0.000900,0.008163,0.000665,  35.590
   650.2,0.001162,0.000903,0.008210,0.000665,  35.594
   650.4,0.001159,0.000906,0.008244,0.000643,  35.591
   650.6,0.001159,0.000908,0.008264,0.000665,  35.591
   650.8,0.001162,0.000906,0.008258,0.000665,  35.593
   651.0,0.001159,0.000911,0.008279,0.000643,  35.591
   651.2,0.001156,0.000909,0.008291,0.000665,  35.591
   651.4,0.001154,0.000912,0.008292,0.000665,  35.587
