Run Name,50 % Run 1 Group 1
Run Date,02:09:18 PM   01-31-13
Method Name,50%B-Isocratic
Export Format Version, 1.00
Method ID, 1528
Points/Second, 5.00
Number of Records,   1920
Offset from Run Start Time,00:00:00
Run End Time,00:06:24
Time,Second
QuadTec 1, (280.0 nm), AU
QuadTec 2, (260.0 nm), AU
Gradient Pump,<Not Selected>
QuadTec 3, (214.0 nm), AU
QuadTec 4, (405.0 nm), AU
Conductivity,mS/cm
Trace 6,<Not Available>
GP Pressure,<Not Selected>
Volume,<Not Selected>
Fraction,<Not Available>
Time,QuadTec 1,QuadTec 2,QuadTec 3,QuadTec 4,Conductivity
     0.0,-0.000890,-0.365396,0.061714,0.000000,  47.946
     0.2,-0.000882,-0.365396,0.061714,0.000000,  47.941
     0.4,-0.000883,-0.365490,0.061714,0.000000,  47.949
     0.6,-0.000846,-0.365685,0.061714,0.000000,  47.937
     0.8,0.000000,-0.365685,0.000000,0.000000,  47.935
     1.0,0.000000,0.000000,0.000000,0.000000,  47.939
     1.2,0.000000,0.000000,0.000000,0.000000,  47.932
     1.4,0.000000,0.000000,0.000000,0.000000,  47.936
     1.6,0.000000,0.000000,0.000000,0.000000,  47.936
     1.8,0.000000,0.000000,0.000000,0.000000,  47.941
     2.0,0.000000,0.000000,0.000000,0.000000,  47.939
     2.2,0.000000,0.000000,0.000000,0.000000,  47.942
     2.4,0.000000,0.000000,0.000000,0.000000,  47.941
     2.6,0.000000,0.000000,0.000000,0.000000,  47.945
     2.8,0.000000,0.000000,0.000000,0.000000,  47.946
     3.0,0.000000,0.000000,0.000000,0.000000,  47.945
     3.2,0.000000,0.000000,0.000000,0.000000,  47.947
     3.4,0.000000,0.000000,0.000000,0.000000,  47.955
     3.6,0.000000,0.000000,0.000000,0.000000,  47.970
     3.8,0.000000,0.000000,0.000000,0.000000,  47.993
     4.0,0.000000,0.000000,0.000000,0.000000,  47.984
     4.2,0.000000,0.000000,0.000000,0.000000,  47.966
     4.4,-0.000007,0.000000,0.000000,-0.000022,  47.956
     4.6,-0.000014,-0.000003,0.000042,-0.000009,  47.960
     4.8,-0.000014,-0.000003,-0.000607,-0.000009,  47.958
     5.0,-0.000020,-0.000008,-0.001051,-0.000044,  47.957
     5.2,-0.000016,-0.000003,-0.001306,-0.000078,  47.964
     5.4,-0.000022,-0.000010,-0.001379,-0.000053,  47.964
     5.6,-0.000024,-0.000006,-0.001246,-0.000053,  47.965
     5.8,-0.000024,-0.000008,-0.000922,-0.000087,  47.964
     6.0,-0.000021,-0.000011,-0.000838,-0.000087,  47.966
     6.2,-0.000021,-0.000013,-0.000775,-0.000065,  47.968
     6.4,-0.000026,-0.000020,-0.000743,-0.000053,  47.970
     6.6,-0.000022,-0.000021,-0.000677,-0.000087,  47.975
     6.8,-0.000019,-0.000021,-0.000605,-0.000074,  47.977
     7.0,-0.000026,-0.000024,-0.000538,-0.000062,  47.976
     7.2,-0.000023,-0.000019,-0.000491,-0.000096,  47.976
     7.4,-0.000021,-0.000024,-0.000469,-0.000049,  47.975
     7.6,-0.000027,-0.000017,-0.000455,-0.000024,  47.985
     7.8,-0.000021,-0.000019,-0.000464,-0.000058,  47.996
     8.0,-0.000018,-0.000029,-0.000476,-0.000046,  48.006
     8.2,-0.000018,-0.000024,-0.000507,-0.000033,  48.030
     8.4,-0.000014,-0.000029,-0.000524,-0.000033,  48.017
     8.6,-0.000018,-0.000035,-0.000529,-0.000046,  47.996
     8.8,-0.000018,-0.000033,-0.000534,-0.000046,  48.000
     9.0,-0.000024,-0.000030,-0.000525,-0.000067,  48.007
     9.2,-0.000031,-0.000029,-0.000497,-0.000055,  48.001
     9.4,-0.000024,-0.000029,-0.000451,-0.000055,  47.997
     9.6,-0.000027,-0.000028,-0.000450,-0.000077,  48.003
     9.8,-0.000029,-0.000026,-0.000455,-0.000042,  48.007
    10.0,-0.000029,-0.000028,-0.000473,-0.000077,  48.003
    10.2,-0.000032,-0.000029,-0.000453,-0.000064,  48.007
    10.4,-0.000035,-0.000042,-0.000421,-0.000077,  48.009
    10.6,-0.000034,-0.000040,-0.000383,-0.000111,  48.010
    10.8,-0.000029,-0.000047,-0.000408,-0.000064,  48.017
    11.0,-0.000035,-0.000053,-0.000464,-0.000077,  48.013
    11.2,-0.000035,-0.000050,-0.000552,-0.000098,  48.014
    11.4,-0.000035,-0.000043,-0.000525,-0.000086,  48.009
    11.6,-0.000033,-0.000044,-0.000471,-0.000086,  48.015
    11.8,-0.000030,-0.000047,-0.000373,-0.000073,  48.018
    12.0,-0.000028,-0.000046,-0.000357,-0.000095,  48.028
    12.2,-0.000025,-0.000047,-0.000363,-0.000069,  48.033
    12.4,-0.000020,-0.000045,-0.000387,-0.000069,  48.047
    12.6,-0.000017,-0.000047,-0.000392,-0.000104,  48.037
    12.8,-0.000015,-0.000049,-0.000408,-0.000082,  48.024
    13.0,-0.000009,-0.000046,-0.000402,-0.000107,  48.020
    13.2,-0.000009,-0.000043,-0.000414,-0.000129,  48.025
    13.4,-0.000009,-0.000050,-0.000462,-0.000129,  48.022
    13.6,-0.000007,-0.000051,-0.000514,-0.000104,  48.030
    13.8,-0.000013,-0.000047,-0.000585,-0.000126,  48.032
    14.0,-0.000013,-0.000051,-0.000615,-0.000113,  48.032
    14.2,-0.000013,-0.000056,-0.000639,-0.000079,  48.036
    14.4,-0.000018,-0.000051,-0.000649,-0.000113,  48.030
    14.6,-0.000020,-0.000053,-0.000622,-0.000100,  48.036
    14.8,-0.000022,-0.000055,-0.000570,-0.000100,  48.034
    15.0,-0.000022,-0.000057,-0.000498,-0.000088,  48.041
    15.2,-0.000025,-0.000056,-0.000560,-0.000075,  48.043
    15.4,-0.000016,-0.000055,-0.000691,-0.000075,  48.042
    15.6,-0.000016,-0.000053,-0.000881,-0.000097,  48.047
    15.8,-0.000013,-0.000046,-0.000900,-0.000084,  48.046
    16.0,-0.000005,-0.000042,-0.000872,-0.000084,  48.046
    16.2,0.000001,-0.000044,-0.000783,-0.000106,  48.048
    16.4,-0.000006,-0.000042,-0.000717,-0.000106,  48.067
    16.6,-0.000003,-0.000043,-0.000632,-0.000072,  48.077
    16.8,-0.000003,-0.000045,-0.000534,-0.000059,  48.103
    17.0,0.000003,-0.000042,-0.000526,-0.000046,  48.086
    17.2,-0.000000,-0.000044,-0.000540,-0.000046,  48.080
    17.4,0.000002,-0.000040,-0.000603,-0.000034,  48.081
    17.6,0.000011,-0.000039,-0.000588,-0.000055,  48.086
    17.8,0.000010,-0.000038,-0.000549,-0.000068,  48.082
    18.0,0.000016,-0.000028,-0.000503,-0.000068,  48.078
    18.2,0.000023,-0.000023,-0.000494,-0.000090,  48.086
    18.4,0.000023,-0.000026,-0.000493,-0.000055,  48.083
    18.6,0.000023,-0.000024,-0.000506,-0.000055,  48.087
    18.8,0.000017,-0.000028,-0.000562,-0.000090,  48.086
    19.0,0.000015,-0.000033,-0.000651,-0.000068,  48.088
    19.2,0.000015,-0.000035,-0.000760,-0.000055,  48.093
    19.4,0.000009,-0.000036,-0.000727,-0.000090,  48.092
    19.6,0.000012,-0.000036,-0.000643,-0.000077,  48.093
    19.8,0.000009,-0.000036,-0.000507,-0.000064,  48.092
    20.0,0.000017,-0.000034,-0.000569,-0.000064,  48.093
    20.2,0.000017,-0.000030,-0.000695,-0.000052,  48.095
    20.4,0.000016,-0.000033,-0.000899,-0.000039,  48.096
    20.6,0.000016,-0.000029,-0.000878,-0.000074,  48.104
    20.8,0.000016,-0.000026,-0.000774,-0.000061,  48.114
    21.0,0.000015,-0.000027,-0.000582,-0.000048,  48.117
    21.2,0.000024,-0.000024,-0.000535,-0.000083,  48.100
    21.4,0.000033,-0.000024,-0.000520,-0.000048,  48.096
    21.6,0.000027,-0.000024,-0.000526,-0.000048,  48.095
    21.8,0.000033,-0.000026,-0.000531,-0.000070,  48.092
    22.0,0.000031,-0.000027,-0.000537,-0.000023,  48.092
    22.2,0.000024,-0.000027,-0.000556,-0.000057,  48.097
    22.4,0.000033,-0.000030,-0.000516,-0.000092,  48.100
    22.6,0.000031,-0.000033,-0.000445,-0.000079,  48.098
    22.8,0.000019,-0.000035,-0.000349,-0.000079,  48.101
    23.0,0.000020,-0.000040,-0.000226,-0.000114,  48.099
    23.2,0.000007,-0.000048,-0.000334,-0.000101,  48.101
    23.4,0.000001,-0.000048,-0.000517,-0.000079,  48.105
    23.6,0.000007,-0.000044,-0.000766,-0.000101,  48.102
    23.8,0.000010,-0.000047,-0.000811,-0.000101,  48.103
    24.0,0.000006,-0.000054,-0.000802,-0.000067,  48.108
    24.2,0.000012,-0.000050,-0.000729,-0.000088,  48.102
    24.4,0.000012,-0.000051,-0.000696,-0.000088,  48.104
    24.6,0.000009,-0.000060,-0.000650,-0.000088,  48.105
    24.8,0.000006,-0.000060,-0.000596,-0.000110,  48.113
    25.0,0.000003,-0.000060,-0.000607,-0.000097,  48.121
    25.2,-0.000000,-0.000062,-0.000650,-0.000097,  48.133
    25.4,-0.000000,-0.000062,-0.000721,-0.000119,  48.131
    25.6,0.000009,-0.000062,-0.000719,-0.000119,  48.116
    25.8,0.000005,-0.000065,-0.000704,-0.000119,  48.112
    26.0,0.000009,-0.000067,-0.000665,-0.000107,  48.118
    26.2,0.000015,-0.000062,-0.000682,-0.000107,  48.115
    26.4,0.000011,-0.000065,-0.000724,-0.000107,  48.113
    26.6,0.000015,-0.000062,-0.000774,-0.000094,  48.112
    26.8,0.000019,-0.000058,-0.000747,-0.000094,  48.112
    27.0,0.000013,-0.000061,-0.000686,-0.000107,  48.114
    27.2,0.000015,-0.000067,-0.000589,-0.000141,  48.114
    27.4,0.000003,-0.000073,-0.000536,-0.000141,  48.113
    27.6,-0.000005,-0.000082,-0.000490,-0.000141,  48.115
    27.8,-0.000005,-0.000084,-0.000450,-0.000176,  48.112
    28.0,-0.000014,-0.000090,-0.000486,-0.000163,  48.113
    28.2,-0.000014,-0.000093,-0.000551,-0.000116,  48.115
    28.4,-0.000018,-0.000098,-0.000671,-0.000103,  48.116
    28.6,-0.000011,-0.000096,-0.000706,-0.000103,  48.114
    28.8,-0.000009,-0.000094,-0.000705,-0.000090,  48.119
    29.0,-0.000012,-0.000097,-0.000690,-0.000078,  48.123
    29.2,-0.000006,-0.000090,-0.000669,-0.000078,  48.134
    29.4,-0.000003,-0.000089,-0.000635,-0.000078,  48.142
    29.6,-0.000007,-0.000088,-0.000583,-0.000065,  48.133
    29.8,0.000002,-0.000080,-0.000600,-0.000087,  48.123
    30.0,0.000008,-0.000075,-0.000651,-0.000087,  48.126
    30.2,0.000007,-0.000072,-0.000721,-0.000087,  48.119
    30.4,0.000010,-0.000070,-0.000759,-0.000109,  48.116
    30.6,0.000016,-0.000073,-0.000797,-0.000096,  48.115
    30.8,0.000012,-0.000069,-0.000829,-0.000083,  48.115
    31.0,0.000015,-0.000071,-0.000872,-0.000071,  48.119
    31.2,0.000017,-0.000079,-0.000890,-0.000092,  48.116
    31.4,0.000014,-0.000080,-0.000890,-0.000118,  48.114
    31.6,0.000017,-0.000080,-0.000882,-0.000118,  48.118
    31.8,0.000015,-0.000078,-0.000893,-0.000127,  48.115
    32.0,0.000014,-0.000078,-0.000906,-0.000092,  48.117
    32.2,0.000020,-0.000076,-0.000913,-0.000092,  48.111
    32.4,0.000023,-0.000076,-0.000903,-0.000114,  48.112
    32.6,0.000023,-0.000074,-0.000870,-0.000092,  48.108
    32.8,0.000036,-0.000072,-0.000824,-0.000080,  48.106
    33.0,0.000048,-0.000070,-0.000784,-0.000102,  48.106
    33.2,0.000050,-0.000065,-0.000731,-0.000054,  48.111
    33.4,0.000040,-0.000061,-0.000684,-0.000076,  48.111
    33.6,0.000042,-0.000061,-0.000657,-0.000076,  48.123
    33.8,0.000041,-0.000064,-0.000642,-0.000064,  48.137
    34.0,0.000046,-0.000063,-0.000646,-0.000098,  48.121
    34.2,0.000048,-0.000063,-0.000669,-0.000064,  48.106
    34.4,0.000045,-0.000064,-0.000694,-0.000064,  48.105
    34.6,0.000047,-0.000062,-0.000738,-0.000085,  48.116
    34.8,0.000047,-0.000056,-0.000794,-0.000038,  48.105
    35.0,0.000044,-0.000054,-0.000846,-0.000038,  48.103
    35.2,0.000044,-0.000057,-0.000916,-0.000060,  48.098
    35.4,0.000050,-0.000064,-0.000908,-0.000047,  48.102
    35.6,0.000038,-0.000064,-0.000851,-0.000060,  48.102
    35.8,0.000031,-0.000064,-0.000762,-0.000095,  48.098
    36.0,0.000026,-0.000061,-0.000754,-0.000095,  48.098
    36.2,0.000026,-0.000067,-0.000766,-0.000095,  48.092
    36.4,0.000026,-0.000066,-0.000791,-0.000116,  48.096
    36.6,0.000034,-0.000062,-0.000771,-0.000069,  48.093
    36.8,0.000039,-0.000063,-0.000744,-0.000057,  48.093
    37.0,0.000045,-0.000057,-0.000704,-0.000078,  48.091
    37.2,0.000047,-0.000054,-0.000709,-0.000044,  48.088
    37.4,0.000053,-0.000052,-0.000720,-0.000044,  48.090
    37.6,0.000051,-0.000046,-0.000746,-0.000066,  48.101
    37.8,0.000057,-0.000046,-0.000745,-0.000066,  48.111
    38.0,0.000066,-0.000044,-0.000737,-0.000053,  48.116
    38.2,0.000062,-0.000042,-0.000723,-0.000040,  48.103
    38.4,0.000071,-0.000037,-0.000695,-0.000075,  48.093
    38.6,0.000080,-0.000038,-0.000649,-0.000028,  48.091
    38.8,0.000085,-0.000035,-0.000596,-0.000028,  48.084
    39.0,0.000088,-0.000027,-0.000607,-0.000049,  48.084
    39.2,0.000099,-0.000028,-0.000626,-0.000062,  48.083
    39.4,0.000104,-0.000029,-0.000671,-0.000062,  48.084
    39.6,0.000098,-0.000026,-0.000613,-0.000097,  48.082
    39.8,0.000104,-0.000027,-0.000522,-0.000071,  48.080
    40.0,0.000107,-0.000031,-0.000380,-0.000071,  48.082
    40.2,0.000098,-0.000027,-0.000213,-0.000093,  48.079
    40.4,0.000102,-0.000025,-0.000237,-0.000093,  48.080
    40.6,0.000104,-0.000027,-0.000325,-0.000059,  48.083
    40.8,0.000098,-0.000026,-0.000465,-0.000046,  48.079
    41.0,0.000104,-0.000024,-0.000521,-0.000080,  48.078
    41.2,0.000107,-0.000026,-0.000564,-0.000068,  48.081
    41.4,0.000101,-0.000024,-0.000596,-0.000042,  48.080
    41.6,0.000110,-0.000021,-0.000613,-0.000077,  48.079
    41.8,0.000112,-0.000019,-0.000624,-0.000030,  48.085
    42.0,0.000106,-0.000017,-0.000610,-0.000017,  48.095
    42.2,0.000112,-0.000018,-0.000615,-0.000039,  48.107
    42.4,0.000115,-0.000016,-0.000620,-0.000039,  48.112
    42.6,0.000108,-0.000022,-0.000625,-0.000039,  48.091
    42.8,0.000112,-0.000020,-0.000598,-0.000039,  48.082
    43.0,0.000112,-0.000018,-0.000576,-0.000039,  48.081
    43.2,0.000106,-0.000023,-0.000536,-0.000039,  48.083
    43.4,0.000112,-0.000022,-0.000554,-0.000026,  48.080
    43.6,0.000112,-0.000027,-0.000611,-0.000026,  48.080
    43.8,0.000111,-0.000025,-0.000700,-0.000013,  48.081
    44.0,0.000120,-0.000023,-0.000711,-0.000013,  48.083
    44.2,0.000117,-0.000032,-0.000698,-0.000013,  48.082
    44.4,0.000106,-0.000038,-0.000671,-0.000001,  48.083
    44.6,0.000104,-0.000041,-0.000670,-0.000035,  48.082
    44.8,0.000104,-0.000042,-0.000674,-0.000035,  48.074
    45.0,0.000095,-0.000045,-0.000679,-0.000057,  48.077
    45.2,0.000104,-0.000044,-0.000703,-0.000057,  48.079
    45.4,0.000104,-0.000042,-0.000734,-0.000057,  48.078
    45.6,0.000101,-0.000042,-0.000784,-0.000079,  48.081
    45.8,0.000110,-0.000037,-0.000775,-0.000079,  48.077
    46.0,0.000112,-0.000039,-0.000729,-0.000066,  48.084
    46.2,0.000115,-0.000039,-0.000663,-0.000088,  48.092
    46.4,0.000111,-0.000028,-0.000667,-0.000075,  48.108
    46.6,0.000117,-0.000027,-0.000691,-0.000041,  48.103
    46.8,0.000120,-0.000030,-0.000723,-0.000028,  48.088
    47.0,0.000120,-0.000030,-0.000709,-0.000028,  48.088
    47.2,0.000129,-0.000027,-0.000681,-0.000050,  48.086
    47.4,0.000132,-0.000027,-0.000635,-0.000050,  48.084
    47.6,0.000134,-0.000024,-0.000652,-0.000025,  48.087
    47.8,0.000137,-0.000024,-0.000702,-0.000072,  48.089
    48.0,0.000139,-0.000028,-0.000778,-0.000037,  48.086
    48.2,0.000139,-0.000026,-0.000783,-0.000059,  48.088
    48.4,0.000137,-0.000022,-0.000762,-0.000025,  48.090
    48.6,0.000142,-0.000021,-0.000723,-0.000025,  48.089
    48.8,0.000145,-0.000012,-0.000654,-0.000046,  48.092
    49.0,0.000147,-0.000010,-0.000755,-0.000034,  48.095
    49.2,0.000152,-0.000008,-0.000901,-0.000034,  48.093
    49.4,0.000158,-0.000006,-0.001104,-0.000043,  48.099
    49.6,0.000160,-0.000001,-0.001116,-0.000030,  48.098
    49.8,0.000165,0.000003,-0.001069,-0.000030,  48.094
    50.0,0.000171,0.000006,-0.000946,-0.000005,  48.096
    50.2,0.000173,0.000010,-0.000900,0.000008,  48.097
    50.4,0.000178,0.000014,-0.000859,0.000008,  48.104
    50.6,0.000181,0.000011,-0.000818,-0.000014,  48.114
    50.8,0.000181,0.000014,-0.000823,-0.000014,  48.128
    51.0,0.000186,0.000009,-0.000854,-0.000001,  48.124
    51.2,0.000189,0.000013,-0.000906,-0.000023,  48.105
    51.4,0.000192,0.000015,-0.000911,-0.000058,  48.106
    51.6,0.000194,0.000013,-0.000903,-0.000010,  48.102
    51.8,0.000197,0.000015,-0.000877,0.000002,  48.101
    52.0,0.000194,0.000014,-0.000862,-0.000020,  48.097
    52.2,0.000194,0.000013,-0.000843,0.000015,  48.095
    52.4,0.000194,0.000015,-0.000822,0.000028,  48.095
    52.6,0.000194,0.000009,-0.000808,0.000006,  48.091
    52.8,0.000194,0.000005,-0.000807,0.000015,  48.094
    53.0,0.000194,0.000003,-0.000812,0.000015,  48.095
    53.2,0.000192,-0.000007,-0.000799,-0.000007,  48.093
    53.4,0.000192,-0.000014,-0.000784,-0.000007,  48.094
    53.6,0.000185,-0.000015,-0.000769,0.000006,  48.093
    53.8,0.000188,-0.000015,-0.000773,-0.000029,  48.094
    54.0,0.000185,-0.000017,-0.000790,-0.000016,  48.091
    54.2,0.000188,-0.000015,-0.000808,-0.000003,  48.093
    54.4,0.000194,-0.000011,-0.000857,-0.000038,  48.094
    54.6,0.000194,-0.000013,-0.000926,-0.000003,  48.097
    54.8,0.000194,-0.000007,-0.001009,0.000009,  48.107
    55.0,0.000197,-0.000003,-0.001033,-0.000025,  48.114
    55.2,0.000197,-0.000003,-0.001037,0.000009,  48.107
    55.4,0.000199,-0.000005,-0.001017,0.000000,  48.096
    55.6,0.000202,-0.000002,-0.000984,0.000000,  48.096
    55.8,0.000202,-0.000000,-0.000937,0.000013,  48.093
    56.0,0.000205,-0.000005,-0.000866,0.000013,  48.094
    56.2,0.000207,0.000001,-0.000851,-0.000009,  48.091
    56.4,0.000207,0.000002,-0.000856,0.000013,  48.094
    56.6,0.000212,0.000006,-0.000875,0.000013,  48.092
    56.8,0.000215,0.000012,-0.000835,-0.000022,  48.095
    57.0,0.000221,0.000015,-0.000770,-0.000034,  48.097
    57.2,0.000227,0.000019,-0.000685,-0.000094,  48.095
    57.4,0.000223,0.000023,-0.000570,-0.000116,  48.092
    57.6,0.000229,0.000019,-0.000569,-0.000082,  48.100
    57.8,0.000232,0.000021,-0.000613,-0.000056,  48.095
    58.0,0.000229,0.000020,-0.000688,-0.000065,  48.097
    58.2,0.000235,0.000020,-0.000725,-0.000018,  48.094
    58.4,0.000241,0.000019,-0.000756,-0.000005,  48.097
    58.6,0.000240,0.000025,-0.000787,-0.000027,  48.100
    58.8,0.000247,0.000025,-0.000831,0.000007,  48.104
    59.0,0.000253,0.000023,-0.000893,0.000007,  48.110
    59.2,0.000246,0.000025,-0.000951,-0.000015,  48.119
    59.4,0.000253,0.000026,-0.000963,-0.000002,  48.125
    59.6,0.000255,0.000024,-0.000961,0.000011,  48.114
    59.8,0.000249,0.000029,-0.000933,-0.000011,  48.107
    60.0,0.000252,0.000028,-0.000937,-0.000011,  48.102
    60.2,0.000254,0.000030,-0.000950,-0.000011,  48.105
    60.4,0.000254,0.000034,-0.000968,0.000002,  48.112
    60.6,0.000257,0.000033,-0.000947,0.000002,  48.105
    60.8,0.000257,0.000031,-0.000913,-0.000011,  48.105
    61.0,0.000254,0.000031,-0.000867,-0.000046,  48.109
    61.2,0.000252,0.000031,-0.000839,-0.000046,  48.104
    61.4,0.000252,0.000031,-0.000801,-0.000046,  48.105
    61.6,0.000246,0.000027,-0.000768,-0.000080,  48.106
    61.8,0.000241,0.000021,-0.000817,-0.000067,  48.109
    62.0,0.000244,0.000018,-0.000900,-0.000033,  48.105
    62.2,0.000244,0.000020,-0.001021,-0.000020,  48.108
    62.4,0.000246,0.000019,-0.001230,-0.000042,  48.110
    62.6,0.000246,0.000016,-0.001497,-0.000029,  48.105
    62.8,0.000249,0.000022,-0.001822,-0.000017,  48.105
    63.0,0.000243,0.000027,-0.001839,-0.000051,  48.109
    63.2,0.000249,0.000031,-0.001741,-0.000017,  48.114
    63.4,0.000254,0.000031,-0.001510,-0.000004,  48.121
    63.6,0.000262,0.000034,-0.001559,-0.000026,  48.126
    63.8,0.000272,0.000033,-0.001686,0.000009,  48.115
    64.0,0.000278,0.000035,-0.001901,0.000034,  48.114
    64.2,0.000278,0.000040,-0.001880,-0.000000,  48.114
    64.4,0.000272,0.000039,-0.001783,-0.000000,  48.109
    64.6,0.000275,0.000036,-0.001616,0.000012,  48.109
    64.8,0.000272,0.000037,-0.001557,0.000025,  48.110
    65.0,0.000276,0.000037,-0.001523,-0.000022,  48.109
    65.2,0.000276,0.000033,-0.001504,0.000012,  48.113
    65.4,0.000267,0.000035,-0.001458,-0.000022,  48.110
    65.6,0.000271,0.000034,-0.001406,-0.000022,  48.114
    65.8,0.000268,0.000032,-0.001348,-0.000000,  48.109
    66.0,0.000259,0.000026,-0.001341,-0.000000,  48.112
    66.2,0.000263,0.000026,-0.001346,-0.000009,  48.113
    66.4,0.000263,0.000023,-0.001382,0.000003,  48.113
    66.6,0.000259,0.000031,-0.001426,0.000016,  48.111
    66.8,0.000268,0.000034,-0.001603,-0.000006,  48.114
    67.0,0.000274,0.000033,-0.001850,0.000029,  48.113
    67.2,0.000276,0.000035,-0.002148,0.000041,  48.110
    67.4,0.000282,0.000036,-0.002167,0.000019,  48.115
    67.6,0.000285,0.000037,-0.002094,0.000054,  48.126
    67.8,0.000285,0.000037,-0.001902,0.000032,  48.134
    68.0,0.000288,0.000039,-0.001811,0.000032,  48.134
    68.2,0.000290,0.000042,-0.001725,0.000032,  48.121
    68.4,0.000290,0.000042,-0.001634,0.000010,  48.116
    68.6,0.000293,0.000042,-0.001594,0.000010,  48.112
    68.8,0.000296,0.000042,-0.001567,0.000010,  48.115
    69.0,0.000298,0.000039,-0.001560,-0.000012,  48.114
    69.2,0.000301,0.000045,-0.001558,0.000001,  48.115
    69.4,0.000303,0.000045,-0.001558,0.000023,  48.111
    69.6,0.000303,0.000048,-0.001571,-0.000012,  48.111
    69.8,0.000298,0.000058,-0.001519,-0.000012,  48.109
    70.0,0.000302,0.000057,-0.001435,0.000010,  48.106
    70.2,0.000299,0.000054,-0.001326,-0.000024,  48.106
    70.4,0.000294,0.000055,-0.001310,-0.000012,  48.106
    70.6,0.000303,0.000054,-0.001316,-0.000012,  48.104
    70.8,0.000303,0.000045,-0.001347,-0.000033,  48.107
    71.0,0.000308,0.000048,-0.001582,0.000014,  48.106
    71.2,0.000313,0.000054,-0.001926,0.000027,  48.102
    71.4,0.000315,0.000061,-0.002384,0.000017,  48.098
    71.6,0.000329,0.000076,-0.002383,0.000030,  48.106
    71.8,0.000340,0.000083,-0.002203,0.000056,  48.118
    72.0,0.000346,0.000090,-0.001851,0.000034,  48.124
    72.2,0.000350,0.000097,-0.001766,0.000046,  48.112
    72.4,0.000360,0.000102,-0.001725,0.000081,  48.104
    72.6,0.000365,0.000106,-0.001724,0.000046,  48.105
    72.8,0.000374,0.000103,-0.001703,0.000059,  48.105
    73.0,0.000388,0.000102,-0.001695,0.000094,  48.097
    73.2,0.000387,0.000104,-0.001694,0.000037,  48.102
    73.4,0.000388,0.000104,-0.001642,0.000050,  48.099
    73.6,0.000383,0.000105,-0.001569,0.000050,  48.101
    73.8,0.000379,0.000104,-0.001472,0.000050,  48.101
    74.0,0.000376,0.000111,-0.001400,0.000015,  48.098
    74.2,0.000379,0.000113,-0.001335,0.000063,  48.103
    74.4,0.000382,0.000109,-0.001265,0.000050,  48.097
    74.6,0.000387,0.000108,-0.001270,0.000028,  48.098
    74.8,0.000390,0.000108,-0.001314,0.000075,  48.096
    75.0,0.000395,0.000112,-0.001396,0.000054,  48.094
    75.2,0.000400,0.000118,-0.001427,0.000066,  48.092
    75.4,0.000406,0.000119,-0.001451,0.000044,  48.095
    75.6,0.000411,0.000129,-0.001458,0.000079,  48.093
    75.8,0.000416,0.000131,-0.001458,0.000104,  48.092
    76.0,0.000419,0.000133,-0.001705,0.000083,  48.099
    76.2,0.000426,0.000142,-0.002043,0.000083,  48.108
    76.4,0.000429,0.000145,-0.002481,0.000095,  48.118
    76.6,0.000434,0.000145,-0.002466,0.000061,  48.104
    76.8,0.000442,0.000150,-0.002274,0.000073,  48.092
    77.0,0.000445,0.000149,-0.001903,0.000086,  48.089
    77.2,0.000447,0.000155,-0.001793,0.000051,  48.082
    77.4,0.000450,0.000154,-0.001729,0.000099,  48.087
    77.6,0.000455,0.000162,-0.001709,0.000112,  48.085
    77.8,0.000455,0.000162,-0.001624,0.000090,  48.077
    78.0,0.000455,0.000162,-0.001534,0.000124,  48.076
    78.2,0.000455,0.000165,-0.001425,0.000102,  48.076
    78.4,0.000453,0.000172,-0.001374,0.000102,  48.069
    78.6,0.000453,0.000167,-0.001354,0.000077,  48.069
    78.8,0.000450,0.000163,-0.001350,0.000042,  48.068
    79.0,0.000454,0.000160,-0.001348,0.000090,  48.064
    79.2,0.000454,0.000162,-0.001348,0.000102,  48.062
    79.4,0.000459,0.000165,-0.001359,0.000081,  48.048
    79.6,0.000468,0.000168,-0.001337,0.000081,  48.042
    79.8,0.000477,0.000164,-0.001291,0.000093,  48.043
    80.0,0.000482,0.000169,-0.001226,0.000071,  48.039
    80.2,0.000487,0.000172,-0.001205,0.000071,  48.045
    80.4,0.000496,0.000169,-0.001185,0.000119,  48.056
    80.6,0.000496,0.000172,-0.001177,0.000097,  48.061
    80.8,0.000490,0.000177,-0.001208,0.000084,  48.056
    81.0,0.000490,0.000177,-0.001265,0.000119,  48.035
    81.2,0.000492,0.000178,-0.001355,0.000110,  48.032
    81.4,0.000492,0.000178,-0.001372,0.000110,  48.028
    81.6,0.000492,0.000178,-0.001372,0.000122,  48.027
    81.8,0.000501,0.000184,-0.001357,0.000100,  48.027
    82.0,0.000501,0.000187,-0.001355,0.000113,  48.022
    82.2,0.000501,0.000184,-0.001348,0.000113,  48.024
    82.4,0.000492,0.000180,-0.001341,0.000078,  48.029
    82.6,0.000490,0.000180,-0.001354,0.000091,  48.017
    82.8,0.000494,0.000175,-0.001385,0.000091,  48.019
    83.0,0.000485,0.000175,-0.001417,0.000091,  48.022
    83.2,0.000491,0.000175,-0.001409,0.000104,  48.017
    83.4,0.000497,0.000175,-0.001375,0.000091,  48.015
    83.6,0.000496,0.000175,-0.001328,0.000091,  48.018
    83.8,0.000502,0.000180,-0.001428,0.000104,  48.015
    84.0,0.000502,0.000177,-0.001600,0.000091,  48.018
    84.2,0.000499,0.000184,-0.001829,0.000104,  48.015
    84.4,0.000508,0.000188,-0.001887,0.000129,  48.020
    84.6,0.000514,0.000185,-0.001886,0.000129,  48.028
    84.8,0.000508,0.000193,-0.001841,0.000142,  48.042
    85.0,0.000510,0.000192,-0.001738,0.000133,  48.039
    85.2,0.000517,0.000193,-0.001910,0.000133,  48.019
    85.4,0.000513,0.000196,-0.002171,0.000133,  48.015
    85.6,0.000518,0.000203,-0.002514,0.000111,  48.007
    85.8,0.000527,0.000204,-0.002479,0.000124,  48.006
    86.0,0.000523,0.000208,-0.002292,0.000146,  48.011
    86.2,0.000530,0.000208,-0.001947,0.000146,  48.009
    86.4,0.000536,0.000207,-0.001856,0.000124,  48.000
    86.6,0.000533,0.000202,-0.001805,0.000124,  47.998
    86.8,0.000528,0.000204,-0.001811,0.000124,  47.996
    87.0,0.000527,0.000199,-0.001752,0.000089,  47.995
    87.2,0.000529,0.000199,-0.001687,0.000076,  47.993
    87.4,0.000526,0.000196,-0.001621,0.000076,  47.993
    87.6,0.000535,0.000189,-0.001581,0.000102,  47.995
    87.8,0.000537,0.000191,-0.001548,0.000102,  47.990
    88.0,0.000533,0.000194,-0.001522,0.000115,  47.993
    88.2,0.000540,0.000198,-0.001513,0.000127,  47.989
    88.4,0.000545,0.000196,-0.001500,0.000127,  47.989
    88.6,0.000544,0.000204,-0.001500,0.000140,  47.987
    88.8,0.000553,0.000204,-0.001529,0.000105,  48.001
    89.0,0.000558,0.000204,-0.001566,0.000105,  48.010
    89.2,0.000554,0.000209,-0.001610,0.000118,  48.002
    89.4,0.000561,0.000209,-0.001590,0.000084,  47.991
    89.6,0.000561,0.000209,-0.001574,0.000118,  47.985
    89.8,0.000563,0.000209,-0.001522,0.000144,  47.981
    90.0,0.000561,0.000209,-0.001502,0.000109,  47.978
    90.2,0.000564,0.000202,-0.001494,0.000144,  47.976
    90.4,0.000564,0.000204,-0.001500,0.000122,  47.977
    90.6,0.000567,0.000213,-0.001493,0.000122,  47.975
    90.8,0.000576,0.000211,-0.001491,0.000109,  47.975
    91.0,0.000576,0.000208,-0.001491,0.000074,  47.976
    91.2,0.000564,0.000215,-0.001501,0.000122,  47.972
    91.4,0.000563,0.000215,-0.001506,0.000122,  47.971
    91.6,0.000563,0.000215,-0.001506,0.000087,  47.969
    91.8,0.000559,0.000214,-0.001543,0.000147,  47.970
    92.0,0.000565,0.000209,-0.001588,0.000147,  47.968
    92.2,0.000568,0.000218,-0.001650,0.000147,  47.967
    92.4,0.000567,0.000221,-0.001661,0.000125,  47.972
    92.6,0.000576,0.000222,-0.001653,0.000160,  47.966
    92.8,0.000581,0.000224,-0.001626,0.000173,  47.971
    93.0,0.000584,0.000225,-0.001626,0.000151,  47.979
    93.2,0.000593,0.000228,-0.001649,0.000164,  47.989
    93.4,0.000604,0.000230,-0.001657,0.000164,  48.006
    93.6,0.000609,0.000237,-0.001688,0.000142,  47.991
    93.8,0.000612,0.000240,-0.001681,0.000142,  47.976
    94.0,0.000624,0.000248,-0.001681,0.000176,  47.975
    94.2,0.000629,0.000258,-0.001668,0.000154,  47.972
    94.4,0.000631,0.000261,-0.001654,0.000167,  47.973
    94.6,0.000636,0.000269,-0.001641,0.000167,  47.979
    94.8,0.000646,0.000276,-0.001628,0.000145,  47.974
    95.0,0.000660,0.000276,-0.001596,0.000171,  47.975
    95.2,0.000656,0.000280,-0.001557,0.000158,  47.972
    95.4,0.000654,0.000282,-0.001513,0.000136,  47.969
    95.6,0.000652,0.000282,-0.001455,0.000136,  47.975
    95.8,0.000649,0.000283,-0.001384,0.000171,  47.974
    96.0,0.000660,0.000289,-0.001301,0.000149,  47.974
    96.2,0.000674,0.000301,-0.001301,0.000149,  47.974
    96.4,0.000678,0.000311,-0.001334,0.000162,  47.975
    96.6,0.000695,0.000316,-0.001406,0.000174,  47.976
    96.8,0.000711,0.000330,-0.001386,0.000174,  47.975
    97.0,0.000718,0.000342,-0.001329,0.000187,  47.976
    97.2,0.000734,0.000349,-0.001252,0.000200,  47.979
    97.4,0.000742,0.000357,-0.001187,0.000212,  47.991
    97.6,0.000749,0.000368,-0.001105,0.000212,  48.011
    97.8,0.000768,0.000381,-0.001022,0.000191,  47.987
    98.0,0.000779,0.000390,-0.000979,0.000216,  47.985
    98.2,0.000789,0.000401,-0.000955,0.000203,  47.977
    98.4,0.000800,0.000419,-0.000945,0.000181,  47.979
    98.6,0.000796,0.000431,-0.000914,0.000194,  47.976
    98.8,0.000808,0.000438,-0.000878,0.000242,  47.970
    99.0,0.000818,0.000452,-0.000853,0.000254,  47.975
    99.2,0.000826,0.000458,-0.000822,0.000254,  47.976
    99.4,0.000834,0.000459,-0.000786,0.000254,  47.978
    99.6,0.000839,0.000468,-0.000750,0.000267,  47.979
    99.8,0.000849,0.000470,-0.000705,0.000267,  47.978
   100.0,0.000856,0.000470,-0.000642,0.000254,  47.979
   100.2,0.000862,0.000470,-0.000568,0.000267,  47.975
   100.4,0.000861,0.000475,-0.000491,0.000232,  47.978
   100.6,0.000863,0.000475,-0.000407,0.000232,  47.974
   100.8,0.000868,0.000473,-0.000306,0.000245,  47.975
   101.0,0.000867,0.000479,-0.000268,0.000223,  47.975
   101.2,0.000876,0.000478,-0.000263,0.000258,  47.972
   101.4,0.000884,0.000475,-0.000284,0.000258,  47.975
   101.6,0.000880,0.000478,-0.000254,0.000236,  47.986
   101.8,0.000894,0.000475,-0.000204,0.000236,  48.007
   102.0,0.000900,0.000479,-0.000149,0.000236,  48.012
   102.2,0.000902,0.000484,-0.000086,0.000249,  47.993
   102.4,0.000911,0.000481,-0.000023,0.000249,  47.972
   102.6,0.000917,0.000483,0.000057,0.000261,  47.971
   102.8,0.000922,0.000490,0.000144,0.000274,  47.972
   103.0,0.000927,0.000489,0.000264,0.000261,  47.970
   103.2,0.000935,0.000491,0.000415,0.000261,  47.973
   103.4,0.000936,0.000493,0.000579,0.000274,  47.971
   103.6,0.000939,0.000491,0.000704,0.000227,  47.970
   103.8,0.000939,0.000489,0.000810,0.000227,  47.968
   104.0,0.000927,0.000483,0.000919,0.000205,  47.965
   104.2,0.000923,0.000482,0.001054,0.000192,  47.966
   104.4,0.000934,0.000483,0.001188,0.000192,  47.964
   104.6,0.000949,0.000487,0.001334,0.000170,  47.963
   104.8,0.000982,0.000494,0.001525,0.000205,  47.966
   105.0,0.001005,0.000505,0.001728,0.000205,  47.964
   105.2,0.001029,0.000517,0.001950,0.000183,  47.962
   105.4,0.001055,0.000535,0.002206,0.000230,  47.966
   105.6,0.001084,0.000546,0.002492,0.000230,  47.965
   105.8,0.001113,0.000563,0.002804,0.000208,  47.976
   106.0,0.001148,0.000584,0.003115,0.000243,  47.989
   106.2,0.001182,0.000603,0.003442,0.000230,  47.991
   106.4,0.001209,0.000624,0.003787,0.000221,  47.973
   106.6,0.001255,0.000650,0.004160,0.000221,  47.965
   106.8,0.001294,0.000675,0.004551,0.000221,  47.961
   107.0,0.001327,0.000699,0.004967,0.000199,  47.962
   107.2,0.001373,0.000722,0.005405,0.000212,  47.954
   107.4,0.001409,0.000747,0.005872,0.000247,  47.933
   107.6,0.001448,0.000773,0.006367,0.000212,  47.934
   107.8,0.001480,0.000800,0.006888,0.000212,  47.932
   108.0,0.001520,0.000824,0.007448,0.000247,  47.932
   108.2,0.001562,0.000845,0.008046,0.000225,  47.932
   108.4,0.001604,0.000867,0.008621,0.000238,  47.925
   108.6,0.001652,0.000906,0.009199,0.000250,  47.930
   108.8,0.001724,0.000944,0.009781,0.000228,  47.925
   109.0,0.001800,0.000993,0.010556,0.000241,  47.924
   109.2,0.001877,0.001044,0.011435,0.000254,  47.923
   109.4,0.001964,0.001096,0.012401,0.000232,  47.923
   109.6,0.002058,0.001154,0.013340,0.000245,  47.924
   109.8,0.002159,0.001208,0.014318,0.000257,  47.922
   110.0,0.002247,0.001267,0.015341,0.000270,  47.928
   110.2,0.002347,0.001326,0.016421,0.000270,  47.939
   110.4,0.002451,0.001393,0.017557,0.000283,  47.958
   110.6,0.002554,0.001460,0.018752,0.000283,  47.952
   110.8,0.002672,0.001533,0.019797,0.000308,  47.929
   111.0,0.002792,0.001609,0.020806,0.000321,  47.926
   111.2,0.002917,0.001688,0.021759,0.000334,  47.926
   111.4,0.003056,0.001765,0.022668,0.000312,  47.921
   111.6,0.003198,0.001846,0.023942,0.000338,  47.922
   111.8,0.003339,0.001936,0.025337,0.000350,  47.924
   112.0,0.003486,0.002024,0.026854,0.000341,  47.921
   112.2,0.003640,0.002094,0.028249,0.000306,  47.919
   112.4,0.003771,0.002164,0.029652,0.000328,  47.918
   112.6,0.003886,0.002224,0.031051,0.000341,  47.921
   112.8,0.003999,0.002326,0.032765,0.000306,  47.922
   113.0,0.004183,0.002443,0.034632,0.000354,  47.921
   113.2,0.004387,0.002572,0.036650,0.000379,  47.923
   113.4,0.004639,0.002676,0.038704,0.000345,  47.920
   113.6,0.004855,0.002776,0.040869,0.000358,  47.924
   113.8,0.005071,0.002873,0.043120,0.000370,  47.920
   114.0,0.005294,0.002964,0.045351,0.000383,  47.917
   114.2,0.005532,0.003094,0.047627,0.000383,  47.922
   114.4,0.005777,0.003229,0.049942,0.000396,  47.932
   114.6,0.006031,0.003377,0.052456,0.000409,  47.952
   114.8,0.006302,0.003523,0.055083,0.000421,  47.938
   115.0,0.006569,0.003676,0.057837,0.000434,  47.930
   115.2,0.006842,0.003841,0.060543,0.000434,  47.925
   115.4,0.007121,0.003998,0.063273,0.000434,  47.921
   115.6,0.007394,0.004155,0.066035,0.000460,  47.918
   115.8,0.007661,0.004319,0.068865,0.000425,  47.916
   116.0,0.007953,0.004484,0.071749,0.000438,  47.917
   116.2,0.008256,0.004653,0.074688,0.000416,  47.918
   116.4,0.008567,0.004831,0.077191,0.000428,  47.918
   116.6,0.008814,0.004983,0.079508,0.000416,  47.920
   116.8,0.009033,0.005133,0.081627,0.000381,  47.919
   117.0,0.009227,0.005280,0.085090,0.000441,  47.916
   117.2,0.009390,0.005485,0.089167,0.000441,  47.918
   117.4,0.009739,0.005715,0.093868,0.000441,  47.919
   117.6,0.010142,0.005985,0.098069,0.000441,  47.922
   117.8,0.010610,0.006239,0.102334,0.000463,  47.917
   118.0,0.011037,0.006496,0.106657,0.000441,  47.922
   118.2,0.011481,0.006762,0.111117,0.000454,  47.920
   118.4,0.011948,0.007020,0.115686,0.000480,  47.921
   118.6,0.012389,0.007279,0.120360,0.000470,  47.935
   118.8,0.012844,0.007532,0.125147,0.000470,  47.957
   119.0,0.013299,0.007807,0.130051,0.000483,  47.960
   119.2,0.013766,0.008084,0.135068,0.000461,  47.941
   119.4,0.014263,0.008377,0.140024,0.000487,  47.934
   119.6,0.014770,0.008661,0.145017,0.000474,  47.924
   119.8,0.015263,0.008952,0.150026,0.000487,  47.927
   120.0,0.015766,0.009249,0.154442,0.000500,  47.924
   120.2,0.016273,0.009548,0.158566,0.000478,  47.935
   120.4,0.016784,0.009861,0.162372,0.000525,  47.933
   120.6,0.017310,0.010180,0.165872,0.000503,  47.932
   120.8,0.017848,0.010445,0.170420,0.000525,  47.928
   121.0,0.018326,0.010692,0.175202,0.000525,  47.929
   121.2,0.018786,0.010926,0.180253,0.000503,  47.933
   121.4,0.019233,0.011267,0.185784,0.000538,  47.933
   121.6,0.019832,0.011658,0.191682,0.000538,  47.935
   121.8,0.020510,0.012100,0.197982,0.000529,  47.935
   122.0,0.021266,0.012496,0.204641,0.000554,  47.932
   122.2,0.021923,0.012897,0.211706,0.000567,  47.937
   122.4,0.022588,0.013306,0.219214,0.000558,  47.934
   122.6,0.023245,0.013653,0.226188,0.000571,  47.935
   122.8,0.023947,0.013970,0.233084,0.000605,  47.940
   123.0,0.024673,0.014267,0.239932,0.000596,  47.955
   123.2,0.025417,0.014530,0.247196,0.000596,  47.967
   123.4,0.026153,0.014925,0.254646,0.000609,  47.956
   123.6,0.026890,0.015353,0.262293,0.000600,  47.946
   123.8,0.027634,0.015818,0.269671,0.000612,  47.945
   124.0,0.028363,0.016236,0.277014,0.000625,  47.946
   124.2,0.029076,0.016656,0.284310,0.000603,  47.942
   124.4,0.029791,0.017077,0.291775,0.000581,  47.944
   124.6,0.030526,0.017511,0.299280,0.000629,  47.941
   124.8,0.031265,0.017948,0.306835,0.000642,  47.942
   125.0,0.032020,0.018402,0.314049,0.000607,  47.945
   125.2,0.032739,0.018792,0.321092,0.000629,  47.949
   125.4,0.033442,0.019156,0.327977,0.000654,  47.949
   125.6,0.034136,0.019496,0.336167,0.000620,  47.953
   125.8,0.034822,0.019971,0.344980,0.000654,  47.949
   126.0,0.035497,0.020505,0.354456,0.000667,  47.949
   126.2,0.036162,0.021096,0.363544,0.000658,  47.949
   126.4,0.036820,0.021642,0.372735,0.000693,  47.953
   126.6,0.037677,0.022206,0.382055,0.000706,  47.952
   126.8,0.038616,0.022775,0.391274,0.000696,  47.949
   127.0,0.039632,0.023319,0.400481,0.000709,  47.954
   127.2,0.040553,0.023864,0.409688,0.000722,  47.967
   127.4,0.041464,0.024398,0.419249,0.000722,  47.980
   127.6,0.042363,0.024952,0.428971,0.000757,  47.978
   127.8,0.043307,0.025518,0.438900,0.000782,  47.961
   128.0,0.044261,0.026084,0.448541,0.000760,  47.957
   128.2,0.045229,0.026643,0.458089,0.000821,  47.958
   128.4,0.046176,0.027197,0.467560,0.000833,  47.956
   128.6,0.047117,0.027745,0.477275,0.000799,  47.956
   128.8,0.048048,0.028308,0.487061,0.000811,  47.964
   129.0,0.048978,0.028874,0.496904,0.000799,  47.960
   129.2,0.049901,0.029441,0.504908,0.000764,  47.959
   129.4,0.050824,0.029930,0.511955,0.000764,  47.954
   129.6,0.051722,0.030379,0.517957,0.000764,  47.958
   129.8,0.052604,0.030790,0.522882,0.000777,  47.954
   130.0,0.053482,0.031388,0.532742,0.000755,  47.956
   130.2,0.054515,0.032070,0.544103,0.000789,  47.953
   130.4,0.055619,0.032827,0.557096,0.000815,  47.958
   130.6,0.056800,0.033481,0.568191,0.000806,  47.953
   130.8,0.057860,0.034134,0.579076,0.000853,  47.954
   131.0,0.058885,0.034765,0.589711,0.000844,  47.955
   131.2,0.059881,0.035325,0.600691,0.000857,  47.953
   131.4,0.060969,0.035834,0.611682,0.000857,  47.960
   131.6,0.062081,0.036310,0.622695,0.000848,  47.977
   131.8,0.063216,0.036733,0.633897,0.000883,  47.973
   132.0,0.064315,0.037344,0.645157,0.000895,  47.960
   132.2,0.065414,0.038004,0.656477,0.000886,  47.958
   132.4,0.066513,0.038713,0.667544,0.000899,  47.956
   132.6,0.067565,0.039344,0.678462,0.000912,  47.951
   132.8,0.068605,0.039965,0.689185,0.000890,  47.950
   133.0,0.069623,0.040579,0.700107,0.000903,  47.949
   133.2,0.070628,0.041199,0.710990,0.000950,  47.946
   133.4,0.071632,0.041821,0.721840,0.000928,  47.942
   133.6,0.072617,0.042444,0.731795,0.000928,  47.947
   133.8,0.073632,0.043009,0.741163,0.000915,  47.944
   134.0,0.074665,0.043554,0.749983,0.000906,  47.946
   134.2,0.075703,0.044067,0.761088,0.000919,  47.946
   134.4,0.076825,0.044718,0.773188,0.000919,  47.945
   134.6,0.078000,0.045434,0.786286,0.000897,  47.943
   134.8,0.079215,0.046200,0.798345,0.000945,  47.947
   135.0,0.080217,0.046918,0.810311,0.000967,  47.941
   135.2,0.081137,0.047641,0.822258,0.000945,  47.944
   135.4,0.081967,0.048368,0.834101,0.000970,  47.943
   135.6,0.082711,0.049070,0.845797,0.000996,  47.951
   135.8,0.083756,0.049760,0.857329,0.000987,  47.962
   136.0,0.084871,0.050445,0.869227,0.000999,  47.973
   136.2,0.086051,0.051137,0.881139,0.001047,  47.961
   136.4,0.087159,0.051824,0.893103,0.001038,  47.949
   136.6,0.088282,0.052502,0.904719,0.001051,  47.948
   136.8,0.089405,0.053169,0.916050,0.001085,  47.944
   137.0,0.090489,0.053830,0.927173,0.001098,  47.947
   137.2,0.091559,0.054481,0.938609,0.001076,  47.942
   137.4,0.092626,0.055122,0.950141,0.001089,  47.952
   137.6,0.093646,0.055749,0.961695,0.001124,  47.949
   137.8,0.094634,0.056378,0.971721,0.001089,  47.940
   138.0,0.095601,0.056942,0.980992,0.001076,  47.944
   138.2,0.096625,0.057478,0.989448,0.001051,  47.945
   138.4,0.097659,0.057979,0.998802,0.001029,  47.941
   138.6,0.098711,0.058652,1.008180,0.001041,  47.948
   138.8,0.099829,0.059395,1.017635,0.001054,  47.944
   139.0,0.100982,0.060212,1.027045,0.001045,  47.951
   139.2,0.102174,0.060917,1.038257,0.001023,  47.944
   139.4,0.103260,0.061599,1.050180,0.001084,  47.945
   139.6,0.104307,0.062260,1.063010,0.001109,  47.949
   139.8,0.105312,0.062964,1.074703,0.001087,  47.955
   140.0,0.106400,0.063672,1.086129,0.001122,  47.961
   140.2,0.107507,0.064393,1.097329,0.001147,  47.972
   140.4,0.108627,0.064990,1.108786,0.001126,  47.962
   140.6,0.109710,0.065520,1.120133,0.001160,  47.949
   140.8,0.110788,0.066003,1.131531,0.001173,  47.946
   141.0,0.111855,0.066418,1.142478,0.001151,  47.944
   141.2,0.112864,0.067000,1.153277,0.001173,  47.943
   141.4,0.113829,0.067623,1.163644,0.001186,  47.938
   141.6,0.114764,0.068268,1.173995,0.001164,  47.935
   141.8,0.115672,0.068856,1.184232,0.001211,  47.935
   142.0,0.116547,0.069430,1.194155,0.001211,  47.936
   142.2,0.117390,0.069997,1.203586,0.001177,  47.934
   142.4,0.118341,0.070577,1.212318,0.001151,  47.938
   142.6,0.119332,0.071153,1.220615,0.001164,  47.934
   142.8,0.120375,0.071729,1.230879,0.001190,  47.933
   143.0,0.121385,0.072353,1.241719,0.001202,  47.935
   143.2,0.122413,0.073000,1.253287,0.001228,  47.933
   143.4,0.123447,0.073671,1.264124,0.001241,  47.934
   143.6,0.124317,0.074318,1.274769,0.001254,  47.934
   143.8,0.125109,0.074964,1.285190,0.001279,  47.929
   144.0,0.125819,0.075613,1.295520,0.001292,  47.934
   144.2,0.126459,0.076235,1.305495,0.001305,  47.946
   144.4,0.127322,0.076839,1.315200,0.001318,  47.956
   144.6,0.128228,0.077432,1.325365,0.001283,  47.965
   144.8,0.129174,0.078038,1.335369,0.001296,  47.946
   145.0,0.130081,0.078641,1.345331,0.001274,  47.944
   145.2,0.131000,0.079239,1.354836,0.001287,  47.935
   145.4,0.131928,0.079806,1.364126,0.001299,  47.938
   145.6,0.132791,0.080359,1.372892,0.001277,  47.929
   145.8,0.133638,0.080889,1.381834,0.001325,  47.935
   146.0,0.134460,0.081403,1.390661,0.001312,  47.938
   146.2,0.135215,0.081902,1.399369,0.001312,  47.938
   146.4,0.135931,0.082387,1.407153,0.001299,  47.932
   146.6,0.136608,0.082882,1.414119,0.001265,  47.929
   146.8,0.137423,0.083378,1.420230,0.001274,  47.931
   147.0,0.138290,0.083874,1.427258,0.001239,  47.931
   147.2,0.139215,0.084419,1.434579,0.001248,  47.932
   147.4,0.140071,0.084989,1.441854,0.001283,  47.929
   147.6,0.140925,0.085584,1.449265,0.001261,  47.926
   147.8,0.141779,0.086114,1.457648,0.001287,  47.925
   148.0,0.142561,0.086610,1.466546,0.001312,  47.924
   148.2,0.143308,0.087090,1.475811,0.001303,  47.920
   148.4,0.144025,0.087535,1.484537,0.001329,  47.930
   148.6,0.144793,0.087950,1.493257,0.001341,  47.935
   148.8,0.145575,0.088335,1.501775,0.001319,  47.938
   149.0,0.146369,0.088691,1.510054,0.001332,  47.925
   149.2,0.147109,0.089167,1.518094,0.001380,  47.916
   149.4,0.147847,0.089672,1.525877,0.001371,  47.909
   149.6,0.148555,0.090211,1.533392,0.001371,  47.910
   149.8,0.149202,0.090665,1.540402,0.001371,  47.904
   150.0,0.149824,0.091093,1.546886,0.001349,  47.904
   150.2,0.150402,0.091500,1.553662,0.001384,  47.902
   150.4,0.150941,0.091890,1.560081,0.001384,  47.896
   150.6,0.151455,0.092266,1.566138,0.001362,  47.895
   150.8,0.151924,0.092622,1.572533,0.001396,  47.890
   151.0,0.152536,0.093028,1.578790,0.001384,  47.888
   151.2,0.153217,0.093461,1.584918,0.001362,  47.883
   151.4,0.153944,0.093913,1.591608,0.001396,  47.881
   151.6,0.154604,0.094352,1.598164,0.001384,  47.875
   151.8,0.155273,0.094786,1.605074,0.001374,  47.869
   152.0,0.155933,0.095239,1.611816,0.001387,  47.867
   152.2,0.156478,0.095664,1.618409,0.001400,  47.859
   152.4,0.156958,0.096083,1.624833,0.001378,  47.831
   152.6,0.157387,0.096496,1.630838,0.001391,  47.833
   152.8,0.157751,0.096878,1.636938,0.001413,  47.837
   153.0,0.158265,0.097247,1.642048,0.001378,  47.845
   153.2,0.158808,0.097599,1.648035,0.001391,  47.836
   153.4,0.159365,0.097968,1.654121,0.001426,  47.809
   153.6,0.159885,0.098335,1.660012,0.001391,  47.799
   153.8,0.160402,0.098711,1.665676,0.001404,  47.784
   154.0,0.160917,0.099051,1.670538,0.001404,  47.777
   154.2,0.161391,0.099368,1.675159,0.001417,  47.768
   154.4,0.161845,0.099673,1.680124,0.001429,  47.763
   154.6,0.162283,0.099955,1.684248,0.001429,  47.757
   154.8,0.162655,0.100222,1.688406,0.001442,  47.740
   155.0,0.162985,0.100472,1.692621,0.001420,  47.733
   155.2,0.163277,0.100769,1.696281,0.001468,  47.702
   155.4,0.163734,0.101093,1.699983,0.001481,  47.694
   155.6,0.164265,0.101439,1.704006,0.001493,  47.674
   155.8,0.164858,0.101767,1.708697,0.001493,  47.664
   156.0,0.165359,0.102102,1.712480,0.001481,  47.656
   156.2,0.165863,0.102446,1.716938,0.001446,  47.638
   156.4,0.166362,0.102747,1.721469,0.001459,  47.628
   156.6,0.166796,0.103033,1.725731,0.001471,  47.614
   156.8,0.167198,0.103297,1.730381,0.001450,  47.599
   157.0,0.167576,0.103599,1.735373,0.001462,  47.577
   157.2,0.167991,0.103906,1.740413,0.001510,  47.576
   157.4,0.168428,0.104224,1.745165,0.001536,  47.557
   157.6,0.168868,0.104484,1.749644,0.001514,  47.528
   157.8,0.169261,0.104710,1.754525,0.001526,  47.502
   158.0,0.169637,0.104916,1.758411,0.001539,  47.487
   158.2,0.169998,0.105094,1.762305,0.001530,  47.467
   158.4,0.170321,0.105313,1.765869,0.001565,  47.423
   158.6,0.170619,0.105534,1.769090,0.001578,  47.409
   158.8,0.170889,0.105758,1.772346,0.001569,  47.375
   159.0,0.171129,0.105950,1.774898,0.001616,  47.361
   159.2,0.171348,0.106136,1.777095,0.001655,  47.340
   159.4,0.171528,0.106308,1.780801,0.001633,  47.303
   159.6,0.171880,0.106542,1.784565,0.001658,  47.278
   159.8,0.172310,0.106808,1.788367,0.001684,  47.244
   160.0,0.172810,0.107095,1.792541,0.001649,  47.231
   160.2,0.173237,0.107365,1.796365,0.001649,  47.199
   160.4,0.173669,0.107647,1.800597,0.001675,  47.156
   160.6,0.174104,0.107929,1.804892,0.001653,  47.126
   160.8,0.174459,0.108206,1.808849,0.001701,  47.090
   161.0,0.174771,0.108486,1.812848,0.001726,  47.056
   161.2,0.175050,0.108765,1.816463,0.001717,  47.038
   161.4,0.175286,0.109010,1.819702,0.001765,  47.021
   161.6,0.175626,0.109238,1.822560,0.001756,  47.011
   161.8,0.175988,0.109451,1.826258,0.001781,  46.951
   162.0,0.176366,0.109692,1.830416,0.001807,  46.904
   162.2,0.176724,0.109936,1.834192,0.001811,  46.863
   162.4,0.177085,0.110191,1.837556,0.001871,  46.828
   162.6,0.177449,0.110423,1.840529,0.001884,  46.773
   162.8,0.177814,0.110649,1.843513,0.001888,  46.724
   163.0,0.178181,0.110871,1.846512,0.001974,  46.686
   163.2,0.178545,0.111073,1.848666,0.002012,  46.655
   163.4,0.178830,0.111262,1.851269,0.002051,  46.609
   163.6,0.179072,0.111441,1.855222,0.002067,  46.565
   163.8,0.179287,0.111688,1.858331,0.002141,  46.496
   164.0,0.179710,0.111975,1.862376,0.002192,  46.463
   164.2,0.180216,0.112287,1.865558,0.002205,  46.408
   164.4,0.180821,0.112595,1.869224,0.002179,  46.366
   164.6,0.181364,0.112927,1.872477,0.002106,  46.318
   164.8,0.181922,0.113269,1.875302,0.002084,  46.240
   165.0,0.182493,0.113573,1.879947,0.002110,  46.187
   165.2,0.182991,0.113873,1.884153,0.002170,  46.139
   165.4,0.183470,0.114164,1.888375,0.002161,  46.100
   165.6,0.183912,0.114488,1.893629,0.002161,  46.053
   165.8,0.184447,0.114823,1.898949,0.002196,  46.009
   166.0,0.185024,0.115176,1.904345,0.002187,  45.957
   166.2,0.185633,0.115520,1.910316,0.002212,  45.875
   166.4,0.186175,0.115871,1.915863,0.002238,  45.795
   166.6,0.186715,0.116231,1.920983,0.002229,  45.737
   166.8,0.187247,0.116517,1.925617,0.002264,  45.642
   167.0,0.187782,0.116762,1.930302,0.002277,  45.578
   167.2,0.188325,0.116977,1.934502,0.002280,  45.516
   167.4,0.188878,0.117159,1.938219,0.002366,  45.429
   167.6,0.189335,0.117425,1.942514,0.002405,  45.372
   167.8,0.189761,0.117704,1.946312,0.002396,  45.272
   168.0,0.190147,0.117995,1.952342,0.002444,  45.211
   168.2,0.190814,0.118372,1.959024,0.002444,  45.143
   168.4,0.191599,0.118804,1.965240,0.002409,  45.061
   168.6,0.192510,0.119281,1.972103,0.002396,  44.976
   168.8,0.193355,0.119761,1.979067,0.002370,  44.888
   169.0,0.194230,0.120269,1.985537,0.002335,  44.822
   169.2,0.195134,0.120801,1.992160,0.002348,  44.729
   169.4,0.196026,0.121320,1.998907,0.002383,  44.640
   169.6,0.196923,0.121856,2.005780,0.002361,  44.580
   169.8,0.197833,0.122399,2.012709,0.002387,  44.509
   170.0,0.198627,0.122935,2.019099,0.002413,  44.464
   170.2,0.199362,0.123464,2.026224,0.002438,  44.408
   170.4,0.200055,0.124001,2.034141,0.002451,  44.303
   170.6,0.200692,0.124561,2.041537,0.002451,  44.198
   170.8,0.201566,0.125123,2.049061,0.002464,  44.086
   171.0,0.202504,0.125708,2.056021,0.002490,  44.011
   171.2,0.203512,0.126281,2.063099,0.002477,  43.914
   171.4,0.204509,0.126847,2.069582,0.002455,  43.823
   171.6,0.205524,0.127427,2.076124,0.002481,  43.740
   171.8,0.206580,0.127950,2.083503,0.002506,  43.652
   172.0,0.207423,0.128444,2.090235,0.002484,  43.573
   172.2,0.208168,0.128921,2.097879,0.002484,  43.474
   172.4,0.208827,0.129553,2.106469,0.002519,  43.383
   172.6,0.209895,0.130245,2.115237,0.002519,  43.289
   172.8,0.211126,0.131011,2.123350,0.002493,  43.178
   173.0,0.212518,0.131754,2.131628,0.002455,  43.110
   173.2,0.213796,0.132512,2.140061,0.002442,  43.031
   173.4,0.215098,0.133294,2.148661,0.002442,  42.942
   173.6,0.216422,0.134031,2.156560,0.002382,  42.854
   173.8,0.217689,0.134751,2.162812,0.002416,  42.755
   174.0,0.218938,0.135461,2.169129,0.002394,  42.698
   174.2,0.220174,0.136235,2.176458,0.002360,  42.657
   174.4,0.221496,0.137049,2.182029,0.002372,  42.577
   174.6,0.222839,0.137889,2.187661,0.002385,  42.469
   174.8,0.224217,0.138699,2.196273,0.002398,  42.360
   175.0,0.225498,0.139513,2.205065,0.002398,  42.291
   175.2,0.226740,0.140315,2.214040,0.002411,  42.218
   175.4,0.227945,0.141063,2.221168,0.002424,  42.133
   175.6,0.229163,0.141784,2.228426,0.002424,  42.055
   175.8,0.230370,0.142473,2.233709,0.002437,  41.957
   176.0,0.231563,0.143096,2.239030,0.002411,  41.897
   176.2,0.232591,0.143677,2.244417,0.002385,  41.840
   176.4,0.233531,0.144219,2.249872,0.002398,  41.768
   176.6,0.234371,0.144822,2.256486,0.002411,  41.697
   176.8,0.235535,0.145433,2.263193,0.002437,  41.631
   177.0,0.236819,0.146052,2.271145,0.002450,  41.580
   177.2,0.238210,0.146682,2.278097,0.002475,  41.507
   177.4,0.239481,0.147432,2.283984,0.002488,  41.459
   177.6,0.240747,0.148243,2.287559,0.002514,  41.401
   177.8,0.242003,0.149103,2.293582,0.002505,  41.332
   178.0,0.243258,0.149883,2.299696,0.002505,  41.304
   178.2,0.244505,0.150651,2.304667,0.002518,  41.278
   178.4,0.245751,0.151407,2.309668,0.002483,  41.253
   178.6,0.246968,0.152152,2.315992,0.002518,  41.239
   178.8,0.248175,0.152891,2.318538,0.002531,  41.184
   179.0,0.249369,0.153623,2.323687,0.002509,  41.135
   179.2,0.250428,0.154326,2.328903,0.002556,  41.106
   179.4,0.251422,0.155011,2.334183,0.002582,  41.067
   179.6,0.252336,0.155682,2.339545,0.002560,  41.044
   179.8,0.253152,0.156307,2.340907,0.002595,  41.025
   180.0,0.253886,0.156909,2.343637,0.002582,  41.002
   180.2,0.254522,0.157482,2.347741,0.002509,  40.991
   180.4,0.255077,0.157950,2.349117,0.002492,  40.987
   180.6,0.255630,0.158339,2.350493,0.002483,  40.978
   180.8,0.256128,0.158674,2.353273,0.002509,  40.976
   181.0,0.256580,0.159186,2.357480,0.002560,  40.972
   181.2,0.257305,0.159744,2.360327,0.002577,  40.979
   181.4,0.258159,0.160366,2.363171,0.002637,  40.983
   181.6,0.259128,0.160866,2.364592,0.002663,  40.991
   181.8,0.259895,0.161338,2.366023,0.002654,  41.001
   182.0,0.260604,0.161779,2.368883,0.002702,  41.017
   182.2,0.261282,0.162182,2.370296,0.002714,  41.033
   182.4,0.261972,0.162557,2.370258,0.002740,  41.068
   182.6,0.262623,0.162899,2.371703,0.002731,  41.101
   182.8,0.263269,0.163263,2.373169,0.002792,  41.131
   183.0,0.263848,0.163638,2.374645,0.002804,  41.158
   183.2,0.264384,0.164015,2.376109,0.002795,  41.178
   183.4,0.264874,0.164342,2.377584,0.002808,  41.206
   183.6,0.265287,0.164641,2.377590,0.002821,  41.242
   183.8,0.265649,0.164923,2.377584,0.002812,  41.304
   184.0,0.265943,0.165155,2.379054,0.002838,  41.335
   184.2,0.266213,0.165353,2.379048,0.002873,  41.391
   184.4,0.266439,0.165514,2.377563,0.002825,  41.433
   184.6,0.266617,0.165578,2.379032,0.002786,  41.497
   184.8,0.266830,0.165578,2.376088,0.002735,  41.562
   185.0,0.267028,0.165518,2.373169,0.002726,  41.611
   185.2,0.267206,0.165587,2.373163,0.002799,  41.679
   185.4,0.267309,0.165688,2.373163,0.002876,  41.735
   185.6,0.267348,0.165819,2.373169,0.002880,  41.809
   185.8,0.267332,0.165988,2.374607,0.002941,  41.895
   186.0,0.267341,0.166078,2.373121,0.002967,  41.945
   186.2,0.267322,0.166158,2.370189,0.002983,  42.023
   186.4,0.267288,0.166230,2.370183,0.003009,  42.103
   186.6,0.267245,0.166257,2.368754,0.003035,  42.190
   186.8,0.267182,0.166270,2.364479,0.003026,  42.269
   187.0,0.267106,0.166254,2.363053,0.003073,  42.328
   187.2,0.267047,0.166246,2.361626,0.003095,  42.403
   187.4,0.266999,0.166234,2.358781,0.003086,  42.472
   187.6,0.266952,0.166219,2.357352,0.003099,  42.546
   187.8,0.266758,0.166146,2.354523,0.003099,  42.647
   188.0,0.266504,0.166044,2.351707,0.003077,  42.716
   188.2,0.266184,0.165906,2.350295,0.003103,  42.802
   188.4,0.265865,0.165769,2.347527,0.003090,  42.875
   188.6,0.265520,0.165618,2.343418,0.003064,  42.968
   188.8,0.265146,0.165443,2.340709,0.003026,  43.072
   189.0,0.264849,0.165221,2.335346,0.002961,  43.134
   189.2,0.264585,0.164961,2.331388,0.002961,  43.230
   189.4,0.264339,0.164665,2.328743,0.002987,  43.322
   189.6,0.264130,0.164464,2.326102,0.003061,  43.393
   189.8,0.263762,0.164295,2.323473,0.003064,  43.507
   190.0,0.263341,0.164155,2.320869,0.003090,  43.577
   190.2,0.262873,0.163943,2.316998,0.003129,  43.670
   190.4,0.262428,0.163711,2.311898,0.003120,  43.756
   190.6,0.261981,0.163469,2.309373,0.003120,  43.841
   190.8,0.261524,0.163230,2.304383,0.003120,  43.948
   191.0,0.261076,0.162982,2.298227,0.003111,  44.023
   191.2,0.260635,0.162732,2.295785,0.003124,  44.109
   191.4,0.260184,0.162457,2.290938,0.003184,  44.186
   191.6,0.259713,0.162155,2.286150,0.003197,  44.260
   191.8,0.259246,0.161846,2.282580,0.003175,  44.367
   192.0,0.258754,0.161528,2.279033,0.003210,  44.437
   192.2,0.258190,0.161198,2.274348,0.003197,  44.528
   192.4,0.257593,0.160861,2.270872,0.003162,  44.599
   192.6,0.256954,0.160507,2.267441,0.003197,  44.691
   192.8,0.256307,0.160141,2.264026,0.003210,  44.792
   193.0,0.255650,0.159759,2.259530,0.003210,  44.860
   193.2,0.254971,0.159379,2.254019,0.003149,  44.938
   193.4,0.254393,0.159004,2.246428,0.003111,  45.017
   193.6,0.253871,0.158618,2.238998,0.003124,  45.107
   193.8,0.253392,0.158218,2.235785,0.003115,  45.210
   194.0,0.252724,0.157815,2.230438,0.003140,  45.259
   194.2,0.251985,0.157398,2.226139,0.003153,  45.345
   194.4,0.251182,0.157041,2.221966,0.003153,  45.428
   194.6,0.250435,0.156709,2.215813,0.003166,  45.496
   194.8,0.249680,0.156397,2.209772,0.003179,  45.587
   195.0,0.248916,0.156117,2.204776,0.003179,  45.652
   195.2,0.248150,0.155720,2.197884,0.003179,  45.718
   195.4,0.247376,0.155285,2.192059,0.003192,  45.790
   195.6,0.246589,0.154820,2.187271,0.003170,  45.845
   195.8,0.245858,0.154395,2.180669,0.003157,  45.916
   196.0,0.245157,0.153968,2.174171,0.003157,  45.956
   196.2,0.244479,0.153540,2.168658,0.003135,  46.028
   196.4,0.243684,0.153069,2.162315,0.003170,  46.082
   196.6,0.242844,0.152583,2.155179,0.003170,  46.151
   196.8,0.241961,0.152076,2.149017,0.003148,  46.211
   197.0,0.241107,0.151569,2.142088,0.003183,  46.267
   197.2,0.240236,0.151052,2.135267,0.003135,  46.313
   197.4,0.239360,0.150528,2.128567,0.003122,  46.379
   197.6,0.238696,0.150050,2.120353,0.003084,  46.426
   197.8,0.238137,0.149592,2.113102,0.003062,  46.496
   198.0,0.237683,0.149154,2.106733,0.003097,  46.528
   198.2,0.237323,0.148649,2.099679,0.003109,  46.590
   198.4,0.236536,0.148136,2.093492,0.003087,  46.634
   198.6,0.235630,0.147598,2.086647,0.003135,  46.676
   198.8,0.234614,0.147075,2.079177,0.003122,  46.740
   199.0,0.233734,0.146550,2.071839,0.003087,  46.770
   199.2,0.232869,0.146031,2.065319,0.003122,  46.823
   199.4,0.232010,0.145529,2.057472,0.003109,  46.862
   199.6,0.231166,0.145029,2.049759,0.003075,  46.900
   199.8,0.230337,0.144549,2.042881,0.003109,  46.962
   200.0,0.229514,0.144049,2.035451,0.003109,  46.977
   200.2,0.228702,0.143537,2.028152,0.003109,  47.011
   200.4,0.227895,0.143027,2.021605,0.003109,  47.038
   200.6,0.227099,0.142503,2.014517,0.003109,  47.090
   200.8,0.226225,0.141970,2.007538,0.003109,  47.119
   201.0,0.225318,0.141425,2.001303,0.003087,  47.141
   201.2,0.224374,0.140879,1.995768,0.003075,  47.186
   201.4,0.223477,0.140324,1.989710,0.003075,  47.209
   201.6,0.222567,0.139760,1.983741,0.003027,  47.236
   201.8,0.221655,0.139264,1.977240,0.003014,  47.262
   202.0,0.220828,0.138800,1.969676,0.003023,  47.277
   202.2,0.220034,0.138367,1.961676,0.002988,  47.323
   202.4,0.219265,0.137818,1.954397,0.002988,  47.346
   202.6,0.218366,0.137226,1.946151,0.003023,  47.365
   202.8,0.217430,0.136593,1.937535,0.003001,  47.390
   203.0,0.216445,0.136099,1.930111,0.003001,  47.425
   203.2,0.215504,0.135650,1.921768,0.003036,  47.443
   203.4,0.214568,0.135251,1.913571,0.003014,  47.460
   203.6,0.213641,0.134901,1.906017,0.003001,  47.480
   203.8,0.212694,0.134370,1.898103,0.003023,  47.506
   204.0,0.211742,0.133802,1.889376,0.003001,  47.527
   204.2,0.210795,0.133181,1.881766,0.003001,  47.563
   204.4,0.209905,0.132642,1.873834,0.002988,  47.565
   204.6,0.209044,0.132124,1.865602,0.002966,  47.567
   204.8,0.208221,0.131622,1.857512,0.003001,  47.577
   205.0,0.207294,0.131057,1.849139,0.002988,  47.593
   205.2,0.206333,0.130473,1.840919,0.002953,  47.598
   205.4,0.205352,0.129862,1.832038,0.002988,  47.613
   205.6,0.204400,0.129272,1.822535,0.002962,  47.625
   205.8,0.203450,0.128685,1.812847,0.002915,  47.643
   206.0,0.202510,0.128093,1.804499,0.002902,  47.653
   206.2,0.201768,0.127585,1.796298,0.002876,  47.674
   206.4,0.201134,0.127119,1.788991,0.002841,  47.681
   206.6,0.200600,0.126689,1.781073,0.002854,  47.692
   206.8,0.200174,0.126131,1.772926,0.002867,  47.700
   207.0,0.199308,0.125536,1.764933,0.002880,  47.709
   207.2,0.198317,0.124885,1.757089,0.002893,  47.715
   207.4,0.197231,0.124294,1.748351,0.002867,  47.723
   207.6,0.196280,0.123717,1.739450,0.002832,  47.726
   207.8,0.195337,0.123147,1.731368,0.002845,  47.735
   208.0,0.194417,0.122587,1.723437,0.002832,  47.749
   208.2,0.193505,0.122042,1.715001,0.002797,  47.763
   208.4,0.192597,0.121507,1.706742,0.002810,  47.776
   208.6,0.191715,0.120959,1.698333,0.002832,  47.783
   208.8,0.190853,0.120421,1.689495,0.002832,  47.782
   209.0,0.189999,0.119881,1.681389,0.002832,  47.783
   209.2,0.189175,0.119319,1.673426,0.002819,  47.794
   209.4,0.188273,0.118755,1.665594,0.002807,  47.790
   209.6,0.187340,0.118183,1.658484,0.002807,  47.794
   209.8,0.186385,0.117614,1.651770,0.002807,  47.799
   210.0,0.185477,0.117049,1.645710,0.002807,  47.802
   210.2,0.184580,0.116486,1.639743,0.002807,  47.801
   210.4,0.183698,0.115959,1.633039,0.002794,  47.807
   210.6,0.182824,0.115454,1.625920,0.002768,  47.815
   210.8,0.181956,0.114968,1.618401,0.002781,  47.813
   211.0,0.181104,0.114500,1.610253,0.002781,  47.817
   211.2,0.180187,0.114044,1.601262,0.002768,  47.822
   211.4,0.179242,0.113616,1.591727,0.002781,  47.820
   211.6,0.178277,0.113196,1.583112,0.002746,  47.822
   211.8,0.177350,0.112656,1.574447,0.002733,  47.823
   212.0,0.176422,0.112085,1.565509,0.002746,  47.824
   212.2,0.175496,0.111475,1.556947,0.002698,  47.832
   212.4,0.174571,0.110891,1.548331,0.002720,  47.849
   212.6,0.173641,0.110308,1.539889,0.002720,  47.861
   212.8,0.172709,0.109723,1.531817,0.002685,  47.863
   213.0,0.171812,0.109179,1.523681,0.002707,  47.850
   213.2,0.170943,0.108653,1.515912,0.002707,  47.844
   213.4,0.170089,0.108143,1.507673,0.002685,  47.845
   213.6,0.169181,0.107584,1.498996,0.002672,  47.841
   213.8,0.168263,0.107014,1.490297,0.002672,  47.843
   214.0,0.167334,0.106422,1.481415,0.002672,  47.843
   214.2,0.166436,0.105852,1.472177,0.002660,  47.845
   214.4,0.165558,0.105281,1.462780,0.002647,  47.846
   214.6,0.164688,0.104718,1.455129,0.002586,  47.852
   214.8,0.163970,0.104230,1.448292,0.002560,  47.846
   215.0,0.163328,0.103780,1.442240,0.002560,  47.845
   215.2,0.162770,0.103371,1.434266,0.002513,  47.847
   215.4,0.162286,0.102826,1.425611,0.002560,  47.849
   215.6,0.161465,0.102233,1.416334,0.002573,  47.850
   215.8,0.160558,0.101595,1.408020,0.002538,  47.848
   216.0,0.159553,0.101024,1.399702,0.002573,  47.851
   216.2,0.158661,0.100463,1.391387,0.002586,  47.850
   216.4,0.157791,0.099919,1.383527,0.002551,  47.853
   216.6,0.156923,0.099377,1.375664,0.002573,  47.865
   216.8,0.156053,0.098841,1.368085,0.002586,  47.881
   217.0,0.155189,0.098321,1.360352,0.002551,  47.875
   217.2,0.154332,0.097810,1.352331,0.002573,  47.859
   217.4,0.153509,0.097300,1.344323,0.002573,  47.854
   217.6,0.152699,0.096808,1.336605,0.002538,  47.855
   217.8,0.151917,0.096280,1.328637,0.002560,  47.857
   218.0,0.151079,0.095743,1.320824,0.002560,  47.854
   218.2,0.150218,0.095194,1.312763,0.002526,  47.858
   218.4,0.149352,0.094668,1.304475,0.002560,  47.857
   218.6,0.148538,0.094146,1.295993,0.002526,  47.855
   218.8,0.147733,0.093628,1.289481,0.002504,  47.853
   219.0,0.146964,0.093130,1.283790,0.002526,  47.858
   219.2,0.146146,0.092645,1.278648,0.002513,  47.863
   219.4,0.145305,0.092170,1.274401,0.002491,  47.864
   219.6,0.144464,0.091643,1.266515,0.002491,  47.869
   219.8,0.143608,0.091100,1.257875,0.002478,  47.867
   220.0,0.142739,0.090541,1.248316,0.002456,  47.871
   220.2,0.141867,0.090008,1.240586,0.002456,  47.871
   220.4,0.141012,0.089478,1.233163,0.002478,  47.874
   220.6,0.140166,0.088952,1.226028,0.002456,  47.876
   220.8,0.139332,0.088490,1.218552,0.002443,  47.890
   221.0,0.138482,0.088073,1.210805,0.002430,  47.899
   221.2,0.137630,0.087681,1.203010,0.002395,  47.917
   221.4,0.136779,0.087336,1.195928,0.002417,  47.917
   221.6,0.135963,0.086871,1.188969,0.002404,  47.910
   221.8,0.135158,0.086384,1.182219,0.002370,  47.911
   222.0,0.134372,0.085868,1.174591,0.002404,  47.906
   222.2,0.133560,0.085358,1.166492,0.002404,  47.890
   222.4,0.132737,0.084841,1.158036,0.002370,  47.888
   222.6,0.131913,0.084320,1.150270,0.002404,  47.892
   222.8,0.131140,0.083809,1.142619,0.002391,  47.894
   223.0,0.130388,0.083311,1.134987,0.002357,  47.898
   223.2,0.129663,0.082822,1.128608,0.002391,  47.899
   223.4,0.128895,0.082355,1.122746,0.002379,  47.893
   223.6,0.128115,0.081908,1.117459,0.002344,  47.895
   223.8,0.127335,0.081475,1.109884,0.002391,  47.895
   224.0,0.126654,0.080982,1.101452,0.002391,  47.894
   224.2,0.126021,0.080465,1.092144,0.002357,  47.898
   224.4,0.125446,0.079928,1.084771,0.002391,  47.900
   224.6,0.124911,0.079423,1.077921,0.002379,  47.901
   224.8,0.124179,0.078931,1.071418,0.002344,  47.902
   225.0,0.123399,0.078448,1.064508,0.002344,  47.905
   225.2,0.122572,0.077960,1.057662,0.002344,  47.919
   225.4,0.121816,0.077482,1.050729,0.002296,  47.948
   225.6,0.121051,0.077009,1.044162,0.002296,  47.933
   225.8,0.120295,0.076551,1.037693,0.002331,  47.927
   226.0,0.119563,0.076103,1.031257,0.002283,  47.929
   226.2,0.118840,0.075678,1.024571,0.002283,  47.931
   226.4,0.118115,0.075216,1.017718,0.002296,  47.926
   226.6,0.117384,0.074744,1.010785,0.002283,  47.930
   226.8,0.116651,0.074267,1.003913,0.002261,  47.928
   227.0,0.115915,0.073814,0.996908,0.002283,  47.929
   227.2,0.115236,0.073373,0.989843,0.002283,  47.931
   227.4,0.114574,0.072947,0.984321,0.002261,  47.928
   227.6,0.113946,0.072500,0.979522,0.002248,  47.925
   227.8,0.113223,0.072055,0.975417,0.002283,  47.929
   228.0,0.112483,0.071618,0.971883,0.002261,  47.930
   228.2,0.111710,0.071152,0.965177,0.002261,  47.931
   228.4,0.110950,0.070677,0.957587,0.002261,  47.935
   228.6,0.110204,0.070197,0.949233,0.002226,  47.932
   228.8,0.109446,0.069733,0.942616,0.002226,  47.928
   229.0,0.108703,0.069273,0.936470,0.002261,  47.931
   229.2,0.107980,0.068818,0.930661,0.002261,  47.938
   229.4,0.107256,0.068426,0.924225,0.002261,  47.947
   229.6,0.106527,0.068066,0.917688,0.002261,  47.959
   229.8,0.105815,0.067742,0.911005,0.002296,  47.969
   230.0,0.105101,0.067448,0.904924,0.002270,  47.952
   230.2,0.104395,0.067050,0.899128,0.002245,  47.947
   230.4,0.103709,0.066625,0.893510,0.002257,  47.943
   230.6,0.103032,0.066182,0.887289,0.002257,  47.942
   230.8,0.102336,0.065751,0.880973,0.002235,  47.937
   231.0,0.101650,0.065311,0.874480,0.002213,  47.941
   231.2,0.100963,0.064859,0.868087,0.002166,  47.944
   231.4,0.100329,0.064436,0.861652,0.002201,  47.937
   231.6,0.099739,0.064031,0.855150,0.002213,  47.942
   231.8,0.099169,0.063636,0.849706,0.002188,  47.942
   232.0,0.098528,0.063239,0.844687,0.002210,  47.940
   232.2,0.097865,0.062845,0.840158,0.002223,  47.939
   232.4,0.097180,0.062458,0.834365,0.002175,  47.936
   232.6,0.096507,0.062046,0.828132,0.002175,  47.933
   232.8,0.095824,0.061621,0.821484,0.002188,  47.937
   233.0,0.095146,0.061186,0.815441,0.002140,  47.937
   233.2,0.094575,0.060769,0.809496,0.002175,  47.937
   233.4,0.094061,0.060359,0.803598,0.002188,  47.935
   233.6,0.093599,0.059949,0.797802,0.002140,  47.942
   233.8,0.093192,0.059544,0.792082,0.002175,  47.955
   234.0,0.092601,0.059144,0.786441,0.002175,  47.958
   234.2,0.091970,0.058747,0.781028,0.002127,  47.938
   234.4,0.091295,0.058359,0.775723,0.002149,  47.939
   234.6,0.090684,0.057985,0.770493,0.002149,  47.933
   234.8,0.090078,0.057620,0.764980,0.002114,  47.932
   235.0,0.089495,0.057230,0.759353,0.002114,  47.929
   235.2,0.088897,0.056841,0.753622,0.002114,  47.928
   235.4,0.088291,0.056451,0.748046,0.002114,  47.927
   235.6,0.087694,0.056080,0.742522,0.002114,  47.931
   235.8,0.087149,0.055728,0.736966,0.002114,  47.927
   236.0,0.086625,0.055387,0.731827,0.002114,  47.928
   236.2,0.086138,0.055010,0.726879,0.002114,  47.926
   236.4,0.085551,0.054637,0.722080,0.002114,  47.930
   236.6,0.084921,0.054255,0.717688,0.002079,  47.933
   236.8,0.084266,0.053868,0.713489,0.002079,  47.932
   237.0,0.083646,0.053480,0.709583,0.002092,  47.931
   237.2,0.083018,0.053092,0.705900,0.002105,  47.931
   237.4,0.082407,0.052714,0.700956,0.002070,  47.935
   237.6,0.081806,0.052335,0.695644,0.002105,  47.938
   237.8,0.081215,0.051960,0.689957,0.002118,  47.942
   238.0,0.080635,0.051580,0.684616,0.002070,  47.953
   238.2,0.080052,0.051207,0.679251,0.002105,  47.965
   238.4,0.079467,0.050839,0.673830,0.002105,  47.966
   238.6,0.078879,0.050530,0.668797,0.002070,  47.950
   238.8,0.078314,0.050245,0.663952,0.002092,  47.940
   239.0,0.077747,0.049993,0.659251,0.002057,  47.943
   239.2,0.077177,0.049774,0.654277,0.002070,  47.942
   239.4,0.076612,0.049449,0.649249,0.002057,  47.939
   239.6,0.076056,0.049093,0.644164,0.002023,  47.939
   239.8,0.075492,0.048711,0.639175,0.002035,  47.940
   240.0,0.074996,0.048384,0.634174,0.002023,  47.942
   240.2,0.074554,0.048062,0.629150,0.001988,  47.943
   240.4,0.074140,0.047755,0.624768,0.001988,  47.942
   240.6,0.073618,0.047427,0.620688,0.002010,  47.941
   240.8,0.073072,0.047092,0.616876,0.001975,  47.941
   241.0,0.072484,0.046758,0.612234,0.001975,  47.943
   241.2,0.071927,0.046417,0.607347,0.002010,  47.940
   241.4,0.071387,0.046070,0.602222,0.001975,  47.942
   241.6,0.070832,0.045730,0.597464,0.001988,  47.943
   241.8,0.070375,0.045395,0.592793,0.001988,  47.945
   242.0,0.069962,0.045062,0.588176,0.001953,  47.946
   242.2,0.069595,0.044736,0.583465,0.002001,  47.960
   242.4,0.069277,0.044416,0.578685,0.001988,  47.969
   242.6,0.068804,0.044099,0.573863,0.001953,  47.957
   242.8,0.068298,0.043786,0.569676,0.002001,  47.943
   243.0,0.067759,0.043482,0.565753,0.001988,  47.938
   243.2,0.067269,0.043183,0.562085,0.001953,  47.941
   243.4,0.066795,0.042888,0.557908,0.001988,  47.938
   243.6,0.066330,0.042589,0.553604,0.001997,  47.943
   243.8,0.065851,0.042286,0.549183,0.001962,  47.939
   244.0,0.065388,0.041983,0.545045,0.001975,  47.940
   244.2,0.064919,0.041709,0.540925,0.001997,  47.944
   244.4,0.064490,0.041445,0.536869,0.001997,  47.939
   244.6,0.064097,0.041196,0.532909,0.001975,  47.936
   244.8,0.063720,0.040905,0.528958,0.001975,  47.937
   245.0,0.063256,0.040590,0.525084,0.001975,  47.937
   245.2,0.062762,0.040263,0.521003,0.001975,  47.940
   245.4,0.062239,0.039960,0.516843,0.001975,  47.943
   245.6,0.061753,0.039650,0.512621,0.001988,  47.940
   245.8,0.061263,0.039341,0.509118,0.001966,  47.939
   246.0,0.060790,0.039042,0.505921,0.001966,  47.941
   246.2,0.060320,0.038744,0.503068,0.001966,  47.943
   246.4,0.059847,0.038439,0.500469,0.001944,  47.951
   246.6,0.059396,0.038143,0.496612,0.001944,  47.964
   246.8,0.058946,0.037854,0.492420,0.001979,  47.973
   247.0,0.058496,0.037565,0.487913,0.001957,  47.956
   247.2,0.058067,0.037274,0.483990,0.001957,  47.947
   247.4,0.057624,0.037000,0.480221,0.001944,  47.946
   247.6,0.057178,0.036728,0.476553,0.001957,  47.944
   247.8,0.056739,0.036490,0.472758,0.001944,  47.942
   248.0,0.056303,0.036276,0.468953,0.001931,  47.942
   248.2,0.055858,0.036083,0.465128,0.001931,  47.944
   248.4,0.055423,0.035914,0.461461,0.001931,  47.939
   248.6,0.055054,0.035688,0.457847,0.001918,  47.941
   248.8,0.054714,0.035453,0.454303,0.001883,  47.943
   249.0,0.054410,0.035210,0.450824,0.001896,  47.939
   249.2,0.054006,0.034957,0.447429,0.001883,  47.936
   249.4,0.053564,0.034686,0.444083,0.001861,  47.933
   249.6,0.053087,0.034404,0.440540,0.001861,  47.934
   249.8,0.052657,0.034138,0.436886,0.001896,  47.934
   250.0,0.052234,0.033869,0.433184,0.001909,  47.931
   250.2,0.051815,0.033600,0.429691,0.001909,  47.933
   250.4,0.051413,0.033336,0.426253,0.001909,  47.934
   250.6,0.051015,0.033083,0.422870,0.001922,  47.941
   250.8,0.050620,0.032837,0.419452,0.001922,  47.956
   251.0,0.050283,0.032586,0.416040,0.001922,  47.960
   251.2,0.049982,0.032338,0.412628,0.001935,  47.944
   251.4,0.049705,0.032097,0.409390,0.001935,  47.934
   251.6,0.049462,0.031860,0.406235,0.001935,  47.930
   251.8,0.049118,0.031621,0.403149,0.001947,  47.929
   252.0,0.048752,0.031395,0.399939,0.001947,  47.928
   252.2,0.048353,0.031160,0.396712,0.001935,  47.931
   252.4,0.047983,0.030921,0.393462,0.001947,  47.930
   252.6,0.047619,0.030691,0.390389,0.001900,  47.927
   252.8,0.047262,0.030485,0.387358,0.001887,  47.931
   253.0,0.046928,0.030286,0.384388,0.001887,  47.929
   253.2,0.046621,0.030107,0.381348,0.001865,  47.926
   253.4,0.046332,0.029884,0.378304,0.001887,  47.928
   253.6,0.045975,0.029646,0.375237,0.001887,  47.930
   253.8,0.045605,0.029391,0.372143,0.001900,  47.925
   254.0,0.045212,0.029153,0.369027,0.001887,  47.927
   254.2,0.044845,0.028921,0.365877,0.001887,  47.926
   254.4,0.044488,0.028694,0.363216,0.001900,  47.922
   254.6,0.044136,0.028469,0.360776,0.001865,  47.908
   254.8,0.043778,0.028243,0.358553,0.001865,  47.915
   255.0,0.043427,0.028027,0.356549,0.001891,  47.923
   255.2,0.043079,0.027807,0.353458,0.001891,  47.954
   255.4,0.042737,0.027593,0.350116,0.001891,  47.955
   255.6,0.042413,0.027379,0.346468,0.001904,  47.939
   255.8,0.042088,0.027163,0.343622,0.001904,  47.928
   256.0,0.041749,0.026952,0.340996,0.001891,  47.927
   256.2,0.041430,0.026742,0.338621,0.001891,  47.923
   256.4,0.041098,0.026564,0.335924,0.001891,  47.927
   256.6,0.040765,0.026400,0.333174,0.001891,  47.925
   256.8,0.040446,0.026253,0.330373,0.001891,  47.927
   257.0,0.040126,0.026120,0.327784,0.001891,  47.922
   257.2,0.039849,0.025961,0.325286,0.001891,  47.907
   257.4,0.039595,0.025800,0.322867,0.001891,  47.912
   257.6,0.039370,0.025637,0.320312,0.001869,  47.905
   257.8,0.039068,0.025447,0.317743,0.001869,  47.902
   258.0,0.038738,0.025244,0.315144,0.001869,  47.899
   258.2,0.038386,0.025021,0.312519,0.001847,  47.895
   258.4,0.038070,0.024816,0.309877,0.001882,  47.893
   258.6,0.037757,0.024612,0.307201,0.001882,  47.899
   258.8,0.037454,0.024413,0.304596,0.001860,  47.893
   259.0,0.037154,0.024223,0.302012,0.001894,  47.894
   259.2,0.036850,0.024034,0.299424,0.001894,  47.902
   259.4,0.036567,0.023846,0.296946,0.001872,  47.917
   259.6,0.036323,0.023660,0.294513,0.001894,  47.914
   259.8,0.036096,0.023473,0.292125,0.001872,  47.890
   260.0,0.035898,0.023296,0.289786,0.001872,  47.891
   260.2,0.035732,0.023117,0.287471,0.001872,  47.890
   260.4,0.035471,0.022937,0.285197,0.001850,  47.883
   260.6,0.035204,0.022774,0.282863,0.001885,  47.880
   260.8,0.034916,0.022608,0.280504,0.001885,  47.885
   261.0,0.034651,0.022438,0.278129,0.001850,  47.884
   261.2,0.034386,0.022272,0.276032,0.001885,  47.883
   261.4,0.034121,0.022122,0.274045,0.001860,  47.882
   261.6,0.033874,0.021977,0.272194,0.001837,  47.881
   261.8,0.033634,0.021836,0.270011,0.001872,  47.881
   262.0,0.033401,0.021665,0.267734,0.001872,  47.882
   262.2,0.033149,0.021489,0.265360,0.001872,  47.882
   262.4,0.032879,0.021300,0.263028,0.001850,  47.885
   262.6,0.032601,0.021126,0.260667,0.001885,  47.885
   262.8,0.032344,0.020958,0.258279,0.001885,  47.884
   263.0,0.032083,0.020793,0.256296,0.001863,  47.882
   263.2,0.031825,0.020625,0.254478,0.001863,  47.887
   263.4,0.031561,0.020462,0.252856,0.001863,  47.895
   263.6,0.031304,0.020300,0.251401,0.001841,  47.906
   263.8,0.031053,0.020144,0.249191,0.001841,  47.929
   264.0,0.030803,0.019989,0.246795,0.001876,  47.911
   264.2,0.030563,0.019838,0.244218,0.001854,  47.894
   264.4,0.030332,0.019685,0.242127,0.001854,  47.889
   264.6,0.030085,0.019524,0.240175,0.001876,  47.889
   264.8,0.029849,0.019373,0.238349,0.001854,  47.887
   265.0,0.029610,0.019244,0.236365,0.001854,  47.888
   265.2,0.029369,0.019120,0.234374,0.001854,  47.889
   265.4,0.029142,0.019014,0.232366,0.001819,  47.893
   265.6,0.028917,0.018916,0.230566,0.001854,  47.894
   265.8,0.028708,0.018795,0.228858,0.001841,  47.894
   266.0,0.028516,0.018679,0.227256,0.001819,  47.900
   266.2,0.028344,0.018562,0.225405,0.001819,  47.898
   266.4,0.028121,0.018420,0.223474,0.001819,  47.897
   266.6,0.027885,0.018270,0.221464,0.001797,  47.899
   266.8,0.027639,0.018105,0.219555,0.001797,  47.900
   267.0,0.027408,0.017956,0.217644,0.001832,  47.895
   267.2,0.027190,0.017808,0.215742,0.001810,  47.902
   267.4,0.026974,0.017668,0.213928,0.001810,  47.898
   267.6,0.026755,0.017528,0.212152,0.001832,  47.910
   267.8,0.026545,0.017384,0.210418,0.001797,  47.925
   268.0,0.026335,0.017253,0.208557,0.001810,  47.934
   268.2,0.026127,0.017121,0.206656,0.001845,  47.920
   268.4,0.025937,0.016991,0.204710,0.001810,  47.913
   268.6,0.025743,0.016870,0.202987,0.001823,  47.907
   268.8,0.025572,0.016746,0.201339,0.001858,  47.908
   269.0,0.025414,0.016616,0.199780,0.001823,  47.903
   269.2,0.025273,0.016493,0.198124,0.001836,  47.903
   269.4,0.025152,0.016371,0.196480,0.001871,  47.902
   269.6,0.024970,0.016245,0.194823,0.001836,  47.898
   269.8,0.024786,0.016127,0.193369,0.001836,  47.899
   270.0,0.024579,0.016011,0.192007,0.001858,  47.898
   270.2,0.024397,0.015903,0.190745,0.001823,  47.891
   270.4,0.024221,0.015802,0.189209,0.001836,  47.891
   270.6,0.024054,0.015682,0.187569,0.001836,  47.899
   270.8,0.023867,0.015555,0.185824,0.001849,  47.899
   271.0,0.023674,0.015425,0.184168,0.001862,  47.895
   271.2,0.023492,0.015302,0.182516,0.001862,  47.894
   271.4,0.023308,0.015187,0.180848,0.001875,  47.894
   271.6,0.023117,0.015075,0.179239,0.001875,  47.891
   271.8,0.022940,0.014956,0.177665,0.001840,  47.895
   272.0,0.022759,0.014836,0.176102,0.001862,  47.906
   272.2,0.022568,0.014724,0.174775,0.001840,  47.923
   272.4,0.022382,0.014613,0.173580,0.001840,  47.932
   272.6,0.022207,0.014497,0.172495,0.001840,  47.909
   272.8,0.022037,0.014397,0.171546,0.001818,  47.894
   273.0,0.021867,0.014285,0.170132,0.001818,  47.897
   273.2,0.021697,0.014179,0.168624,0.001852,  47.892
   273.4,0.021534,0.014070,0.167008,0.001865,  47.891
   273.6,0.021371,0.013961,0.165544,0.001865,  47.896
   273.8,0.021204,0.013856,0.164094,0.001865,  47.891
   274.0,0.021040,0.013750,0.162660,0.001865,  47.893
   274.2,0.020876,0.013663,0.161404,0.001852,  47.887
   274.4,0.020729,0.013592,0.160237,0.001840,  47.893
   274.6,0.020587,0.013531,0.159165,0.001852,  47.895
   274.8,0.020450,0.013487,0.157870,0.001852,  47.892
   275.0,0.020295,0.013390,0.156501,0.001852,  47.887
   275.2,0.020134,0.013284,0.155063,0.001878,  47.889
   275.4,0.019965,0.013162,0.153700,0.001843,  47.891
   275.6,0.019813,0.013055,0.152346,0.001843,  47.886
   275.8,0.019658,0.012957,0.150984,0.001856,  47.889
   276.0,0.019505,0.012863,0.149653,0.001834,  47.892
   276.2,0.019359,0.012763,0.148326,0.001856,  47.896
   276.4,0.019209,0.012669,0.147008,0.001856,  47.914
   276.6,0.019060,0.012577,0.145760,0.001847,  47.919
   276.8,0.018915,0.012487,0.144541,0.001882,  47.907
   277.0,0.018776,0.012394,0.143363,0.001895,  47.898
   277.2,0.018649,0.012309,0.142173,0.001860,  47.900
   277.4,0.018530,0.012221,0.140979,0.001895,  47.900
   277.6,0.018417,0.012128,0.139795,0.001908,  47.897
   277.8,0.018323,0.012044,0.138591,0.001860,  47.900
   278.0,0.018236,0.011955,0.137379,0.001895,  47.899
   278.2,0.018114,0.011871,0.136164,0.001908,  47.896
   278.4,0.017978,0.011787,0.135134,0.001860,  47.899
   278.6,0.017837,0.011707,0.134186,0.001860,  47.893
   278.8,0.017701,0.011628,0.133323,0.001873,  47.893
   279.0,0.017577,0.011548,0.132205,0.001860,  47.898
   279.2,0.017462,0.011464,0.130982,0.001860,  47.897
   279.4,0.017326,0.011378,0.129663,0.001873,  47.898
   279.6,0.017193,0.011290,0.128538,0.001873,  47.900
   279.8,0.017064,0.011203,0.127462,0.001886,  47.894
   280.0,0.016930,0.011119,0.126434,0.001886,  47.896
   280.2,0.016810,0.011035,0.125302,0.001886,  47.897
   280.4,0.016686,0.010949,0.124171,0.001899,  47.907
   280.6,0.016555,0.010869,0.123011,0.001886,  47.918
   280.8,0.016437,0.010783,0.121913,0.001886,  47.937
   281.0,0.016310,0.010701,0.120818,0.001899,  47.930
   281.2,0.016185,0.010630,0.119739,0.001877,  47.911
   281.4,0.016075,0.010562,0.118828,0.001890,  47.904
   281.6,0.015956,0.010489,0.118033,0.001855,  47.904
   281.8,0.015834,0.010409,0.117305,0.001890,  47.903
   282.0,0.015719,0.010341,0.116683,0.001868,  47.904
   282.2,0.015597,0.010269,0.115741,0.001868,  47.904
   282.4,0.015475,0.010192,0.114726,0.001855,  47.908
   282.6,0.015368,0.010117,0.113640,0.001807,  47.909
   282.8,0.015255,0.010057,0.112814,0.001842,  47.905
   283.0,0.015147,0.010004,0.112086,0.001829,  47.910
   283.2,0.015042,0.009958,0.111464,0.001794,  47.911
   283.4,0.014948,0.009921,0.110418,0.001829,  47.909
   283.6,0.014841,0.009852,0.109187,0.001842,  47.911
   283.8,0.014724,0.009780,0.107810,0.001820,  47.916
   284.0,0.014614,0.009703,0.106842,0.001868,  47.915
   284.2,0.014509,0.009635,0.105989,0.001868,  47.916
   284.4,0.014398,0.009567,0.105248,0.001845,  47.918
   284.6,0.014305,0.009504,0.104408,0.001906,  47.924
   284.8,0.014203,0.009436,0.103563,0.001893,  47.934
   285.0,0.014094,0.009367,0.102724,0.001871,  47.949
   285.2,0.014001,0.009305,0.101853,0.001884,  47.951
   285.4,0.013904,0.009241,0.100967,0.001884,  47.942
   285.6,0.013807,0.009182,0.100062,0.001862,  47.926
   285.8,0.013721,0.009127,0.099243,0.001862,  47.923
   286.0,0.013630,0.009066,0.098466,0.001897,  47.926
   286.2,0.013532,0.009007,0.097727,0.001875,  47.925
   286.4,0.013445,0.008947,0.096540,0.001862,  47.926
   286.6,0.013367,0.008885,0.095155,0.001862,  47.929
   286.8,0.013294,0.008828,0.093577,0.001840,  47.929
   287.0,0.013239,0.008774,0.092815,0.001862,  47.929
   287.2,0.013186,0.008713,0.092359,0.001862,  47.931
   287.4,0.013097,0.008651,0.092212,0.001840,  47.931
   287.6,0.013006,0.008597,0.091623,0.001875,  47.934
   287.8,0.012913,0.008542,0.090960,0.001875,  47.936
   288.0,0.012822,0.008480,0.090220,0.001853,  47.938
   288.2,0.012724,0.008421,0.089547,0.001888,  47.940
   288.4,0.012637,0.008367,0.088893,0.001888,  47.938
   288.6,0.012548,0.008311,0.088245,0.001853,  47.940
   288.8,0.012453,0.008259,0.087518,0.001888,  47.947
   289.0,0.012374,0.008199,0.086778,0.001888,  47.954
   289.2,0.012288,0.008137,0.086010,0.001888,  47.988
   289.4,0.012205,0.008086,0.085287,0.001866,  47.998
   289.6,0.012123,0.008035,0.084576,0.001866,  47.982
   289.8,0.012047,0.007980,0.083862,0.001879,  47.968
   290.0,0.011969,0.007935,0.083246,0.001844,  47.968
   290.2,0.011889,0.007886,0.082677,0.001879,  47.971
   290.4,0.011815,0.007832,0.082153,0.001879,  47.972
   290.6,0.011735,0.007785,0.081687,0.001844,  47.975
   290.8,0.011645,0.007735,0.081056,0.001857,  47.972
   291.0,0.011568,0.007679,0.080388,0.001879,  47.974
   291.2,0.011488,0.007629,0.079686,0.001844,  47.973
   291.4,0.011410,0.007581,0.079127,0.001857,  47.974
   291.6,0.011338,0.007539,0.078625,0.001879,  47.981
   291.8,0.011266,0.007493,0.078176,0.001844,  47.978
   292.0,0.011196,0.007456,0.077565,0.001870,  47.982
   292.2,0.011124,0.007420,0.076888,0.001905,  47.979
   292.4,0.011052,0.007382,0.076165,0.001883,  47.979
   292.6,0.010975,0.007353,0.075503,0.001895,  47.977
   292.8,0.010905,0.007309,0.074839,0.001930,  47.980
   293.0,0.010839,0.007261,0.074190,0.001908,  47.981
   293.2,0.010769,0.007215,0.073571,0.001908,  47.988
   293.4,0.010703,0.007169,0.072973,0.001908,  48.000
   293.6,0.010633,0.007127,0.072392,0.001921,  48.007
   293.8,0.010564,0.007086,0.071785,0.001921,  47.989
   294.0,0.010503,0.007038,0.071178,0.001921,  47.984
   294.2,0.010441,0.007005,0.070555,0.001899,  47.982
   294.4,0.010380,0.006968,0.069974,0.001899,  47.978
   294.6,0.010319,0.006925,0.069415,0.001899,  47.985
   294.8,0.010252,0.006886,0.068868,0.001864,  47.981
   295.0,0.010192,0.006847,0.068393,0.001864,  47.979
   295.2,0.010138,0.006809,0.067971,0.001899,  47.984
   295.4,0.010096,0.006765,0.067582,0.001912,  47.979
   295.6,0.010063,0.006725,0.066943,0.001912,  47.981
   295.8,0.010037,0.006684,0.066210,0.001912,  47.982
   296.0,0.009975,0.006642,0.065369,0.001925,  47.980
   296.2,0.009911,0.006601,0.064791,0.001938,  47.983
   296.4,0.009839,0.006562,0.064293,0.001925,  47.985
   296.6,0.009772,0.006524,0.063877,0.001925,  47.989
   296.8,0.009711,0.006491,0.063398,0.001951,  47.985
   297.0,0.009658,0.006458,0.062941,0.001951,  47.986
   297.2,0.009596,0.006421,0.062504,0.001951,  47.982
   297.4,0.009538,0.006386,0.062017,0.001964,  47.994
   297.6,0.009491,0.006349,0.061522,0.001951,  48.004
   297.8,0.009429,0.006316,0.061024,0.001951,  48.019
   298.0,0.009370,0.006276,0.060540,0.001951,  48.019
   298.2,0.009315,0.006238,0.060042,0.001929,  48.004
   298.4,0.009256,0.006211,0.059542,0.001929,  47.995
   298.6,0.009209,0.006182,0.059028,0.001894,  47.990
   298.8,0.009159,0.006144,0.058498,0.001942,  47.992
   299.0,0.009100,0.006115,0.057970,0.001954,  47.990
   299.2,0.009053,0.006081,0.057424,0.001967,  47.991
   299.4,0.009000,0.006047,0.056988,0.001920,  47.992
   299.6,0.008949,0.006013,0.056592,0.001942,  47.993
   299.8,0.008899,0.005981,0.056229,0.001954,  47.992
   300.0,0.008857,0.005944,0.055876,0.001920,  47.991
   300.2,0.008812,0.005913,0.055550,0.001942,  48.000
   300.4,0.008753,0.005877,0.055240,0.001954,  47.994
   300.6,0.008709,0.005850,0.054798,0.001932,  47.991
   300.8,0.008664,0.005821,0.054308,0.001932,  47.990
   301.0,0.008607,0.005802,0.053761,0.001945,  47.992
   301.2,0.008565,0.005787,0.053352,0.001945,  47.988
   301.4,0.008520,0.005755,0.052989,0.001945,  47.989
   301.6,0.008470,0.005719,0.052664,0.001958,  47.992
   301.8,0.008428,0.005683,0.052254,0.001971,  48.000
   302.0,0.008383,0.005650,0.051835,0.001971,  48.007
   302.2,0.008335,0.005618,0.051388,0.001984,  48.007
   302.4,0.008297,0.005602,0.051004,0.001997,  47.997
   302.6,0.008257,0.005575,0.050621,0.001984,  47.992
   302.8,0.008208,0.005550,0.050252,0.001984,  47.992
   303.0,0.008177,0.005527,0.049765,0.001962,  47.988
   303.2,0.008140,0.005502,0.049224,0.001962,  47.990
   303.4,0.008091,0.005476,0.048626,0.001962,  47.991
   303.6,0.008055,0.005452,0.048222,0.001940,  47.988
   303.8,0.008021,0.005432,0.047878,0.001962,  47.988
   304.0,0.007992,0.005404,0.047593,0.001975,  47.988
   304.2,0.007965,0.005378,0.047326,0.001940,  47.990
   304.4,0.007941,0.005352,0.047088,0.001975,  47.984
   304.6,0.007898,0.005325,0.046875,0.001988,  47.990
   304.8,0.007859,0.005296,0.046550,0.001940,  47.988
   305.0,0.007815,0.005271,0.046178,0.001975,  47.990
   305.2,0.007775,0.005248,0.045769,0.001975,  47.990
   305.4,0.007738,0.005225,0.045422,0.001975,  47.990
   305.6,0.007698,0.005197,0.045100,0.001997,  47.995
   305.8,0.007661,0.005179,0.044793,0.002010,  47.995
   306.0,0.007624,0.005151,0.044446,0.001988,  48.000
   306.2,0.007585,0.005123,0.044102,0.001988,  48.013
   306.4,0.007547,0.005101,0.043744,0.001966,  48.024
   306.6,0.007508,0.005077,0.043418,0.001979,  48.012
   306.8,0.007468,0.005053,0.043099,0.001979,  48.005
   307.0,0.007440,0.005036,0.042799,0.001992,  47.999
   307.2,0.007403,0.005014,0.042465,0.001957,  47.994
   307.4,0.007366,0.004988,0.042111,0.001970,  47.997
   307.6,0.007338,0.004966,0.041760,0.002004,  47.991
   307.8,0.007301,0.004941,0.041413,0.001982,  47.996
   308.0,0.007255,0.004912,0.041058,0.001982,  47.992
   308.2,0.007223,0.004889,0.040700,0.002004,  47.991
   308.4,0.007191,0.004866,0.040340,0.001970,  47.991
   308.6,0.007171,0.004840,0.040114,0.002004,  47.988
   308.8,0.007136,0.004820,0.039953,0.002004,  47.993
   309.0,0.007105,0.004805,0.039839,0.001970,  47.991
   309.2,0.007077,0.004780,0.039565,0.002017,  47.988
   309.4,0.007041,0.004762,0.039251,0.002017,  47.986
   309.6,0.007016,0.004750,0.038880,0.001982,  47.982
   309.8,0.006993,0.004730,0.038562,0.002008,  47.987
   310.0,0.006958,0.004708,0.038247,0.002008,  47.979
   310.2,0.006932,0.004692,0.037925,0.001986,  47.986
   310.4,0.006907,0.004679,0.037643,0.001999,  47.993
   310.6,0.006874,0.004663,0.037392,0.002034,  48.003
   310.8,0.006849,0.004656,0.037161,0.002012,  47.986
   311.0,0.006817,0.004644,0.036950,0.002012,  47.973
   311.2,0.006784,0.004629,0.036768,0.002047,  47.969
   311.4,0.006762,0.004611,0.036599,0.002025,  47.967
   311.6,0.006732,0.004593,0.036353,0.002012,  47.967
   311.8,0.006697,0.004571,0.036081,0.002047,  47.963
   312.0,0.006674,0.004553,0.035770,0.002025,  47.967
   312.2,0.006645,0.004540,0.035494,0.002012,  47.959
   312.4,0.006615,0.004520,0.035221,0.002047,  47.958
   312.6,0.006595,0.004503,0.034948,0.002025,  47.955
   312.8,0.006569,0.004495,0.034714,0.002025,  47.957
   313.0,0.006542,0.004477,0.034496,0.002060,  47.950
   313.2,0.006513,0.004453,0.034287,0.002038,  47.951
   313.4,0.006488,0.004437,0.034038,0.002038,  47.951
   313.6,0.006470,0.004419,0.033756,0.002038,  47.953
   313.8,0.006443,0.004401,0.033454,0.002003,  47.944
   314.0,0.006422,0.004381,0.033195,0.002038,  47.933
   314.2,0.006403,0.004363,0.032949,0.002038,  47.935
   314.4,0.006379,0.004346,0.032728,0.002003,  47.936
   314.6,0.006356,0.004330,0.032467,0.002038,  47.942
   314.8,0.006327,0.004311,0.032178,0.002038,  47.965
   315.0,0.006303,0.004289,0.031894,0.002016,  47.989
   315.2,0.006282,0.004278,0.031676,0.002064,  47.966
   315.4,0.006262,0.004263,0.031480,0.002077,  47.955
   315.6,0.006238,0.004247,0.031313,0.002042,  47.951
   315.8,0.006214,0.004238,0.031105,0.002064,  47.951
   316.0,0.006188,0.004224,0.030887,0.002038,  47.949
   316.2,0.006161,0.004206,0.030675,0.002003,  47.952
   316.4,0.006138,0.004194,0.030450,0.002038,  47.953
   316.6,0.006111,0.004184,0.030208,0.002051,  47.952
   316.8,0.006090,0.004163,0.029970,0.002051,  47.949
   317.0,0.006069,0.004151,0.029772,0.002064,  47.950
   317.2,0.006057,0.004135,0.029589,0.002029,  47.955
   317.4,0.006036,0.004119,0.029425,0.002029,  47.955
   317.6,0.006015,0.004102,0.029274,0.002042,  47.956
   317.8,0.005995,0.004087,0.029130,0.002042,  47.953
   318.0,0.005973,0.004075,0.029000,0.002020,  47.951
   318.2,0.005952,0.004066,0.028877,0.002032,  47.953
   318.4,0.005929,0.004050,0.028672,0.002045,  47.951
   318.6,0.005910,0.004040,0.028440,0.002058,  47.954
   318.8,0.005889,0.004029,0.028193,0.002071,  47.963
   319.0,0.005868,0.004013,0.027973,0.002071,  47.972
   319.2,0.005856,0.004007,0.027747,0.002084,  47.976
   319.4,0.005837,0.003994,0.027521,0.002097,  47.961
   319.6,0.005822,0.003984,0.027294,0.002097,  47.955
   319.8,0.005804,0.003972,0.027072,0.002097,  47.944
   320.0,0.005786,0.003969,0.026837,0.002075,  47.931
   320.2,0.005767,0.003963,0.026661,0.002088,  47.923
   320.4,0.005742,0.003950,0.026513,0.002075,  47.927
   320.6,0.005724,0.003938,0.026406,0.002040,  47.927
   320.8,0.005709,0.003926,0.026241,0.002053,  47.928
   321.0,0.005687,0.003918,0.026061,0.002075,  47.924
   321.2,0.005672,0.003908,0.025860,0.002075,  47.924
   321.4,0.005660,0.003898,0.025688,0.002088,  47.926
   321.6,0.005641,0.003888,0.025517,0.002075,  47.922
   321.8,0.005628,0.003876,0.025336,0.002075,  47.920
   322.0,0.005613,0.003865,0.025223,0.002101,  47.918
   322.2,0.005593,0.003852,0.025145,0.002101,  47.916
   322.4,0.005584,0.003844,0.025089,0.002114,  47.914
   322.6,0.005570,0.003836,0.024906,0.002127,  47.920
   322.8,0.005564,0.003827,0.024678,0.002127,  47.921
   323.0,0.005553,0.003817,0.024400,0.002139,  47.919
   323.2,0.005542,0.003808,0.024210,0.002139,  47.939
   323.4,0.005532,0.003800,0.024052,0.002139,  47.945
   323.6,0.005525,0.003794,0.023909,0.002152,  47.942
   323.8,0.005509,0.003783,0.023755,0.002139,  47.918
   324.0,0.005496,0.003773,0.023632,0.002139,  47.912
   324.2,0.005479,0.003767,0.023516,0.002152,  47.912
   324.4,0.005472,0.003766,0.023381,0.002117,  47.909
   324.6,0.005459,0.003762,0.023232,0.002130,  47.909
   324.8,0.005446,0.003753,0.023074,0.002130,  47.905
   325.0,0.005428,0.003747,0.022945,0.002095,  47.907
   325.2,0.005418,0.003737,0.022814,0.002130,  47.905
   325.4,0.005402,0.003730,0.022688,0.002143,  47.903
   325.6,0.005386,0.003725,0.022568,0.002073,  47.903
   325.8,0.005374,0.003712,0.022465,0.002121,  47.905
   326.0,0.005361,0.003703,0.022363,0.002121,  47.907
   326.2,0.005348,0.003695,0.022236,0.002134,  47.903
   326.4,0.005341,0.003686,0.022108,0.002147,  47.900
   326.6,0.005331,0.003678,0.021977,0.002147,  47.903
   326.8,0.005320,0.003673,0.021846,0.002160,  47.902
   327.0,0.005316,0.003665,0.021721,0.002160,  47.902
   327.2,0.005308,0.003655,0.021590,0.002160,  47.907
   327.4,0.005297,0.003655,0.021462,0.002173,  47.918
   327.6,0.005284,0.003648,0.021332,0.002173,  47.931
   327.8,0.005274,0.003643,0.021195,0.002173,  47.914
   328.0,0.005263,0.003643,0.021065,0.002186,  47.908
   328.2,0.005250,0.003637,0.020934,0.002186,  47.896
   328.4,0.005239,0.003632,0.020804,0.002186,  47.897
   328.6,0.005232,0.003624,0.020672,0.002199,  47.890
   328.8,0.005221,0.003622,0.020521,0.002199,  47.897
   329.0,0.005217,0.003616,0.020363,0.002199,  47.895
   329.2,0.005204,0.003610,0.020204,0.002212,  47.895
   329.4,0.005185,0.003602,0.020102,0.002199,  47.895
   329.6,0.005178,0.003592,0.020033,0.002186,  47.893
   329.8,0.005165,0.003581,0.020004,0.002199,  47.895
   330.0,0.005152,0.003569,0.019889,0.002199,  47.893
   330.2,0.005135,0.003557,0.019759,0.002199,  47.887
   330.4,0.005131,0.003553,0.019609,0.002225,  47.891
   330.6,0.005127,0.003543,0.019465,0.002225,  47.889
   330.8,0.005115,0.003533,0.019312,0.002225,  47.892
   331.0,0.005111,0.003532,0.019140,0.002237,  47.893
   331.2,0.005107,0.003532,0.018736,0.002215,  47.890
   331.4,0.005093,0.003525,0.018214,0.002215,  47.894
   331.6,0.005085,0.003520,0.017571,0.002228,  47.905
   331.8,0.005080,0.003517,0.017456,0.002193,  47.923
   332.0,0.005073,0.003508,0.017540,0.002241,  47.936
   332.2,0.005065,0.003508,0.017840,0.002219,  47.914
   332.4,0.005056,0.003509,0.017868,0.002219,  47.901
   332.6,0.005054,0.003502,0.017849,0.002232,  47.898
   332.8,0.005046,0.003494,0.017795,0.002210,  47.900
   333.0,0.005038,0.003492,0.017749,0.002232,  47.898
   333.2,0.005028,0.003488,0.017686,0.002232,  47.900
   333.4,0.005011,0.003480,0.017603,0.002210,  47.902
   333.6,0.005007,0.003477,0.017548,0.002232,  47.901
   333.8,0.005000,0.003471,0.017517,0.002219,  47.900
   334.0,0.004983,0.003466,0.017479,0.002197,  47.904
   334.2,0.004976,0.003459,0.017403,0.002210,  47.902
   334.4,0.004966,0.003455,0.017301,0.002210,  47.907
   334.6,0.004951,0.003451,0.017190,0.002210,  47.909
   334.8,0.004952,0.003446,0.017012,0.002201,  47.910
   335.0,0.004945,0.003440,0.016781,0.002223,  47.907
   335.2,0.004933,0.003435,0.016521,0.002223,  47.911
   335.4,0.004934,0.003435,0.016384,0.002188,  47.911
   335.6,0.004926,0.003426,0.016287,0.002201,  47.913
   335.8,0.004921,0.003426,0.016248,0.002249,  47.924
   336.0,0.004916,0.003419,0.016238,0.002227,  47.936
   336.2,0.004914,0.003417,0.016202,0.002253,  47.944
   336.4,0.004911,0.003410,0.016168,0.002275,  47.928
   336.6,0.004897,0.003412,0.016147,0.002253,  47.923
   336.8,0.004896,0.003408,0.016127,0.002253,  47.920
   337.0,0.004890,0.003402,0.016118,0.002288,  47.919
   337.2,0.004881,0.003400,0.016098,0.002266,  47.915
   337.4,0.004880,0.003394,0.016058,0.002266,  47.920
   337.6,0.004872,0.003394,0.016015,0.002266,  47.923
   337.8,0.004861,0.003387,0.015959,0.002243,  47.920
   338.0,0.004855,0.003389,0.015910,0.002278,  47.918
   338.2,0.004847,0.003385,0.015864,0.002266,  47.924
   338.4,0.004839,0.003379,0.015807,0.002243,  47.922
   338.6,0.004837,0.003376,0.015731,0.002278,  47.922
   338.8,0.004836,0.003374,0.015655,0.002278,  47.913
   339.0,0.004828,0.003374,0.015573,0.002256,  47.920
   339.2,0.004833,0.003374,0.015471,0.002291,  47.919
   339.4,0.004827,0.003379,0.015349,0.002291,  47.914
   339.6,0.004825,0.003373,0.015226,0.002269,  47.916
   339.8,0.004822,0.003365,0.015177,0.002304,  47.912
   340.0,0.004810,0.003363,0.015149,0.002304,  47.920
   340.2,0.004809,0.003358,0.015147,0.002269,  47.930
   340.4,0.004807,0.003347,0.015076,0.002304,  47.946
   340.6,0.004802,0.003341,0.014978,0.002304,  47.948
   340.8,0.004797,0.003337,0.014865,0.002282,  47.924
   341.0,0.004788,0.003340,0.014768,0.002295,  47.922
   341.2,0.004789,0.003336,0.014664,0.002295,  47.922
   341.4,0.004784,0.003332,0.014565,0.002273,  47.918
   341.6,0.004769,0.003327,0.014482,0.002286,  47.918
   341.8,0.004768,0.003323,0.014393,0.002308,  47.921
   342.0,0.004754,0.003321,0.014328,0.002260,  47.921
   342.2,0.004749,0.003317,0.014278,0.002269,  47.919
   342.4,0.004736,0.003316,0.014234,0.002278,  47.917
   342.6,0.004722,0.003306,0.014196,0.002256,  47.917
   342.8,0.004715,0.003299,0.014148,0.002269,  47.919
   343.0,0.004707,0.003295,0.014105,0.002295,  47.923
   343.2,0.004698,0.003293,0.014052,0.002308,  47.921
   343.4,0.004702,0.003291,0.013990,0.002264,  47.923
   343.6,0.004699,0.003283,0.013927,0.002286,  47.917
   343.8,0.004690,0.003281,0.013858,0.002286,  47.915
   344.0,0.004703,0.003284,0.013787,0.002251,  47.918
   344.2,0.004704,0.003280,0.013704,0.002264,  47.918
   344.4,0.004695,0.003273,0.013631,0.002277,  47.929
   344.6,0.004696,0.003273,0.013540,0.002255,  47.942
   344.8,0.004688,0.003271,0.013436,0.002255,  47.928
   345.0,0.004679,0.003269,0.013325,0.002290,  47.926
   345.2,0.004683,0.003267,0.013212,0.002303,  47.920
   345.4,0.004678,0.003265,0.012960,0.002303,  47.915
   345.6,0.004669,0.003259,0.012640,0.002316,  47.913
   345.8,0.004670,0.003258,0.012251,0.002351,  47.913
   346.0,0.004665,0.003254,0.012088,0.002338,  47.914
   346.2,0.004651,0.003252,0.012010,0.002312,  47.914
   346.4,0.004649,0.003250,0.012001,0.002360,  47.914
   346.6,0.004636,0.003248,0.012027,0.002373,  47.911
   346.8,0.004628,0.003244,0.012111,0.002351,  47.908
   347.0,0.004629,0.003236,0.012262,0.002329,  47.912
   347.2,0.004633,0.003230,0.012327,0.002342,  47.907
   347.4,0.004633,0.003224,0.012368,0.002342,  47.907
   347.6,0.004630,0.003222,0.012401,0.002319,  47.906
   347.8,0.004627,0.003222,0.012385,0.002332,  47.908
   348.0,0.004625,0.003216,0.012334,0.002342,  47.906
   348.2,0.004622,0.003216,0.012242,0.002342,  47.907
   348.4,0.004626,0.003223,0.012226,0.002367,  47.909
   348.6,0.004626,0.003217,0.012217,0.002367,  47.919
   348.8,0.004614,0.003220,0.012234,0.002367,  47.931
   349.0,0.004621,0.003220,0.012225,0.002367,  47.946
   349.2,0.004621,0.003220,0.012204,0.002342,  47.929
   349.4,0.004614,0.003220,0.012185,0.002342,  47.917
   349.6,0.004618,0.003225,0.012122,0.002367,  47.911
   349.8,0.004615,0.003222,0.012030,0.002367,  47.910
   350.0,0.004609,0.003218,0.011911,0.002380,  47.911
   350.2,0.004610,0.003216,0.011841,0.002358,  47.909
   350.4,0.004607,0.003211,0.011795,0.002358,  47.909
   350.6,0.004597,0.003209,0.011745,0.002371,  47.911
   350.8,0.004593,0.003208,0.011694,0.002336,  47.908
   351.0,0.004586,0.003201,0.011642,0.002358,  47.907
   351.2,0.004590,0.003199,0.011596,0.002371,  47.909
   351.4,0.004587,0.003195,0.011539,0.002349,  47.912
   351.6,0.004584,0.003191,0.011477,0.002384,  47.915
   351.8,0.004578,0.003194,0.011427,0.002410,  47.911
   352.0,0.004578,0.003199,0.011351,0.002375,  47.910
   352.2,0.004582,0.003197,0.011273,0.002375,  47.907
   352.4,0.004573,0.003196,0.011187,0.002340,  47.908
   352.6,0.004573,0.003197,0.011150,0.002366,  47.911
   352.8,0.004576,0.003199,0.011121,0.002353,  47.919
   353.0,0.004570,0.003196,0.011112,0.002401,  47.930
   353.2,0.004565,0.003198,0.011103,0.002401,  47.942
   353.4,0.004569,0.003198,0.011118,0.002423,  47.928
   353.6,0.004562,0.003198,0.011142,0.002423,  47.919
   353.8,0.004562,0.003196,0.011177,0.002423,  47.913
   354.0,0.004566,0.003194,0.011039,0.002401,  47.917
   354.2,0.004560,0.003196,0.010832,0.002436,  47.916
   354.4,0.004557,0.003197,0.010577,0.002449,  47.912
   354.6,0.004558,0.003195,0.010519,0.002414,  47.919
   354.8,0.004546,0.003191,0.010536,0.002427,  47.914
   355.0,0.004550,0.003184,0.010620,0.002440,  47.916
   355.2,0.004549,0.003181,0.010598,0.002440,  47.919
   355.4,0.004537,0.003174,0.010567,0.002440,  47.918
   355.6,0.004541,0.003175,0.010521,0.002453,  47.919
   355.8,0.004544,0.003175,0.010404,0.002453,  47.920
   356.0,0.004535,0.003173,0.010234,0.002453,  47.917
   356.2,0.004542,0.003175,0.010034,0.002465,  47.919
   356.4,0.004548,0.003173,0.010023,0.002430,  47.920
   356.6,0.004544,0.003171,0.010074,0.002430,  47.920
   356.8,0.004551,0.003175,0.010198,0.002456,  47.918
   357.0,0.004548,0.003175,0.010194,0.002421,  47.926
   357.2,0.004544,0.003171,0.010170,0.002456,  47.938
   357.4,0.004548,0.003173,0.010106,0.002469,  47.947
   357.6,0.004543,0.003174,0.010083,0.002447,  47.958
   357.8,0.004543,0.003171,0.010066,0.002469,  47.932
   358.0,0.004543,0.003171,0.010049,0.002469,  47.925
   358.2,0.004544,0.003177,0.009984,0.002460,  47.924
   358.4,0.004544,0.003179,0.009886,0.002495,  47.923
   358.6,0.004540,0.003175,0.009766,0.002473,  47.918
   358.8,0.004544,0.003181,0.009748,0.002473,  47.920
   359.0,0.004539,0.003175,0.009765,0.002473,  47.923
   359.2,0.004531,0.003175,0.009828,0.002451,  47.923
   359.4,0.004516,0.003171,0.009844,0.002473,  47.918
   359.6,0.004510,0.003166,0.009847,0.002473,  47.924
   359.8,0.004504,0.003157,0.009860,0.002451,  47.927
   360.0,0.004504,0.003155,0.009844,0.002473,  47.925
   360.2,0.004513,0.003152,0.009822,0.002473,  47.930
   360.4,0.004516,0.003158,0.009791,0.002451,  47.929
   360.6,0.004516,0.003160,0.009754,0.002486,  47.927
   360.8,0.004513,0.003162,0.009703,0.002486,  47.923
   361.0,0.004519,0.003162,0.009637,0.002464,  47.925
   361.2,0.004519,0.003160,0.009559,0.002477,  47.924
   361.4,0.004519,0.003165,0.009467,0.002490,  47.933
   361.6,0.004519,0.003167,0.009362,0.002490,  47.940
   361.8,0.004519,0.003162,0.009310,0.002503,  47.938
   362.0,0.004520,0.003160,0.009273,0.002503,  47.930
   362.2,0.004520,0.003158,0.009255,0.002490,  47.923
   362.4,0.004513,0.003159,0.009203,0.002503,  47.918
   362.6,0.004520,0.003156,0.009158,0.002516,  47.918
   362.8,0.004522,0.003161,0.009092,0.002516,  47.911
   363.0,0.004517,0.003167,0.009026,0.002494,  47.916
   363.2,0.004518,0.003163,0.009001,0.002507,  47.916
   363.4,0.004518,0.003163,0.008977,0.002516,  47.913
   363.6,0.004515,0.003158,0.008972,0.002481,  47.919
   363.8,0.004513,0.003151,0.008921,0.002494,  47.915
   364.0,0.004517,0.003152,0.008856,0.002516,  47.915
   364.2,0.004514,0.003150,0.008771,0.002481,  47.914
   364.4,0.004511,0.003150,0.008767,0.002507,  47.912
   364.6,0.004515,0.003147,0.008785,0.002507,  47.911
   364.8,0.004515,0.003145,0.008835,0.002472,  47.909
   365.0,0.004515,0.003147,0.008805,0.002520,  47.907
   365.2,0.004511,0.003147,0.008752,0.002507,  47.912
   365.4,0.004509,0.003151,0.008662,0.002485,  47.909
   365.6,0.004512,0.003153,0.008591,0.002532,  47.921
   365.8,0.004509,0.003148,0.008519,0.002532,  47.931
   366.0,0.004512,0.003151,0.008440,0.002510,  47.946
   366.2,0.004522,0.003152,0.008411,0.002558,  47.939
   366.4,0.004519,0.003151,0.008419,0.002558,  47.919
   366.6,0.004525,0.003157,0.008442,0.002536,  47.912
   366.8,0.004531,0.003158,0.008419,0.002571,  47.911
   367.0,0.004528,0.003158,0.008406,0.002571,  47.911
   367.2,0.004529,0.003159,0.008368,0.002536,  47.907
   367.4,0.004526,0.003162,0.008323,0.002571,  47.905
   367.6,0.004523,0.003154,0.008259,0.002571,  47.903
   367.8,0.004513,0.003151,0.008192,0.002549,  47.905
   368.0,0.004509,0.003153,0.008167,0.002549,  47.899
   368.2,0.004503,0.003151,0.008150,0.002549,  47.904
   368.4,0.004497,0.003142,0.008159,0.002527,  47.900
   368.6,0.004503,0.003144,0.008169,0.002540,  47.904
   368.8,0.004506,0.003146,0.008172,0.002562,  47.904
   369.0,0.004509,0.003141,0.008189,0.002527,  47.895
   369.2,0.004511,0.003146,0.008184,0.002540,  47.894
   369.4,0.004511,0.003148,0.008166,0.002540,  47.897
   369.6,0.004514,0.003148,0.008129,0.002553,  47.896
   369.8,0.004508,0.003155,0.008126,0.002553,  47.906
   370.0,0.004511,0.003152,0.008134,0.002566,  47.910
   370.2,0.004514,0.003151,0.008143,0.002566,  47.922
   370.4,0.004511,0.003151,0.008099,0.002544,  47.911
   370.6,0.004515,0.003151,0.008026,0.002544,  47.906
   370.8,0.004518,0.003158,0.007927,0.002566,  47.902
   371.0,0.004515,0.003161,0.007795,0.002579,  47.901
   371.2,0.004515,0.003163,0.007623,0.002579,  47.896
   371.4,0.004515,0.003162,0.007438,0.002579,  47.894
   371.6,0.004515,0.003164,0.007207,0.002592,  47.898
   371.8,0.004519,0.003167,0.007082,0.002592,  47.900
   372.0,0.004516,0.003168,0.006983,0.002579,  47.898
   372.2,0.004513,0.003169,0.006892,0.002557,  47.899
   372.4,0.004514,0.003171,0.006948,0.002557,  47.901
   372.6,0.004518,0.003171,0.007083,0.002557,  47.898
   372.8,0.004518,0.003164,0.007299,0.002535,  47.899
   373.0,0.004518,0.003163,0.007347,0.002535,  47.894
   373.2,0.004530,0.003162,0.007330,0.002570,  47.900
   373.4,0.004532,0.003164,0.007277,0.002583,  47.899
   373.6,0.004532,0.003164,0.007265,0.002583,  47.903
   373.8,0.004529,0.003165,0.007247,0.002583,  47.899
   374.0,0.004531,0.003168,0.007234,0.002596,  47.903
   374.2,0.004532,0.003174,0.007231,0.002596,  47.913
   374.4,0.004526,0.003172,0.007245,0.002596,  47.923
   374.6,0.004529,0.003176,0.007261,0.002609,  47.937
   374.8,0.004532,0.003176,0.007277,0.002622,  47.912
   375.0,0.004526,0.003174,0.007305,0.002609,  47.905
   375.2,0.004535,0.003171,0.007327,0.002609,  47.906
   375.4,0.004539,0.003173,0.007290,0.002622,  47.903
   375.6,0.004530,0.003171,0.007231,0.002622,  47.901
   375.8,0.004533,0.003171,0.007145,0.002657,  47.906
   376.0,0.004528,0.003173,0.007120,0.002657,  47.907
   376.2,0.004519,0.003165,0.007102,0.002644,  47.906
   376.4,0.004520,0.003162,0.007103,0.002644,  47.903
   376.6,0.004518,0.003152,0.007118,0.002670,  47.904
   376.8,0.004511,0.003146,0.007147,0.002635,  47.904
   377.0,0.004518,0.003152,0.007184,0.002612,  47.901
   377.2,0.004518,0.003152,0.007173,0.002625,  47.908
   377.4,0.004518,0.003150,0.007142,0.002660,  47.909
   377.6,0.004520,0.003158,0.007091,0.002673,  47.903
   377.8,0.004520,0.003160,0.007028,0.002673,  47.902
   378.0,0.004527,0.003162,0.006963,0.002660,  47.904
   378.2,0.004523,0.003163,0.006877,0.002673,  47.901
   378.4,0.004527,0.003164,0.006860,0.002651,  47.912
   378.6,0.004530,0.003164,0.006870,0.002651,  47.927
   378.8,0.004531,0.003168,0.006917,0.002664,  47.930
   379.0,0.004536,0.003169,0.006910,0.002629,  47.914
   379.2,0.004544,0.003168,0.006879,0.002664,  47.907
   379.4,0.004544,0.003173,0.006826,0.002664,  47.907
   379.6,0.004547,0.003173,0.006760,0.002629,  47.901
   379.8,0.004549,0.003170,0.006668,0.002664,  47.900
   380.0,0.004551,0.003177,0.006551,0.002664,  47.901
   380.2,0.004551,0.003181,0.006534,0.002629,  47.908
   380.4,0.004554,0.003177,0.006561,0.002677,  47.903
   380.6,0.004554,0.003180,0.006628,0.002677,  47.906
   380.8,0.004554,0.003186,0.006622,0.002642,  47.902
   381.0,0.004551,0.003182,0.006597,0.002655,  47.900
   381.2,0.004548,0.003181,0.006558,0.002690,  47.901
   381.4,0.004548,0.003180,0.006499,0.002690,  47.902
   381.6,0.004548,0.003182,0.006454,0.002681,  47.897
   381.8,0.004544,0.003186,0.006408,0.002681,  47.899
   382.0,0.004547,0.003192,0.006349,0.002694,  47.900
   382.2,0.004555,0.003198,0.006332,0.002672,  47.902
   382.4,0.004561,0.003199,0.006340,0.002685,  47.899
   382.6,0.004561,0.003208,0.006357,0.002698,  47.903
   382.8,0.004561,0.003212,0.006333,0.002663,  47.922
   383.0,0.004563,0.003206,0.006314,0.002711,  47.932
   383.2,0.004557,0.003211,0.006282,0.002724,  47.935
   383.4,0.004560,0.003205,0.006265,0.002702,  47.910
   383.6,0.004562,0.003203,0.006253,0.002737,  47.903
   383.8,0.004553,0.003206,0.006254,0.002750,  47.903
