Run Name,Run 1
Run Date,01:32:27 PM   04-18-13
Method Name,50%B-Isocratic
Export Format Version, 1.00
Method ID, 1663
Points/Second, 5.00
Number of Records,   1463
Offset from Run Start Time,00:00:00
Run End Time,00:04:54
Time,Second
QuadTec 1, (280.0 nm), AU
QuadTec 2, (260.0 nm), AU
Gradient Pump,<Not Selected>
QuadTec 3, (214.0 nm), AU
QuadTec 4, (405.0 nm), AU
Conductivity,mS/cm
Trace 6,<Not Available>
GP Pressure,<Not Selected>
Volume,<Not Selected>
Fraction,<Not Available>
Time,QuadTec 1,QuadTec 2,QuadTec 3,QuadTec 4,Conductivity
     0.0,0.001150,-0.368863,0.055154,0.000000,  48.505
     0.2,0.001179,-0.368863,0.055154,0.000000,  48.501
     0.4,0.001202,-0.368952,0.055154,0.000000,  48.508
     0.6,0.001209,-0.369135,0.055154,0.000000,  48.504
     0.8,0.000000,-0.369135,0.000000,0.000000,  48.504
     1.0,0.000000,0.000000,0.000000,0.000000,  48.500
     1.2,0.000000,0.000000,0.000000,0.000000,  48.501
     1.4,0.000000,0.000000,0.000000,0.000000,  48.500
     1.6,0.000000,0.000000,0.000000,0.000000,  48.503
     1.8,0.000000,0.000000,0.000000,0.000000,  48.499
     2.0,0.000000,0.000000,0.000000,0.000000,  48.502
     2.2,0.000000,0.000000,0.000000,0.000000,  48.502
     2.4,0.000000,0.000000,0.000000,0.000000,  48.501
     2.6,0.000000,0.000000,0.000000,0.000000,  48.501
     2.8,0.000000,0.000000,0.000000,0.000000,  48.499
     3.0,0.000000,0.000000,0.000000,0.000000,  48.501
     3.2,0.000000,0.000000,0.000000,0.000000,  48.499
     3.4,0.000000,0.000000,0.000000,0.000000,  48.500
     3.6,0.000000,0.000000,0.000000,0.000000,  48.501
     3.8,0.000000,0.000000,0.000000,0.000000,  48.499
     4.0,0.000000,0.000000,0.000000,0.000000,  48.501
     4.2,0.000000,0.000000,0.000000,0.000000,  48.497
     4.4,0.000005,0.000000,0.000000,0.000000,  48.497
     4.6,0.000014,0.000025,-0.000049,-0.000036,  48.498
     4.8,0.000014,0.000020,-0.000090,-0.000036,  48.499
     5.0,0.000017,0.000017,-0.000124,0.000000,  48.502
     5.2,0.000013,0.000020,-0.000158,-0.000036,  48.499
     5.4,0.000013,0.000016,-0.000179,-0.000023,  48.503
     5.6,0.000016,0.000019,-0.000199,-0.000010,  48.503
     5.8,0.000016,0.000014,-0.000206,-0.000046,  48.501
     6.0,0.000013,0.000019,-0.000240,-0.000033,  48.500
     6.2,0.000018,0.000016,-0.000280,-0.000033,  48.500
     6.4,0.000018,0.000018,-0.000316,-0.000069,  48.500
     6.6,0.000018,0.000019,-0.000356,-0.000056,  48.501
     6.8,0.000018,0.000015,-0.000396,-0.000033,  48.503
     7.0,0.000012,0.000013,-0.000424,-0.000056,  48.500
     7.2,0.000009,0.000015,-0.000526,-0.000056,  48.503
     7.4,0.000009,0.000017,-0.000681,-0.000020,  48.501
     7.6,0.000006,0.000019,-0.000865,-0.000056,  48.502
     7.8,0.000017,0.000025,-0.000837,-0.000056,  48.500
     8.0,0.000020,0.000023,-0.000734,-0.000033,  48.499
     8.2,0.000020,0.000025,-0.000543,-0.000069,  48.498
     8.4,0.000021,0.000021,-0.000495,-0.000056,  48.498
     8.6,0.000021,0.000021,-0.000493,-0.000033,  48.497
     8.8,0.000020,0.000016,-0.000496,-0.000056,  48.498
     9.0,0.000017,0.000017,-0.000469,-0.000056,  48.498
     9.2,0.000013,0.000018,-0.000441,-0.000020,  48.500
     9.4,0.000007,0.000015,-0.000413,-0.000043,  48.501
     9.6,0.000007,0.000016,-0.000392,-0.000056,  48.499
     9.8,0.000004,0.000015,-0.000365,-0.000020,  48.493
    10.0,0.000001,0.000015,-0.000351,-0.000056,  48.497
    10.2,0.000001,0.000016,-0.000321,-0.000056,  48.500
    10.4,0.000003,0.000011,-0.000268,-0.000033,  48.498
    10.6,-0.000000,0.000010,-0.000213,-0.000069,  48.494
    10.8,0.000002,0.000012,-0.000370,-0.000056,  48.496
    11.0,0.000005,0.000011,-0.000622,-0.000033,  48.499
    11.2,0.000004,0.000006,-0.000995,-0.000033,  48.500
    11.4,0.000004,0.000013,-0.001104,-0.000020,  48.499
    11.6,0.000010,0.000012,-0.001144,-0.000069,  48.503
    11.8,0.000006,0.000011,-0.001110,-0.000033,  48.498
    12.0,0.000006,0.000011,-0.001083,-0.000069,  48.500
    12.2,0.000010,0.000010,-0.001022,-0.000056,  48.499
    12.4,0.000004,0.000019,-0.000927,-0.000020,  48.500
    12.6,0.000006,0.000025,-0.000804,-0.000056,  48.502
    12.8,0.000013,0.000021,-0.000716,-0.000056,  48.503
    13.0,0.000006,0.000019,-0.000633,-0.000033,  48.501
    13.2,0.000009,0.000021,-0.000551,-0.000069,  48.505
    13.4,0.000015,0.000017,-0.000523,-0.000056,  48.500
    13.6,0.000009,0.000013,-0.000503,-0.000033,  48.500
    13.8,0.000009,0.000013,-0.000511,-0.000056,  48.498
    14.0,0.000009,0.000011,-0.000470,-0.000056,  48.506
    14.2,0.000009,0.000013,-0.000435,-0.000020,  48.504
    14.4,0.000009,0.000013,-0.000387,-0.000056,  48.505
    14.6,0.000009,0.000017,-0.000360,-0.000056,  48.504
    14.8,0.000002,0.000012,-0.000353,-0.000033,  48.502
    15.0,0.000005,0.000013,-0.000365,-0.000069,  48.502
    15.2,0.000005,0.000012,-0.000371,-0.000056,  48.504
    15.4,0.000001,0.000009,-0.000377,-0.000033,  48.506
    15.6,-0.000005,0.000008,-0.000397,-0.000056,  48.506
    15.8,0.000001,0.000013,-0.000390,-0.000056,  48.506
    16.0,0.000001,0.000011,-0.000383,-0.000020,  48.508
    16.2,-0.000005,0.000009,-0.000362,-0.000043,  48.510
    16.4,-0.000008,0.000007,-0.000526,-0.000056,  48.510
    16.6,-0.000008,0.000007,-0.000792,-0.000020,  48.507
    16.8,-0.000005,0.000004,-0.001145,-0.000043,  48.507
    17.0,-0.000008,0.000008,-0.001153,-0.000056,  48.509
    17.2,-0.000005,0.000010,-0.001050,-0.000020,  48.508
    17.4,-0.000002,0.000004,-0.000825,-0.000043,  48.510
    17.6,-0.000002,0.000004,-0.000742,-0.000056,  48.509
    17.8,0.000000,0.000006,-0.000661,-0.000020,  48.510
    18.0,-0.000006,0.000004,-0.000586,-0.000043,  48.509
    18.2,0.000003,0.000012,-0.000550,-0.000056,  48.511
    18.4,-0.000004,0.000012,-0.000523,-0.000020,  48.513
    18.6,-0.000004,0.000003,-0.000510,-0.000043,  48.510
    18.8,-0.000006,0.000001,-0.000476,-0.000056,  48.512
    19.0,-0.000009,-0.000002,-0.000455,-0.000020,  48.511
    19.2,-0.000004,-0.000006,-0.000421,-0.000056,  48.515
    19.4,-0.000007,-0.000011,-0.000393,-0.000056,  48.515
    19.6,0.000002,-0.000015,-0.000372,-0.000033,  48.514
    19.8,0.000002,-0.000011,-0.000350,-0.000033,  48.515
    20.0,-0.000007,-0.000008,-0.000369,-0.000069,  48.512
    20.2,-0.000009,-0.000011,-0.000417,-0.000056,  48.514
    20.4,-0.000009,-0.000015,-0.000486,-0.000056,  48.514
    20.6,-0.000018,-0.000011,-0.000486,-0.000056,  48.516
    20.8,-0.000011,-0.000013,-0.000458,-0.000056,  48.514
    21.0,-0.000015,-0.000012,-0.000416,-0.000043,  48.517
    21.2,-0.000015,-0.000007,-0.000342,-0.000030,  48.516
    21.4,-0.000013,-0.000005,-0.000335,-0.000043,  48.514
    21.6,-0.000016,-0.000005,-0.000362,-0.000056,  48.520
    21.8,-0.000016,-0.000005,-0.000396,-0.000043,  48.538
    22.0,-0.000016,-0.000007,-0.000402,-0.000056,  48.537
    22.2,-0.000020,-0.000013,-0.000402,-0.000056,  48.542
    22.4,-0.000020,-0.000011,-0.000389,-0.000043,  48.539
    22.6,-0.000023,-0.000014,-0.000374,-0.000056,  48.539
    22.8,-0.000027,-0.000015,-0.000346,-0.000056,  48.542
    23.0,-0.000025,-0.000013,-0.000319,-0.000056,  48.541
    23.2,-0.000031,-0.000018,-0.000305,-0.000056,  48.537
    23.4,-0.000037,-0.000012,-0.000316,-0.000069,  48.543
    23.6,-0.000031,-0.000019,-0.000317,-0.000056,  48.542
    23.8,-0.000033,-0.000013,-0.000344,-0.000056,  48.538
    24.0,-0.000040,-0.000018,-0.000391,-0.000056,  48.544
    24.2,-0.000033,-0.000017,-0.000459,-0.000043,  48.543
    24.4,-0.000038,-0.000020,-0.000492,-0.000056,  48.542
    24.6,-0.000045,-0.000017,-0.000507,-0.000056,  48.544
    24.8,-0.000033,-0.000017,-0.000521,-0.000043,  48.542
    25.0,-0.000033,-0.000020,-0.000506,-0.000056,  48.544
    25.2,-0.000037,-0.000020,-0.000465,-0.000056,  48.544
    25.4,-0.000037,-0.000022,-0.000409,-0.000043,  48.546
    25.6,-0.000037,-0.000022,-0.000416,-0.000056,  48.543
    25.8,-0.000041,-0.000024,-0.000444,-0.000056,  48.546
    26.0,-0.000041,-0.000022,-0.000506,-0.000043,  48.548
    26.2,-0.000038,-0.000025,-0.000540,-0.000056,  48.545
    26.4,-0.000042,-0.000028,-0.000574,-0.000056,  48.547
    26.6,-0.000039,-0.000023,-0.000615,-0.000043,  48.547
    26.8,-0.000034,-0.000023,-0.000586,-0.000056,  48.547
    27.0,-0.000034,-0.000024,-0.000518,-0.000056,  48.541
    27.2,-0.000031,-0.000022,-0.000421,-0.000043,  48.547
    27.4,-0.000038,-0.000019,-0.000405,-0.000043,  48.550
    27.6,-0.000031,-0.000023,-0.000393,-0.000043,  48.551
    27.8,-0.000031,-0.000023,-0.000421,-0.000030,  48.550
    28.0,-0.000031,-0.000020,-0.000468,-0.000030,  48.555
    28.2,-0.000031,-0.000021,-0.000537,-0.000043,  48.550
    28.4,-0.000031,-0.000022,-0.000633,-0.000043,  48.555
    28.6,-0.000029,-0.000013,-0.000626,-0.000043,  48.553
    28.8,-0.000029,-0.000015,-0.000584,-0.000030,  48.555
    29.0,-0.000026,-0.000020,-0.000501,-0.000043,  48.554
    29.2,-0.000033,-0.000020,-0.000486,-0.000043,  48.557
    29.4,-0.000033,-0.000020,-0.000473,-0.000043,  48.555
    29.6,-0.000033,-0.000023,-0.000486,-0.000043,  48.561
    29.8,-0.000039,-0.000021,-0.000507,-0.000030,  48.554
    30.0,-0.000035,-0.000021,-0.000473,-0.000030,  48.557
    30.2,-0.000033,-0.000017,-0.000424,-0.000030,  48.561
    30.4,-0.000036,-0.000017,-0.000375,-0.000017,  48.560
    30.6,-0.000036,-0.000015,-0.000367,-0.000030,  48.557
    30.8,-0.000034,-0.000012,-0.000375,-0.000030,  48.561
    31.0,-0.000034,-0.000012,-0.000409,-0.000053,  48.565
    31.2,-0.000034,-0.000012,-0.000415,-0.000066,  48.561
    31.4,-0.000031,-0.000014,-0.000422,-0.000066,  48.563
    31.6,-0.000031,-0.000019,-0.000416,-0.000053,  48.567
    31.8,-0.000031,-0.000019,-0.000437,-0.000066,  48.563
    32.0,-0.000028,-0.000023,-0.000463,-0.000030,  48.563
    32.2,-0.000028,-0.000017,-0.000504,0.000019,  48.568
    32.4,-0.000031,-0.000017,-0.000619,0.000006,  48.569
    32.6,-0.000032,-0.000013,-0.000769,-0.000043,  48.570
    32.8,-0.000027,-0.000017,-0.000966,-0.000066,  48.563
    33.0,-0.000031,-0.000013,-0.000993,-0.000066,  48.570
    33.2,-0.000032,-0.000012,-0.000946,-0.000066,  48.573
    33.4,-0.000026,-0.000003,-0.000825,-0.000089,  48.569
    33.6,-0.000028,-0.000003,-0.000749,-0.000102,  48.569
    33.8,-0.000032,-0.000006,-0.000648,-0.000066,  48.574
    34.0,-0.000023,-0.000003,-0.000530,-0.000053,  48.572
    34.2,-0.000018,0.000002,-0.000510,-0.000089,  48.572
    34.4,-0.000024,0.000003,-0.000545,-0.000076,  48.573
    34.6,-0.000018,-0.000002,-0.000621,-0.000076,  48.570
    34.8,-0.000018,0.000005,-0.000600,-0.000112,  48.577
    35.0,-0.000021,0.000004,-0.000565,-0.000076,  48.574
    35.2,-0.000012,0.000001,-0.000510,-0.000076,  48.575
    35.4,-0.000012,0.000002,-0.000487,-0.000112,  48.574
    35.6,-0.000010,-0.000001,-0.000446,-0.000076,  48.571
    35.8,-0.000014,0.000002,-0.000420,-0.000076,  48.573
    36.0,-0.000014,0.000003,-0.000432,-0.000112,  48.577
    36.2,-0.000010,0.000001,-0.000459,-0.000076,  48.572
    36.4,-0.000016,0.000000,-0.000500,-0.000076,  48.575
    36.6,-0.000016,-0.000001,-0.000493,-0.000112,  48.576
    36.8,-0.000016,-0.000001,-0.000485,-0.000076,  48.577
    37.0,-0.000023,-0.000003,-0.000451,-0.000076,  48.578
    37.2,-0.000023,-0.000005,-0.000470,-0.000112,  48.579
    37.4,-0.000023,-0.000007,-0.000510,-0.000076,  48.579
    37.6,-0.000029,-0.000009,-0.000565,-0.000089,  48.579
    37.8,-0.000025,-0.000009,-0.000557,-0.000076,  48.574
    38.0,-0.000028,-0.000014,-0.000534,-0.000089,  48.576
    38.2,-0.000037,-0.000017,-0.000466,-0.000089,  48.579
    38.4,-0.000037,-0.000019,-0.000452,-0.000112,  48.578
    38.6,-0.000039,-0.000021,-0.000444,-0.000089,  48.576
    38.8,-0.000048,-0.000025,-0.000444,-0.000089,  48.577
    39.0,-0.000051,-0.000032,-0.000451,-0.000076,  48.574
    39.2,-0.000050,-0.000034,-0.000484,-0.000112,  48.576
    39.4,-0.000056,-0.000036,-0.000519,-0.000089,  48.579
    39.6,-0.000054,-0.000031,-0.000573,-0.000076,  48.577
    39.8,-0.000056,-0.000028,-0.000566,-0.000112,  48.580
    40.0,-0.000056,-0.000029,-0.000544,-0.000089,  48.577
    40.2,-0.000056,-0.000029,-0.000502,-0.000076,  48.579
    40.4,-0.000059,-0.000031,-0.000515,-0.000112,  48.575
    40.6,-0.000062,-0.000029,-0.000535,-0.000089,  48.577
    40.8,-0.000064,-0.000036,-0.000576,-0.000076,  48.580
    41.0,-0.000067,-0.000038,-0.000595,-0.000112,  48.578
    41.2,-0.000069,-0.000034,-0.000602,-0.000089,  48.579
    41.4,-0.000069,-0.000040,-0.000603,-0.000076,  48.578
    41.6,-0.000067,-0.000033,-0.000588,-0.000112,  48.582
    41.8,-0.000067,-0.000042,-0.000560,-0.000089,  48.579
    42.0,-0.000067,-0.000044,-0.000525,-0.000076,  48.577
    42.2,-0.000067,-0.000049,-0.000504,-0.000112,  48.582
    42.4,-0.000067,-0.000057,-0.000490,-0.000089,  48.579
    42.6,-0.000067,-0.000058,-0.000475,-0.000076,  48.575
    42.8,-0.000060,-0.000063,-0.000496,-0.000112,  48.580
    43.0,-0.000067,-0.000073,-0.000551,-0.000089,  48.574
    43.2,-0.000069,-0.000069,-0.000626,-0.000076,  48.579
    43.4,-0.000066,-0.000067,-0.000666,-0.000112,  48.581
    43.6,-0.000069,-0.000065,-0.000706,-0.000089,  48.578
    43.8,-0.000075,-0.000067,-0.000734,-0.000076,  48.579
    44.0,-0.000077,-0.000065,-0.000746,-0.000112,  48.575
    44.2,-0.000084,-0.000063,-0.000739,-0.000089,  48.575
    44.4,-0.000086,-0.000065,-0.000712,-0.000076,  48.578
    44.6,-0.000089,-0.000070,-0.000718,-0.000112,  48.576
    44.8,-0.000092,-0.000075,-0.000719,-0.000089,  48.578
    45.0,-0.000098,-0.000076,-0.000745,-0.000076,  48.580
    45.2,-0.000094,-0.000073,-0.000758,-0.000112,  48.577
    45.4,-0.000094,-0.000071,-0.000779,-0.000089,  48.578
    45.6,-0.000094,-0.000076,-0.000800,-0.000076,  48.580
    45.8,-0.000094,-0.000079,-0.000793,-0.000112,  48.578
    46.0,-0.000094,-0.000082,-0.000785,-0.000089,  48.577
    46.2,-0.000094,-0.000086,-0.000763,-0.000076,  48.579
    46.4,-0.000098,-0.000086,-0.000734,-0.000076,  48.577
    46.6,-0.000098,-0.000087,-0.000686,-0.000063,  48.579
    46.8,-0.000098,-0.000085,-0.000631,-0.000076,  48.574
    47.0,-0.000102,-0.000081,-0.000630,-0.000112,  48.576
    47.2,-0.000098,-0.000080,-0.000650,-0.000089,  48.576
    47.4,-0.000098,-0.000076,-0.000685,-0.000089,  48.574
    47.6,-0.000099,-0.000074,-0.000692,-0.000076,  48.575
    47.8,-0.000093,-0.000081,-0.000698,-0.000112,  48.576
    48.0,-0.000090,-0.000077,-0.000678,-0.000089,  48.577
    48.2,-0.000094,-0.000079,-0.000671,-0.000076,  48.577
    48.4,-0.000094,-0.000084,-0.000963,-0.000112,  48.576
    48.6,-0.000091,-0.000088,-0.001384,-0.000125,  48.575
    48.8,-0.000100,-0.000088,-0.001920,-0.000112,  48.573
    49.0,-0.000103,-0.000091,-0.001932,-0.000112,  48.575
    49.2,-0.000100,-0.000089,-0.001742,-0.000125,  48.575
    49.4,-0.000107,-0.000091,-0.001341,-0.000112,  48.574
    49.6,-0.000100,-0.000093,-0.001232,-0.000112,  48.575
    49.8,-0.000098,-0.000091,-0.001163,-0.000125,  48.576
    50.0,-0.000101,-0.000095,-0.001131,-0.000112,  48.571
    50.2,-0.000095,-0.000092,-0.001083,-0.000112,  48.572
    50.4,-0.000099,-0.000092,-0.001049,-0.000125,  48.576
    50.6,-0.000101,-0.000092,-0.001023,-0.000112,  48.573
    50.8,-0.000104,-0.000097,-0.000995,-0.000112,  48.572
    51.0,-0.000101,-0.000101,-0.000973,-0.000125,  48.574
    51.2,-0.000104,-0.000101,-0.000953,-0.000112,  48.576
    51.4,-0.000098,-0.000101,-0.000925,-0.000112,  48.578
    51.6,-0.000101,-0.000106,-0.000897,-0.000125,  48.575
    51.8,-0.000104,-0.000101,-0.000871,-0.000112,  48.575
    52.0,-0.000107,-0.000099,-0.001020,-0.000112,  48.578
    52.2,-0.000110,-0.000100,-0.001256,-0.000125,  48.576
    52.4,-0.000110,-0.000099,-0.001570,-0.000112,  48.575
    52.6,-0.000110,-0.000100,-0.001597,-0.000112,  48.581
    52.8,-0.000114,-0.000105,-0.001535,-0.000125,  48.580
    53.0,-0.000117,-0.000103,-0.001365,-0.000112,  48.582
    53.2,-0.000113,-0.000105,-0.001290,-0.000112,  48.580
    53.4,-0.000113,-0.000106,-0.001221,-0.000112,  48.578
    53.6,-0.000117,-0.000103,-0.001147,-0.000112,  48.582
    53.8,-0.000108,-0.000099,-0.001071,-0.000112,  48.581
    54.0,-0.000108,-0.000102,-0.001002,-0.000112,  48.579
    54.2,-0.000112,-0.000102,-0.000920,-0.000099,  48.576
    54.4,-0.000112,-0.000101,-0.000900,-0.000135,  48.578
    54.6,-0.000105,-0.000108,-0.000914,-0.000135,  48.578
    54.8,-0.000112,-0.000107,-0.000949,-0.000135,  48.577
    55.0,-0.000112,-0.000103,-0.000920,-0.000158,  48.575
    55.2,-0.000105,-0.000105,-0.000872,-0.000135,  48.575
    55.4,-0.000112,-0.000107,-0.000797,-0.000135,  48.571
    55.6,-0.000112,-0.000103,-0.000749,-0.000135,  48.573
    55.8,-0.000112,-0.000088,-0.000702,-0.000122,  48.572
    56.0,-0.000102,-0.000068,-0.000648,-0.000135,  48.569
    56.2,-0.000072,-0.000043,-0.000602,-0.000135,  48.572
    56.4,-0.000041,-0.000022,-0.000575,-0.000145,  48.572
    56.6,-0.000026,-0.000003,-0.000556,-0.000096,  48.572
    56.8,-0.000004,0.000011,-0.000545,-0.000083,  48.573
    57.0,0.000009,0.000027,-0.000540,-0.000119,  48.572
    57.2,0.000016,0.000038,-0.000553,-0.000083,  48.572
    57.4,0.000035,0.000051,-0.000576,-0.000069,  48.571
    57.6,0.000040,0.000061,-0.000652,-0.000106,  48.573
    57.8,0.000039,0.000072,-0.000768,-0.000069,  48.563
    58.0,0.000051,0.000090,-0.000917,-0.000056,  48.567
    58.2,0.000060,0.000098,-0.000925,-0.000079,  48.567
    58.4,0.000059,0.000100,-0.000878,-0.000043,  48.565
    58.6,0.000064,0.000107,-0.000782,-0.000030,  48.567
    58.8,0.000076,0.000104,-0.000735,-0.000066,  48.566
    59.0,0.000072,0.000099,-0.000700,-0.000030,  48.563
    59.2,0.000069,0.000099,-0.000672,-0.000030,  48.566
    59.4,0.000061,0.000095,-0.000656,-0.000066,  48.562
    59.6,0.000060,0.000097,-0.000637,-0.000030,  48.562
    59.8,0.000072,0.000101,-0.000624,-0.000030,  48.564
    60.0,0.000080,0.000109,-0.000610,-0.000066,  48.564
    60.2,0.000076,0.000105,-0.000588,-0.000030,  48.560
    60.4,0.000082,0.000103,-0.000559,-0.000030,  48.553
    60.6,0.000080,0.000097,-0.000647,-0.000066,  48.558
    60.8,0.000071,0.000094,-0.000783,-0.000043,  48.555
    61.0,0.000077,0.000093,-0.000980,-0.000030,  48.555
    61.2,0.000075,0.000086,-0.000965,-0.000066,  48.557
    61.4,0.000066,0.000088,-0.000884,-0.000030,  48.553
    61.6,0.000060,0.000089,-0.000727,-0.000030,  48.557
    61.8,0.000046,0.000090,-0.000795,-0.000066,  48.559
    62.0,0.000049,0.000093,-0.000944,-0.000030,  48.560
    62.2,0.000050,0.000093,-0.001162,-0.000053,  48.555
    62.4,0.000055,0.000101,-0.001134,-0.000053,  48.558
    62.6,0.000066,0.000104,-0.001025,-0.000053,  48.553
    62.8,0.000067,0.000106,-0.000822,-0.000076,  48.554
    63.0,0.000073,0.000109,-0.000753,-0.000027,  48.556
    63.2,0.000084,0.000106,-0.000699,-0.000040,  48.553
    63.4,0.000087,0.000109,-0.000672,-0.000076,  48.553
    63.6,0.000086,0.000103,-0.000643,-0.000040,  48.554
    63.8,0.000086,0.000101,-0.000617,-0.000053,  48.552
    64.0,0.000086,0.000105,-0.000611,-0.000053,  48.549
    64.2,0.000088,0.000105,-0.000603,-0.000076,  48.552
    64.4,0.000092,0.000101,-0.000603,-0.000053,  48.551
    64.6,0.000092,0.000099,-0.000616,-0.000053,  48.552
    64.8,0.000092,0.000097,-0.000608,-0.000089,  48.553
    65.0,0.000087,0.000088,-0.000586,-0.000066,  48.551
    65.2,0.000079,0.000085,-0.000552,-0.000066,  48.550
    65.4,0.000071,0.000080,-0.000511,-0.000102,  48.551
    65.6,0.000058,0.000065,-0.000919,-0.000066,  48.551
    65.8,0.000050,0.000063,-0.001496,-0.000053,  48.551
    66.0,0.000045,0.000055,-0.002236,-0.000076,  48.547
    66.2,0.000042,0.000052,-0.002277,-0.000040,  48.552
    66.4,0.000045,0.000051,-0.002059,-0.000053,  48.552
    66.6,0.000041,0.000058,-0.001578,-0.000089,  48.549
    66.8,0.000044,0.000060,-0.001435,-0.000053,  48.547
    67.0,0.000044,0.000054,-0.001333,-0.000053,  48.549
    67.2,0.000035,0.000058,-0.001278,-0.000089,  48.550
    67.4,0.000036,0.000055,-0.001196,-0.000053,  48.550
    67.6,0.000033,0.000049,-0.001134,-0.000053,  48.550
    67.8,0.000031,0.000045,-0.001086,-0.000089,  48.553
    68.0,0.000032,0.000041,-0.001031,-0.000053,  48.549
    68.2,0.000032,0.000036,-0.000983,-0.000053,  48.546
    68.4,0.000023,0.000029,-0.000941,-0.000102,  48.549
    68.6,0.000023,0.000023,-0.000893,-0.000066,  48.550
    68.8,0.000025,0.000018,-0.000851,-0.000066,  48.549
    69.0,0.000016,0.000018,-0.000811,-0.000116,  48.552
    69.2,0.000016,0.000021,-0.000844,-0.000079,  48.550
    69.4,0.000016,0.000012,-0.000905,-0.000066,  48.548
    69.6,0.000011,0.000007,-0.001001,-0.000102,  48.550
    69.8,0.000006,0.000007,-0.001022,-0.000066,  48.552
    70.0,0.000001,0.000001,-0.001034,-0.000079,  48.544
    70.2,-0.000006,-0.000006,-0.001020,-0.000066,  48.551
    70.4,-0.000005,-0.000009,-0.000999,-0.000079,  48.550
    70.6,-0.000010,-0.000010,-0.000977,-0.000056,  48.548
    70.8,-0.000012,-0.000016,-0.000942,-0.000079,  48.547
    71.0,-0.000018,-0.000020,-0.000928,-0.000093,  48.549
    71.2,-0.000026,-0.000028,-0.000941,-0.000093,  48.548
    71.4,-0.000031,-0.000032,-0.000955,-0.000116,  48.550
    71.6,-0.000033,-0.000032,-0.000941,-0.000129,  48.548
    71.8,-0.000039,-0.000037,-0.000927,-0.000129,  48.549
    72.0,-0.000039,-0.000030,-0.000913,-0.000129,  48.551
    72.2,-0.000039,-0.000024,-0.000878,-0.000129,  48.545
    72.4,-0.000041,-0.000027,-0.000830,-0.000129,  48.550
    72.6,-0.000041,-0.000027,-0.000781,-0.000129,  48.549
    72.8,-0.000044,-0.000025,-0.000780,-0.000129,  48.551
    73.0,-0.000047,-0.000029,-0.000807,-0.000129,  48.548
    73.2,-0.000047,-0.000036,-0.000856,-0.000129,  48.550
    73.4,-0.000044,-0.000038,-0.000828,-0.000152,  48.549
    73.6,-0.000044,-0.000040,-0.000774,-0.000165,  48.546
    73.8,-0.000044,-0.000038,-0.000704,-0.000129,  48.550
    74.0,-0.000044,-0.000030,-0.000589,-0.000152,  48.547
    74.2,-0.000047,-0.000037,-0.000621,-0.000165,  48.546
    74.4,-0.000047,-0.000046,-0.000683,-0.000129,  48.549
    74.6,-0.000041,-0.000051,-0.000792,-0.000152,  48.548
    74.8,-0.000039,-0.000053,-0.000853,-0.000165,  48.549
    75.0,-0.000039,-0.000053,-0.000920,-0.000129,  48.546
    75.2,-0.000036,-0.000046,-0.000968,-0.000152,  48.542
    75.4,-0.000039,-0.000048,-0.000989,-0.000165,  48.543
    75.6,-0.000039,-0.000051,-0.001001,-0.000129,  48.548
    75.8,-0.000039,-0.000053,-0.000994,-0.000152,  48.547
    76.0,-0.000041,-0.000054,-0.001021,-0.000165,  48.546
    76.2,-0.000041,-0.000057,-0.001061,-0.000129,  48.548
    76.4,-0.000041,-0.000051,-0.001109,-0.000152,  48.546
    76.6,-0.000044,-0.000051,-0.001101,-0.000152,  48.544
    76.8,-0.000044,-0.000053,-0.001066,-0.000116,  48.543
    77.0,-0.000044,-0.000060,-0.001011,-0.000139,  48.546
    77.2,-0.000047,-0.000062,-0.001009,-0.000139,  48.542
    77.4,-0.000047,-0.000064,-0.001017,-0.000116,  48.545
    77.6,-0.000048,-0.000064,-0.001031,-0.000139,  48.545
    77.8,-0.000045,-0.000061,-0.001167,-0.000139,  48.541
    78.0,-0.000045,-0.000062,-0.001357,-0.000116,  48.540
    78.2,-0.000051,-0.000058,-0.001615,-0.000139,  48.542
    78.4,-0.000048,-0.000054,-0.001602,-0.000139,  48.542
    78.6,-0.000048,-0.000055,-0.001491,-0.000116,  48.543
    78.8,-0.000045,-0.000051,-0.001274,-0.000139,  48.544
    79.0,-0.000042,-0.000044,-0.001206,-0.000139,  48.541
    79.2,-0.000042,-0.000047,-0.001164,-0.000152,  48.540
    79.4,-0.000042,-0.000051,-0.001150,-0.000175,  48.546
    79.6,-0.000045,-0.000049,-0.001123,-0.000139,  48.541
    79.8,-0.000050,-0.000056,-0.001096,-0.000152,  48.541
    80.0,-0.000054,-0.000056,-0.001082,-0.000175,  48.542
    80.2,-0.000049,-0.000056,-0.001089,-0.000139,  48.542
    80.4,-0.000046,-0.000054,-0.001110,-0.000152,  48.537
    80.6,-0.000050,-0.000052,-0.001150,-0.000152,  48.543
    80.8,-0.000047,-0.000042,-0.001150,-0.000139,  48.539
    81.0,-0.000045,-0.000044,-0.001129,-0.000188,  48.542
    81.2,-0.000051,-0.000046,-0.001102,-0.000139,  48.538
    81.4,-0.000045,-0.000046,-0.001203,-0.000139,  48.541
    81.6,-0.000041,-0.000051,-0.001365,-0.000139,  48.538
    81.8,-0.000045,-0.000051,-0.001571,-0.000139,  48.539
    82.0,-0.000041,-0.000047,-0.001849,-0.000175,  48.539
    82.2,-0.000046,-0.000046,-0.001822,-0.000139,  48.535
    82.4,-0.000050,-0.000038,-0.001727,-0.000139,  48.538
    82.6,-0.000053,-0.000035,-0.001538,-0.000175,  48.535
    82.8,-0.000055,-0.000039,-0.001455,-0.000139,  48.536
    83.0,-0.000062,-0.000046,-0.001394,-0.000139,  48.535
    83.2,-0.000062,-0.000051,-0.001345,-0.000175,  48.537
    83.4,-0.000058,-0.000058,-0.001276,-0.000139,  48.540
    83.6,-0.000062,-0.000060,-0.001200,-0.000139,  48.538
    83.8,-0.000063,-0.000053,-0.001131,-0.000175,  48.537
    84.0,-0.000057,-0.000055,-0.001117,-0.000139,  48.541
    84.2,-0.000064,-0.000055,-0.001123,-0.000139,  48.536
    84.4,-0.000064,-0.000055,-0.001158,-0.000175,  48.534
    84.6,-0.000057,-0.000050,-0.001159,-0.000139,  48.538
    84.8,-0.000061,-0.000048,-0.001159,-0.000139,  48.538
    85.0,-0.000059,-0.000044,-0.001165,-0.000175,  48.541
    85.2,-0.000052,-0.000038,-0.001146,-0.000139,  48.536
    85.4,-0.000056,-0.000035,-0.001119,-0.000139,  48.538
    85.6,-0.000044,-0.000035,-0.001092,-0.000175,  48.533
    85.8,-0.000041,-0.000029,-0.001221,-0.000139,  48.534
    86.0,-0.000044,-0.000033,-0.001424,-0.000139,  48.536
    86.2,-0.000038,-0.000035,-0.001697,-0.000162,  48.537
    86.4,-0.000038,-0.000033,-0.001738,-0.000125,  48.533
    86.6,-0.000044,-0.000036,-0.001697,-0.000125,  48.539
    86.8,-0.000041,-0.000031,-0.001582,-0.000148,  48.535
    87.0,-0.000043,-0.000033,-0.001508,-0.000099,  48.533
    87.2,-0.000043,-0.000036,-0.001431,-0.000112,  48.534
    87.4,-0.000041,-0.000034,-0.001335,-0.000148,  48.533
    87.6,-0.000047,-0.000037,-0.001281,-0.000099,  48.535
    87.8,-0.000038,-0.000039,-0.001253,-0.000112,  48.534
    88.0,-0.000035,-0.000040,-0.001246,-0.000148,  48.534
    88.2,-0.000035,-0.000040,-0.001224,-0.000099,  48.532
    88.4,-0.000033,-0.000043,-0.001209,-0.000112,  48.538
    88.6,-0.000039,-0.000041,-0.001189,-0.000148,  48.531
    88.8,-0.000038,-0.000033,-0.001175,-0.000135,  48.537
    89.0,-0.000043,-0.000042,-0.001174,-0.000135,  48.533
    89.2,-0.000047,-0.000046,-0.001175,-0.000171,  48.529
    89.4,-0.000041,-0.000053,-0.001161,-0.000171,  48.537
    89.6,-0.000038,-0.000059,-0.001153,-0.000135,  48.535
    89.8,-0.000044,-0.000059,-0.001140,-0.000135,  48.534
    90.0,-0.000050,-0.000055,-0.001098,-0.000171,  48.535
    90.2,-0.000055,-0.000051,-0.001050,-0.000135,  48.534
    90.4,-0.000061,-0.000049,-0.000989,-0.000135,  48.538
    90.6,-0.000059,-0.000049,-0.000955,-0.000135,  48.535
    90.8,-0.000056,-0.000043,-0.000927,-0.000135,  48.537
    91.0,-0.000056,-0.000044,-0.000907,-0.000122,  48.534
    91.2,-0.000056,-0.000043,-0.000894,-0.000145,  48.536
    91.4,-0.000056,-0.000042,-0.000798,-0.000145,  48.540
    91.6,-0.000053,-0.000034,-0.000669,-0.000109,  48.536
    91.8,-0.000048,-0.000028,-0.000499,-0.000132,  48.530
    92.0,-0.000043,-0.000021,-0.000485,-0.000132,  48.532
    92.2,-0.000032,-0.000014,-0.000527,-0.000096,  48.535
    92.4,-0.000025,-0.000009,-0.000617,-0.000119,  48.535
    92.6,-0.000014,-0.000000,-0.000646,-0.000119,  48.538
    92.8,-0.000004,0.000009,-0.000668,-0.000083,  48.539
    93.0,0.000010,0.000024,-0.000672,-0.000106,  48.541
    93.2,0.000017,0.000036,-0.000674,-0.000119,  48.539
    93.4,0.000028,0.000044,-0.000669,-0.000096,  48.541
    93.6,0.000041,0.000054,-0.000652,-0.000119,  48.540
    93.8,0.000054,0.000061,-0.000567,-0.000106,  48.540
    94.0,0.000067,0.000075,-0.000447,-0.000070,  48.540
    94.2,0.000083,0.000085,-0.000293,-0.000093,  48.539
    94.4,0.000099,0.000096,-0.000208,-0.000093,  48.539
    94.6,0.000113,0.000107,-0.000138,-0.000070,  48.541
    94.8,0.000129,0.000125,-0.000088,-0.000080,  48.539
    95.0,0.000145,0.000153,-0.000009,-0.000080,  48.535
    95.2,0.000157,0.000167,0.000087,-0.000044,  48.538
    95.4,0.000178,0.000180,0.000185,-0.000067,  48.539
    95.6,0.000200,0.000203,0.000325,-0.000041,  48.540
    95.8,0.000218,0.000216,0.000485,-0.000041,  48.544
    96.0,0.000236,0.000231,0.000678,-0.000041,  48.546
    96.2,0.000255,0.000244,0.000797,-0.000028,  48.544
    96.4,0.000268,0.000258,0.000894,-0.000041,  48.543
    96.6,0.000278,0.000272,0.000976,-0.000028,  48.543
    96.8,0.000289,0.000284,0.001108,-0.000028,  48.545
    97.0,0.000292,0.000293,0.001241,-0.000028,  48.543
    97.2,0.000298,0.000302,0.001413,-0.000028,  48.545
    97.4,0.000313,0.000307,0.001558,-0.000041,  48.544
    97.6,0.000320,0.000308,0.001690,-0.000054,  48.541
    97.8,0.000328,0.000315,0.001822,-0.000054,  48.545
    98.0,0.000334,0.000322,0.001969,-0.000041,  48.547
    98.2,0.000336,0.000320,0.002115,-0.000041,  48.548
    98.4,0.000347,0.000326,0.002274,-0.000041,  48.545
    98.6,0.000351,0.000333,0.002428,-0.000064,  48.542
    98.8,0.000361,0.000334,0.002594,-0.000077,  48.550
    99.0,0.000372,0.000337,0.002771,-0.000041,  48.548
    99.2,0.000373,0.000332,0.002943,-0.000041,  48.547
    99.4,0.000384,0.000331,0.003101,-0.000041,  48.548
    99.6,0.000392,0.000325,0.003264,-0.000041,  48.550
    99.8,0.000394,0.000326,0.003421,-0.000041,  48.552
   100.0,0.000403,0.000328,0.003567,-0.000041,  48.553
   100.2,0.000416,0.000325,0.003724,-0.000054,  48.552
   100.4,0.000426,0.000327,0.003862,-0.000054,  48.552
   100.6,0.000450,0.000331,0.004127,-0.000041,  48.554
   100.8,0.000471,0.000337,0.004432,-0.000041,  48.550
   101.0,0.000491,0.000344,0.004784,-0.000077,  48.550
   101.2,0.000524,0.000355,0.005128,-0.000077,  48.553
   101.4,0.000553,0.000365,0.005491,-0.000090,  48.547
   101.6,0.000580,0.000381,0.005867,-0.000126,  48.554
   101.8,0.000612,0.000393,0.006278,-0.000126,  48.554
   102.0,0.000646,0.000405,0.006714,-0.000103,  48.553
   102.2,0.000683,0.000423,0.007177,-0.000103,  48.552
   102.4,0.000720,0.000442,0.007689,-0.000090,  48.556
   102.6,0.000764,0.000455,0.008234,-0.000103,  48.557
   102.8,0.000814,0.000479,0.008820,-0.000103,  48.555
   103.0,0.000867,0.000497,0.009502,-0.000090,  48.559
   103.2,0.000927,0.000525,0.010260,-0.000103,  48.559
   103.4,0.000993,0.000560,0.011079,-0.000103,  48.559
   103.6,0.001058,0.000598,0.011756,-0.000090,  48.558
   103.8,0.001132,0.000636,0.012395,-0.000103,  48.559
   104.0,0.001208,0.000675,0.012983,-0.000103,  48.562
   104.2,0.001290,0.000719,0.013947,-0.000090,  48.559
   104.4,0.001379,0.000758,0.015075,-0.000103,  48.560
   104.6,0.001479,0.000805,0.016374,-0.000103,  48.562
   104.8,0.001588,0.000854,0.017610,-0.000090,  48.563
   105.0,0.001701,0.000912,0.018917,-0.000103,  48.561
   105.2,0.001819,0.000975,0.020282,-0.000103,  48.560
   105.4,0.001947,0.001045,0.021764,-0.000090,  48.561
   105.6,0.002061,0.001119,0.023328,-0.000103,  48.560
   105.8,0.002171,0.001193,0.024995,-0.000103,  48.561
   106.0,0.002277,0.001270,0.026679,-0.000103,  48.561
   106.2,0.002380,0.001351,0.028430,-0.000116,  48.566
   106.4,0.002532,0.001438,0.030230,-0.000116,  48.563
   106.6,0.002701,0.001537,0.032145,-0.000152,  48.564
   106.8,0.002889,0.001641,0.034165,-0.000152,  48.565
   107.0,0.003079,0.001746,0.036280,-0.000152,  48.568
   107.2,0.003277,0.001862,0.038491,-0.000188,  48.567
   107.4,0.003488,0.001977,0.040798,-0.000152,  48.568
   107.6,0.003713,0.002099,0.043203,-0.000152,  48.571
   107.8,0.003939,0.002230,0.045618,-0.000188,  48.565
   108.0,0.004185,0.002364,0.048079,-0.000139,  48.566
   108.2,0.004436,0.002507,0.050609,-0.000152,  48.563
   108.4,0.004687,0.002652,0.053380,-0.000175,  48.570
   108.6,0.004958,0.002798,0.056293,-0.000175,  48.569
   108.8,0.005240,0.002953,0.059372,-0.000152,  48.572
   109.0,0.005522,0.003112,0.062068,-0.000152,  48.573
   109.2,0.005829,0.003279,0.064638,-0.000175,  48.576
   109.4,0.006156,0.003459,0.067097,-0.000139,  48.577
   109.6,0.006495,0.003650,0.069425,-0.000139,  48.575
   109.8,0.006858,0.003846,0.072835,-0.000162,  48.574
   110.0,0.007226,0.004051,0.076611,-0.000139,  48.575
   110.2,0.007603,0.004270,0.080766,-0.000139,  48.575
   110.4,0.008005,0.004492,0.084813,-0.000162,  48.574
   110.6,0.008414,0.004719,0.089017,-0.000139,  48.572
   110.8,0.008832,0.004959,0.093359,-0.000139,  48.575
   111.0,0.009278,0.005168,0.097845,-0.000162,  48.576
   111.2,0.009729,0.005360,0.102491,-0.000162,  48.577
   111.4,0.010196,0.005550,0.107297,-0.000162,  48.576
   111.6,0.010677,0.005723,0.112288,-0.000162,  48.577
   111.8,0.011178,0.005981,0.117443,-0.000162,  48.578
   112.0,0.011712,0.006266,0.122782,-0.000162,  48.577
   112.2,0.012257,0.006578,0.128137,-0.000162,  48.579
   112.4,0.012803,0.006882,0.133575,-0.000162,  48.575
   112.6,0.013377,0.007194,0.139116,-0.000162,  48.575
   112.8,0.013959,0.007507,0.144981,-0.000162,  48.574
   113.0,0.014562,0.007825,0.151076,-0.000162,  48.575
   113.2,0.015195,0.008159,0.157398,-0.000162,  48.571
   113.4,0.015844,0.008498,0.163883,-0.000149,  48.575
   113.6,0.016504,0.008855,0.170579,-0.000149,  48.573
   113.8,0.017191,0.009232,0.177480,-0.000136,  48.571
   114.0,0.017895,0.009620,0.184223,-0.000123,  48.570
   114.2,0.018608,0.010012,0.190980,-0.000123,  48.572
   114.4,0.019342,0.010420,0.197758,-0.000110,  48.567
   114.6,0.020094,0.010840,0.205327,-0.000110,  48.568
   114.8,0.020745,0.011258,0.213321,-0.000110,  48.568
   115.0,0.021356,0.011680,0.221780,-0.000097,  48.565
   115.2,0.021920,0.012117,0.230122,-0.000097,  48.566
   115.4,0.022453,0.012571,0.238634,-0.000097,  48.565
   115.6,0.023223,0.013035,0.247324,-0.000084,  48.569
   115.8,0.024070,0.013516,0.256174,-0.000084,  48.567
   116.0,0.025000,0.014003,0.265222,-0.000097,  48.570
   116.2,0.025883,0.014505,0.274432,-0.000084,  48.569
   116.4,0.026794,0.015021,0.283717,-0.000084,  48.568
   116.6,0.027730,0.015527,0.293140,-0.000084,  48.567
   116.8,0.028647,0.016044,0.302688,-0.000071,  48.571
   117.0,0.029574,0.016567,0.312315,-0.000057,  48.569
   117.2,0.030519,0.017102,0.322049,-0.000094,  48.569
   117.4,0.031498,0.017646,0.331890,-0.000094,  48.571
   117.6,0.032508,0.018206,0.340684,-0.000080,  48.568
   117.8,0.033553,0.018790,0.348956,-0.000117,  48.569
   118.0,0.034601,0.019387,0.356660,-0.000094,  48.569
   118.2,0.035678,0.020006,0.363761,-0.000094,  48.574
   118.4,0.036785,0.020627,0.373874,-0.000117,  48.571
   118.6,0.037889,0.021255,0.384942,-0.000080,  48.572
   118.8,0.039015,0.021899,0.397034,-0.000080,  48.569
   119.0,0.040159,0.022548,0.408521,-0.000080,  48.568
   119.2,0.041315,0.023206,0.420241,-0.000021,  48.569
   119.4,0.042496,0.023875,0.432173,-0.000021,  48.567
   119.6,0.043701,0.024550,0.444171,-0.000031,  48.566
   119.8,0.044914,0.025229,0.456334,-0.000031,  48.567
   120.0,0.046151,0.025918,0.468622,-0.000018,  48.564
   120.2,0.047413,0.026519,0.481271,-0.000018,  48.569
   120.4,0.048677,0.027079,0.494156,-0.000018,  48.568
   120.6,0.049966,0.027597,0.507311,-0.000005,  48.569
   120.8,0.051271,0.028078,0.520491,-0.000005,  48.568
   121.0,0.052568,0.028759,0.533771,-0.000005,  48.570
   121.2,0.053884,0.029494,0.547159,0.000008,  48.566
   121.4,0.055210,0.030292,0.560574,0.000008,  48.567
   121.6,0.056575,0.031053,0.574019,0.000008,  48.570
   121.8,0.057971,0.031822,0.587464,0.000021,  48.572
   122.0,0.059406,0.032605,0.601363,0.000021,  48.568
   122.2,0.060830,0.033399,0.615516,0.000034,  48.568
   122.4,0.062270,0.034207,0.629883,0.000047,  48.567
   122.6,0.063735,0.035030,0.644456,0.000047,  48.567
   122.8,0.065175,0.035849,0.659254,0.000047,  48.570
   123.0,0.066625,0.036677,0.674264,0.000060,  48.568
   123.2,0.068082,0.037516,0.689204,0.000073,  48.565
   123.4,0.069347,0.038352,0.704201,0.000060,  48.565
   123.6,0.070523,0.039201,0.719186,0.000060,  48.571
   123.8,0.071595,0.040053,0.734321,0.000073,  48.569
   124.0,0.072585,0.040907,0.749503,0.000073,  48.568
   124.2,0.073997,0.041773,0.764695,0.000073,  48.571
   124.4,0.075532,0.042643,0.780390,0.000073,  48.571
   124.6,0.077188,0.043523,0.796359,0.000073,  48.573
   124.8,0.078738,0.044419,0.812534,0.000086,  48.569
   125.0,0.080312,0.045320,0.828534,0.000086,  48.572
   125.2,0.081889,0.046203,0.844468,0.000100,  48.573
   125.4,0.083436,0.047084,0.860344,0.000113,  48.568
   125.6,0.084989,0.047963,0.876313,0.000126,  48.569
   125.8,0.086531,0.048865,0.892236,0.000126,  48.572
   126.0,0.088131,0.049777,0.908071,0.000126,  48.570
   126.2,0.089768,0.050705,0.924421,0.000139,  48.571
   126.4,0.091425,0.051642,0.941023,0.000103,  48.573
   126.6,0.093059,0.052587,0.957825,0.000103,  48.570
   126.8,0.094709,0.053540,0.972388,0.000129,  48.568
   127.0,0.096358,0.054494,0.985725,0.000093,  48.573
   127.2,0.098001,0.055449,0.997736,0.000129,  48.573
   127.4,0.099650,0.056407,1.008209,0.000142,  48.569
   127.6,0.101302,0.057373,1.023744,0.000119,  48.571
   127.8,0.102973,0.058347,1.040719,0.000155,  48.568
   128.0,0.104668,0.059326,1.059204,0.000168,  48.566
   128.2,0.106372,0.060302,1.076141,0.000132,  48.567
   128.4,0.108064,0.061282,1.092718,0.000181,  48.568
   128.6,0.109771,0.062266,1.109143,0.000194,  48.569
   128.8,0.111472,0.063250,1.126395,0.000158,  48.568
   129.0,0.113173,0.064232,1.143797,0.000194,  48.564
   129.2,0.114887,0.065223,1.161428,0.000207,  48.570
   129.4,0.116595,0.066069,1.178843,0.000184,  48.572
   129.6,0.118282,0.066835,1.196072,0.000221,  48.570
   129.8,0.119965,0.067538,1.213158,0.000247,  48.573
   130.0,0.121630,0.068164,1.230380,0.000211,  48.568
   130.2,0.123351,0.069091,1.247389,0.000247,  48.567
   130.4,0.125112,0.070106,1.264375,0.000260,  48.565
   130.6,0.126885,0.071200,1.281557,0.000250,  48.568
   130.8,0.128613,0.072219,1.298802,0.000286,  48.569
   131.0,0.130357,0.073232,1.316092,0.000263,  48.569
   131.2,0.132079,0.074249,1.333505,0.000276,  48.569
   131.4,0.133771,0.075251,1.350899,0.000276,  48.569
   131.6,0.135458,0.076253,1.368109,0.000253,  48.572
   131.8,0.137122,0.077242,1.384980,0.000289,  48.564
   132.0,0.138802,0.078230,1.401562,0.000289,  48.564
   132.2,0.140486,0.079219,1.417295,0.000266,  48.567
   132.4,0.142177,0.080198,1.434039,0.000302,  48.566
   132.6,0.143623,0.081187,1.450693,0.000315,  48.569
   132.8,0.144946,0.082184,1.467401,0.000292,  48.564
   133.0,0.146145,0.083182,1.484400,0.000328,  48.564
   133.2,0.147225,0.084174,1.501258,0.000328,  48.566
   133.4,0.148763,0.085169,1.517725,0.000305,  48.566
   133.6,0.150426,0.086160,1.534201,0.000368,  48.566
   133.8,0.152200,0.087126,1.550408,0.000368,  48.561
   134.0,0.153816,0.088083,1.565818,0.000345,  48.563
   134.2,0.155421,0.089027,1.581746,0.000394,  48.562
   134.4,0.157006,0.089995,1.597499,0.000394,  48.561
   134.6,0.158629,0.090973,1.613029,0.000407,  48.561
   134.8,0.160267,0.091962,1.628881,0.000384,  48.558
   135.0,0.161916,0.092934,1.644468,0.000420,  48.553
   135.2,0.163530,0.093897,1.660054,0.000420,  48.558
   135.4,0.165144,0.094868,1.675593,0.000410,  48.556
   135.6,0.166745,0.095827,1.690745,0.000446,  48.554
   135.8,0.168320,0.096774,1.705784,0.000459,  48.556
   136.0,0.169889,0.097722,1.718642,0.000450,  48.555
   136.2,0.171435,0.098670,1.730141,0.000499,  48.553
   136.4,0.172979,0.099618,1.740169,0.000499,  48.550
   136.6,0.174524,0.100561,1.748239,0.000476,  48.552
   136.8,0.176059,0.101501,1.761626,0.000489,  48.554
   137.0,0.177585,0.102436,1.776203,0.000502,  48.549
   137.2,0.179106,0.103363,1.791659,0.000492,  48.546
   137.4,0.180632,0.104282,1.806046,0.000492,  48.547
   137.6,0.182138,0.105195,1.820080,0.000528,  48.546
   137.8,0.183640,0.106100,1.833695,0.000505,  48.541
   138.0,0.185137,0.106871,1.848189,0.000518,  48.541
   138.2,0.186583,0.107571,1.861291,0.000554,  48.541
   138.4,0.188003,0.108204,1.874305,0.000531,  48.537
   138.6,0.189395,0.108766,1.887728,0.000544,  48.533
   138.8,0.190837,0.109599,1.900544,0.000607,  48.531
   139.0,0.192280,0.110497,1.913219,0.000597,  48.529
   139.2,0.193731,0.111460,1.925729,0.000597,  48.530
   139.4,0.195150,0.112343,1.938048,0.000646,  48.524
   139.6,0.196549,0.113227,1.950148,0.000623,  48.524
   139.8,0.197943,0.114095,1.962589,0.000649,  48.521
   140.0,0.199274,0.114939,1.974160,0.000685,  48.519
   140.2,0.200583,0.115776,1.985420,0.000662,  48.521
   140.4,0.201864,0.116595,1.996997,0.000675,  48.517
   140.6,0.203157,0.117410,2.007560,0.000725,  48.516
   140.8,0.204461,0.118224,2.017715,0.000715,  48.514
   141.0,0.205760,0.119022,2.028751,0.000728,  48.509
   141.2,0.207022,0.119822,2.040058,0.000777,  48.510
   141.4,0.208270,0.120625,2.050186,0.000767,  48.507
   141.6,0.209495,0.121423,2.060580,0.000780,  48.504
   141.8,0.210545,0.122196,2.070471,0.000816,  48.505
   142.0,0.211489,0.122957,2.080605,0.000793,  48.502
   142.2,0.212341,0.123713,2.090962,0.000807,  48.496
   142.4,0.213086,0.124453,2.099105,0.000869,  48.494
   142.6,0.214136,0.125172,2.108243,0.000859,  48.495
   142.8,0.215247,0.125887,2.117577,0.000872,  48.492
   143.0,0.216423,0.126615,2.126240,0.000935,  48.488
   143.2,0.217555,0.127337,2.135091,0.000925,  48.484
   143.4,0.218680,0.128062,2.143198,0.000938,  48.481
   143.6,0.219828,0.128771,2.151453,0.000987,  48.480
   143.8,0.220921,0.129475,2.159863,0.000964,  48.473
   144.0,0.221986,0.130169,2.168463,0.000990,  48.474
   144.2,0.223034,0.130847,2.176259,0.001039,  48.471
   144.4,0.224065,0.131513,2.183209,0.001066,  48.465
   144.6,0.225076,0.132166,2.192277,0.001066,  48.464
   144.8,0.226068,0.132829,2.199461,0.001069,  48.462
   145.0,0.227066,0.133493,2.205708,0.001105,  48.455
   145.2,0.228058,0.134152,2.212064,0.001082,  48.453
   145.4,0.229038,0.134795,2.217432,0.001095,  48.448
   145.6,0.229990,0.135425,2.222873,0.001158,  48.427
   145.8,0.230921,0.136038,2.226174,0.001148,  48.418
   146.0,0.231832,0.136654,2.232855,0.001174,  48.414
   146.2,0.232768,0.137259,2.238511,0.001210,  48.415
   146.4,0.233701,0.137852,2.245398,0.001200,  48.406
   146.6,0.234631,0.138430,2.251196,0.001213,  48.404
   146.8,0.235491,0.139006,2.257061,0.001262,  48.393
   147.0,0.236302,0.139566,2.263001,0.001253,  48.390
   147.2,0.237079,0.140058,2.269036,0.001279,  48.384
   147.4,0.237922,0.140506,2.273924,0.001328,  48.378
   147.6,0.238773,0.140915,2.280119,0.001318,  48.373
   147.8,0.239639,0.141285,2.286393,0.001345,  48.361
   148.0,0.240441,0.141787,2.291476,0.001394,  48.354
   148.2,0.241210,0.142319,2.296625,0.001384,  48.351
   148.4,0.241962,0.142891,2.301830,0.001397,  48.340
   148.6,0.242690,0.143386,2.305779,0.001433,  48.330
   148.8,0.243390,0.143860,2.311107,0.001423,  48.322
   149.0,0.244068,0.144317,2.316503,0.001436,  48.312
   149.2,0.244767,0.144789,2.320599,0.001499,  48.285
   149.4,0.245463,0.145257,2.324740,0.001489,  48.278
   149.6,0.246158,0.145726,2.330308,0.001515,  48.269
   149.8,0.246833,0.146194,2.334531,0.001564,  48.259
   150.0,0.247495,0.146660,2.337381,0.001555,  48.241
   150.2,0.248144,0.147121,2.340233,0.001581,  48.236
   150.4,0.248772,0.147563,2.344543,0.001630,  48.224
   150.6,0.249381,0.147980,2.348896,0.001620,  48.210
   150.8,0.249968,0.148386,2.351825,0.001633,  48.200
   151.0,0.250448,0.148781,2.354779,0.001633,  48.181
   151.2,0.250871,0.149163,2.359243,0.001624,  48.155
   151.4,0.251227,0.149537,2.365275,0.001673,  48.141
   151.6,0.251526,0.149927,2.366796,0.001686,  48.128
   151.8,0.252059,0.150316,2.369860,0.001676,  48.111
   152.0,0.252650,0.150715,2.374483,0.001739,  48.092
   152.2,0.253296,0.151098,2.376037,0.001739,  48.082
   152.4,0.253851,0.151477,2.377602,0.001729,  48.063
   152.6,0.254387,0.151842,2.380726,0.001742,  48.046
   152.8,0.254901,0.152184,2.383879,0.001755,  48.009
   153.0,0.255415,0.152523,2.387061,0.001732,  47.989
   153.2,0.255925,0.152842,2.390260,0.001745,  47.978
   153.4,0.256426,0.153186,2.391860,0.001771,  47.959
   153.6,0.256905,0.153533,2.395107,0.001808,  47.937
   153.8,0.257374,0.153888,2.396736,0.001834,  47.898
   154.0,0.257836,0.154235,2.400020,0.001834,  47.874
   154.2,0.258334,0.154579,2.401668,0.001847,  47.857
   154.4,0.258832,0.154920,2.403340,0.001837,  47.835
   154.6,0.259352,0.155265,2.406656,0.001850,  47.807
   154.8,0.259881,0.155614,2.409998,0.001900,  47.774
   155.0,0.260414,0.155969,2.411668,0.001890,  47.740
   155.2,0.260970,0.156299,2.415055,0.001903,  47.722
   155.4,0.261453,0.156627,2.418486,0.001952,  47.696
   155.6,0.261907,0.156939,2.418509,0.001929,  47.668
   155.8,0.262344,0.157273,2.421950,0.001965,  47.620
   156.0,0.262858,0.157619,2.425407,0.002015,  47.581
   156.2,0.263385,0.157966,2.427143,0.001992,  47.561
   156.4,0.263945,0.158242,2.430666,0.002041,  47.514
   156.6,0.264450,0.158475,2.434228,0.002041,  47.482
   156.8,0.264931,0.158686,2.434257,0.002031,  47.450
   157.0,0.265401,0.158850,2.437866,0.002044,  47.406
   157.2,0.265957,0.159157,2.439728,0.002044,  47.368
   157.4,0.266536,0.159499,2.439802,0.002021,  47.329
   157.6,0.267158,0.159880,2.443421,0.002034,  47.297
   157.8,0.267750,0.160246,2.447054,0.002097,  47.237
   158.0,0.268336,0.160624,2.447013,0.002074,  47.195
   158.2,0.268936,0.161012,2.450660,0.002087,  47.151
   158.4,0.269570,0.161401,2.452477,0.002136,  47.104
   158.6,0.270219,0.161791,2.454297,0.002126,  47.065
   158.8,0.270890,0.162191,2.458035,0.002126,  47.002
   159.0,0.271536,0.162573,2.459936,0.002163,  46.951
   159.2,0.272172,0.162952,2.461863,0.002140,  46.899
   159.4,0.272810,0.163327,2.463798,0.002126,  46.855
   159.6,0.273376,0.163731,2.465770,0.002163,  46.809
   159.8,0.273901,0.164149,2.467763,0.002140,  46.741
   160.0,0.274390,0.164579,2.471606,0.002140,  46.676
   160.2,0.274844,0.165049,2.475455,0.002189,  46.620
   160.4,0.275620,0.165550,2.477341,0.002166,  46.573
   160.6,0.276501,0.166080,2.481249,0.002153,  46.505
   160.8,0.277493,0.166601,2.485193,0.002189,  46.448
   161.0,0.278383,0.167126,2.487170,0.002166,  46.366
   161.2,0.279268,0.167664,2.489156,0.002153,  46.325
   161.4,0.280168,0.168199,2.493198,0.002189,  46.251
   161.6,0.281129,0.168739,2.495225,0.002189,  46.175
   161.8,0.282120,0.169286,2.499341,0.002166,  46.115
   162.0,0.283147,0.169859,2.503514,0.002202,  46.021
   162.2,0.284144,0.170452,2.503543,0.002202,  45.975
   162.4,0.285142,0.171062,2.505636,0.002215,  45.895
   162.6,0.286139,0.171706,2.509835,0.002202,  45.818
   162.8,0.287265,0.172374,2.511942,0.002176,  45.745
   163.0,0.288457,0.173073,2.514053,0.002153,  45.644
   163.2,0.289708,0.173804,2.516203,0.002140,  45.583
   163.4,0.290977,0.174555,2.520542,0.002163,  45.508
   163.6,0.292295,0.175345,2.524941,0.002140,  45.427
   163.8,0.293649,0.176097,2.527134,0.002126,  45.340
   164.0,0.294991,0.176837,2.531555,0.002163,  45.254
   164.2,0.296353,0.177579,2.533776,0.002126,  45.187
   164.4,0.297724,0.178413,2.538271,0.002100,  45.092
   164.6,0.299179,0.179289,2.542813,0.002110,  45.008
   164.8,0.300668,0.180209,2.545110,0.002061,  44.933
   165.0,0.302211,0.180990,2.549725,0.002061,  44.818
   165.2,0.303786,0.181723,2.552053,0.002084,  44.750
   165.4,0.305386,0.182408,2.556743,0.002048,  44.660
   165.6,0.307026,0.183037,2.561495,0.002048,  44.568
   165.8,0.308703,0.183940,2.563899,0.002048,  44.472
   166.0,0.310408,0.184918,2.566323,0.002061,  44.379
   166.2,0.312148,0.185969,2.568748,0.002034,  44.308
   166.4,0.313872,0.186984,2.573645,0.002008,  44.213
   166.6,0.315598,0.188018,2.576123,0.002008,  44.124
   166.8,0.317332,0.189072,2.581074,0.001982,  44.034
   167.0,0.319127,0.190127,2.586066,0.001955,  43.934
   167.2,0.320957,0.191195,2.586038,0.001942,  43.864
   167.4,0.322827,0.192273,2.591106,0.001942,  43.771
   167.6,0.324639,0.193339,2.593662,0.001929,  43.687
   167.8,0.326442,0.194409,2.596246,0.001929,  43.595
   168.0,0.328230,0.195483,2.601452,0.001903,  43.490
   168.2,0.330048,0.196543,2.604094,0.001890,  43.422
   168.4,0.331868,0.197595,2.604123,0.001890,  43.346
   168.6,0.333684,0.198654,2.606757,0.001863,  43.260
   168.8,0.335287,0.199790,2.609402,0.001837,  43.172
   169.0,0.336793,0.200969,2.612063,0.001824,  43.073
   169.2,0.338167,0.202187,2.614740,0.001824,  43.008
   169.4,0.339454,0.203352,2.617435,0.001811,  42.937
   169.6,0.341211,0.204503,2.620152,0.001811,  42.855
   169.8,0.343090,0.205648,2.625643,0.001798,  42.780
   170.0,0.345093,0.206795,2.628419,0.001798,  42.686
   170.2,0.346994,0.207941,2.628419,0.001811,  42.625
   170.4,0.348905,0.209082,2.631194,0.001798,  42.562
   170.6,0.350817,0.210178,2.633994,0.001798,  42.489
   170.8,0.352585,0.211249,2.633976,0.001798,  42.423
   171.0,0.354283,0.212299,2.639654,0.001798,  42.352
   171.2,0.355904,0.213356,2.639671,0.001811,  42.296
   171.4,0.357608,0.214409,2.639694,0.001811,  42.235
   171.6,0.359314,0.215464,2.642560,0.001824,  42.186
   171.8,0.361033,0.216487,2.645440,0.001811,  42.123
   172.0,0.362691,0.217502,2.645435,0.001811,  42.066
   172.2,0.364320,0.218512,2.645440,0.001824,  42.025
   172.4,0.365924,0.219451,2.648340,0.001824,  41.988
   172.6,0.367491,0.220357,2.648357,0.001824,  41.936
   172.8,0.369009,0.221225,2.651293,0.001801,  41.898
   173.0,0.370489,0.222139,2.651282,0.001801,  41.848
   173.2,0.371925,0.223053,2.651270,0.001801,  41.828
   173.4,0.373304,0.223966,2.654191,0.001778,  41.785
   173.6,0.374638,0.224849,2.657139,0.001804,  41.761
   173.8,0.375975,0.225712,2.660118,0.001840,  41.743
   174.0,0.377279,0.226558,2.660112,0.001854,  41.720
   174.2,0.378556,0.227242,2.663123,0.001867,  41.696
   174.4,0.379748,0.227831,2.663135,0.001880,  41.688
   174.6,0.380888,0.228333,2.663163,0.001906,  41.679
   174.8,0.381960,0.228748,2.666201,0.001919,  41.669
   175.0,0.382959,0.229356,2.666201,0.001933,  41.668
   175.2,0.383897,0.229994,2.666207,0.001959,  41.666
   175.4,0.384755,0.230656,2.669249,0.001985,  41.673
   175.6,0.385614,0.231239,2.669238,0.001985,  41.677
   175.8,0.386443,0.231796,2.666178,0.002011,  41.688
   176.0,0.387222,0.232320,2.666167,0.002025,  41.700
   176.2,0.387894,0.232796,2.669209,0.002038,  41.710
   176.4,0.388490,0.233228,2.669214,0.002064,  41.731
   176.6,0.389004,0.233618,2.669209,0.002077,  41.746
   176.8,0.389537,0.233978,2.672272,0.002090,  41.778
   177.0,0.390039,0.234300,2.669203,0.002117,  41.813
   177.2,0.390509,0.234581,2.669209,0.002130,  41.834
   177.4,0.390915,0.234895,2.672301,0.002156,  41.875
   177.6,0.391276,0.235201,2.669266,0.002182,  41.908
   177.8,0.391592,0.235510,2.669261,0.002209,  41.945
   178.0,0.391851,0.235758,2.672318,0.002222,  42.005
   178.2,0.392058,0.235964,2.669232,0.002248,  42.030
   178.4,0.392213,0.236149,2.669220,0.002275,  42.091
   178.6,0.392323,0.236324,2.672284,0.002301,  42.132
   178.8,0.392491,0.236473,2.669209,0.002327,  42.194
   179.0,0.392659,0.236615,2.669197,0.002340,  42.252
   179.2,0.392828,0.236679,2.672261,0.002353,  42.306
   179.4,0.392834,0.236691,2.669180,0.002380,  42.373
   179.6,0.392763,0.236669,2.669180,0.002393,  42.426
   179.8,0.392620,0.236655,2.672261,0.002419,  42.497
   180.0,0.392497,0.236624,2.669214,0.002432,  42.569
   180.2,0.392342,0.236581,2.669214,0.002423,  42.631
   180.4,0.392161,0.236519,2.672284,0.002436,  42.701
   180.6,0.391967,0.236442,2.669209,0.002449,  42.778
   180.8,0.391741,0.236352,2.669214,0.002475,  42.847
   181.0,0.391495,0.236211,2.669209,0.002489,  42.937
   181.2,0.391205,0.236033,2.669226,0.002502,  43.001
   181.4,0.390882,0.235828,2.666184,0.002528,  43.084
   181.6,0.390515,0.235620,2.666190,0.002505,  43.151
   181.8,0.390084,0.235393,2.666196,0.002554,  43.234
   182.0,0.389608,0.235158,2.663175,0.002581,  43.335
   182.2,0.389068,0.234902,2.660192,0.002558,  43.397
   182.4,0.388542,0.234631,2.660227,0.002620,  43.472
   182.6,0.388003,0.234346,2.660267,0.002633,  43.559
   182.8,0.387446,0.234031,2.663261,0.002647,  43.642
   183.0,0.386839,0.233698,2.660227,0.002670,  43.747
   183.2,0.386201,0.233341,2.657202,0.002683,  43.813
   183.4,0.385550,0.233025,2.660175,0.002709,  43.893
   183.6,0.384857,0.232719,2.657190,0.002722,  43.978
   183.8,0.384126,0.232424,2.654237,0.002749,  44.069
   184.0,0.383371,0.232137,2.657179,0.002762,  44.175
   184.2,0.382599,0.231736,2.654191,0.002762,  44.251
   184.4,0.381783,0.231308,2.651218,0.002788,  44.338
   184.6,0.380944,0.230843,2.651212,0.002765,  44.408
   184.8,0.380082,0.230359,2.648294,0.002765,  44.497
   185.0,0.379189,0.229854,2.645412,0.002778,  44.607
   185.2,0.378268,0.229316,2.645400,0.002742,  44.677
   185.4,0.377361,0.228791,2.645383,0.002778,  44.767
   185.6,0.376436,0.228259,2.642468,0.002791,  44.839
   185.8,0.375521,0.227713,2.639590,0.002791,  44.927
   186.0,0.374551,0.227166,2.639596,0.002814,  45.028
   186.2,0.373546,0.226620,2.636760,0.002828,  45.098
   186.4,0.372525,0.226063,2.633925,0.002828,  45.170
   186.6,0.371666,0.225489,2.631114,0.002828,  45.254
   186.8,0.370871,0.224916,2.631119,0.002841,  45.340
   187.0,0.370151,0.224327,2.633925,0.002805,  45.440
   187.2,0.369494,0.223732,2.628321,0.002818,  45.505
   187.4,0.368525,0.223145,2.625546,0.002831,  45.574
   187.6,0.367467,0.222543,2.625540,0.002795,  45.651
   187.8,0.366326,0.221896,2.622788,0.002831,  45.717
   188.0,0.365218,0.221229,2.617331,0.002844,  45.812
   188.2,0.364089,0.220532,2.614625,0.002808,  45.882
   188.4,0.362927,0.219862,2.614631,0.002831,  45.944
   188.6,0.361767,0.219191,2.609281,0.002831,  46.016
   188.8,0.360599,0.218516,2.609281,0.002831,  46.094
   189.0,0.359422,0.217840,2.603979,0.002844,  46.169
   189.2,0.358248,0.217162,2.601355,0.002831,  46.230
   189.4,0.357071,0.216480,2.598746,0.002844,  46.287
   189.6,0.355880,0.215786,2.598752,0.002844,  46.359
   189.8,0.354698,0.215082,2.593593,0.002831,  46.430
   190.0,0.353513,0.214379,2.591048,0.002831,  46.497
   190.2,0.352325,0.213653,2.588547,0.002795,  46.548
   190.4,0.351082,0.212909,2.583560,0.002831,  46.605
   190.6,0.349801,0.212154,2.581138,0.002818,  46.670
   190.8,0.348489,0.211400,2.578753,0.002782,  46.720
   191.0,0.347222,0.210652,2.573950,0.002805,  46.795
   191.2,0.345952,0.209896,2.569225,0.002805,  46.834
   191.4,0.344687,0.209135,2.566823,0.002769,  46.894
   191.6,0.343402,0.208376,2.564382,0.002805,  46.937
   191.8,0.342091,0.207619,2.559512,0.002818,  46.981
   192.0,0.340785,0.206840,2.557070,0.002769,  47.049
   192.2,0.339483,0.206051,2.554636,0.002755,  47.082
   192.4,0.338179,0.205248,2.549868,0.002769,  47.137
   192.6,0.336867,0.204577,2.547489,0.002742,  47.178
   192.8,0.335537,0.203965,2.545133,0.002729,  47.218
   193.0,0.334199,0.203409,2.538265,0.002729,  47.272
   193.2,0.332837,0.202914,2.535986,0.002729,  47.302
   193.4,0.331480,0.202168,2.531497,0.002716,  47.357
   193.6,0.330121,0.201359,2.527071,0.002716,  47.393
   193.8,0.328744,0.200486,2.522679,0.002703,  47.426
   194.0,0.327399,0.199681,2.518330,0.002676,  47.481
   194.2,0.326064,0.198877,2.511890,0.002663,  47.505
   194.4,0.324728,0.198075,2.507630,0.002663,  47.539
   194.6,0.323362,0.197262,2.501328,0.002663,  47.565
   194.8,0.321979,0.196446,2.497163,0.002650,  47.609
   195.0,0.320578,0.195623,2.493043,0.002637,  47.647
   195.2,0.319215,0.194810,2.486957,0.002624,  47.668
   195.4,0.317850,0.194003,2.480949,0.002637,  47.708
   195.6,0.316500,0.193194,2.477001,0.002624,  47.735
   195.8,0.315144,0.192388,2.471169,0.002610,  47.763
   196.0,0.313793,0.191589,2.465425,0.002610,  47.786
   196.2,0.312441,0.190788,2.461616,0.002597,  47.821
   196.4,0.311264,0.189962,2.454095,0.002571,  47.849
   196.6,0.310176,0.189136,2.448539,0.002558,  47.868
   196.8,0.309170,0.188299,2.444863,0.002558,  47.888
   197.0,0.308252,0.187465,2.437607,0.002545,  47.911
   197.2,0.306953,0.186627,2.430476,0.002531,  47.927
   197.4,0.305558,0.185792,2.425194,0.002518,  47.962
   197.6,0.304066,0.184969,2.419981,0.002505,  47.983
   197.8,0.302686,0.184140,2.411443,0.002505,  47.999
   198.0,0.301299,0.183328,2.406403,0.002492,  48.016
   198.2,0.299906,0.182506,2.399778,0.002466,  48.033
   198.4,0.298534,0.181673,2.391641,0.002466,  48.044
   198.6,0.297165,0.180851,2.385242,0.002466,  48.078
   198.8,0.295784,0.180009,2.378942,0.002452,  48.094
   199.0,0.294372,0.179157,2.371185,0.002439,  48.111
   199.2,0.292944,0.178306,2.365079,0.002452,  48.119
   199.4,0.291490,0.177460,2.357564,0.002390,  48.131
   199.6,0.290072,0.176618,2.350177,0.002413,  48.144
   199.8,0.288653,0.175781,2.344347,0.002400,  48.154
   200.0,0.287239,0.174929,2.338589,0.002387,  48.167
   200.2,0.285818,0.174078,2.332900,0.002373,  48.193
   200.4,0.284408,0.173221,2.327285,0.002373,  48.207
   200.6,0.282992,0.172365,2.319093,0.002360,  48.216
   200.8,0.281585,0.171516,2.311096,0.002347,  48.220
   201.0,0.280183,0.170670,2.300658,0.002334,  48.233
   201.2,0.278798,0.169824,2.292880,0.002321,  48.239
   201.4,0.277401,0.168992,2.285186,0.002308,  48.250
   201.6,0.275984,0.168170,2.277567,0.002294,  48.257
   201.8,0.274566,0.167328,2.268973,0.002281,  48.257
   202.0,0.273168,0.166483,2.260574,0.002268,  48.272
   202.2,0.271760,0.165636,2.252376,0.002268,  48.277
   202.4,0.270349,0.164917,2.245374,0.002255,  48.285
   202.6,0.268964,0.164266,2.236197,0.002215,  48.307
   202.8,0.267588,0.163673,2.229384,0.002202,  48.312
   203.0,0.266216,0.163144,2.221643,0.002202,  48.321
   203.2,0.264829,0.162362,2.212983,0.002189,  48.328
   203.4,0.263433,0.161518,2.203466,0.002176,  48.333
   203.6,0.262026,0.160613,2.195163,0.002163,  48.338
   203.8,0.260648,0.159784,2.186013,0.002163,  48.344
   204.0,0.259284,0.158960,2.177058,0.002176,  48.343
   204.2,0.257915,0.158152,2.168285,0.002150,  48.353
   204.4,0.256545,0.157333,2.159702,0.002136,  48.355
   204.6,0.255179,0.156518,2.150359,0.002136,  48.360
   204.8,0.253814,0.155712,2.142087,0.002123,  48.358
   205.0,0.252452,0.154894,2.133066,0.002110,  48.361
   205.2,0.251094,0.154070,2.122481,0.002110,  48.363
   205.4,0.249737,0.153252,2.113869,0.002097,  48.370
   205.6,0.248573,0.152438,2.104602,0.002084,  48.376
   205.8,0.247515,0.151622,2.094718,0.002071,  48.382
   206.0,0.246548,0.150814,2.085841,0.002058,  48.385
   206.2,0.245684,0.150007,2.075590,0.002031,  48.387
   206.4,0.244426,0.149197,2.066333,0.002031,  48.390
   206.6,0.243070,0.148393,2.058000,0.001982,  48.395
   206.8,0.241618,0.147585,2.047636,0.001982,  48.390
   207.0,0.240285,0.146780,2.038216,0.001982,  48.396
   207.2,0.238951,0.145972,2.029008,0.001933,  48.397
   207.4,0.237635,0.145165,2.018631,0.001956,  48.400
   207.6,0.236296,0.144357,2.008503,0.001942,  48.402
   207.8,0.234954,0.143548,1.999254,0.001893,  48.400
   208.0,0.233603,0.142746,1.988931,0.001916,  48.404
   208.2,0.232261,0.141942,1.978848,0.001903,  48.407
   208.4,0.230936,0.141144,1.969587,0.001880,  48.411
   208.6,0.229604,0.140343,1.959331,0.001890,  48.415
   208.8,0.228270,0.139538,1.948718,0.001890,  48.431
   209.0,0.226948,0.138744,1.940066,0.001841,  48.429
   209.2,0.225615,0.137949,1.932693,0.001877,  48.434
   209.4,0.224289,0.137156,1.924890,0.001864,  48.435
   209.6,0.222983,0.136359,1.918309,0.001864,  48.440
   209.8,0.221671,0.135568,1.909171,0.001837,  48.440
   210.0,0.220352,0.134776,1.898674,0.001847,  48.439
   210.2,0.219050,0.133982,1.887929,0.001834,  48.443
   210.4,0.217737,0.133194,1.877922,0.001834,  48.447
   210.6,0.216434,0.132418,1.867657,0.001821,  48.446
   210.8,0.215144,0.131643,1.857163,0.001808,  48.446
   211.0,0.213855,0.130982,1.847377,0.001795,  48.448
   211.2,0.212581,0.130377,1.837357,0.001768,  48.447
   211.4,0.211323,0.129827,1.827128,0.001768,  48.451
   211.6,0.210067,0.129338,1.816717,0.001732,  48.454
   211.8,0.208795,0.128628,1.806149,0.001706,  48.452
   212.0,0.207540,0.127863,1.795424,0.001693,  48.454
   212.2,0.206265,0.127043,1.785308,0.001657,  48.453
   212.4,0.205013,0.126285,1.775409,0.001680,  48.455
   212.6,0.203786,0.125528,1.766090,0.001666,  48.455
   212.8,0.202559,0.124773,1.756630,0.001630,  48.455
   213.0,0.201318,0.124029,1.745921,0.001666,  48.455
   213.2,0.200088,0.123292,1.735482,0.001680,  48.457
   213.4,0.198854,0.122561,1.725608,0.001630,  48.458
   213.6,0.197623,0.121817,1.715595,0.001640,  48.463
   213.8,0.196401,0.121071,1.705467,0.001640,  48.463
   214.0,0.195190,0.120329,1.695906,0.001604,  48.461
   214.2,0.193977,0.119589,1.685602,0.001614,  48.465
   214.4,0.192781,0.118851,1.675547,0.001614,  48.463
   214.6,0.191596,0.118129,1.665205,0.001578,  48.462
   214.8,0.190403,0.117410,1.653976,0.001601,  48.462
   215.0,0.189202,0.116694,1.642520,0.001588,  48.465
   215.2,0.188015,0.115986,1.632587,0.001538,  48.466
   215.4,0.186997,0.115270,1.623351,0.001561,  48.466
   215.6,0.186065,0.114558,1.614522,0.001548,  48.469
   215.8,0.185225,0.113836,1.604878,0.001499,  48.468
   216.0,0.184474,0.113117,1.595184,0.001535,  48.460
   216.2,0.183373,0.112396,1.585458,0.001548,  48.464
   216.4,0.182184,0.111674,1.575956,0.001486,  48.469
   216.6,0.180916,0.110955,1.566190,0.001509,  48.465
   216.8,0.179745,0.110249,1.556179,0.001496,  48.465
   217.0,0.178566,0.109547,1.546370,0.001459,  48.467
   217.2,0.177407,0.108839,1.536327,0.001482,  48.468
   217.4,0.176246,0.108135,1.526295,0.001482,  48.469
   217.6,0.175077,0.107436,1.517999,0.001433,  48.469
   217.8,0.173919,0.106739,1.510287,0.001456,  48.467
   218.0,0.172775,0.106046,1.503550,0.001456,  48.470
   218.2,0.171627,0.105361,1.497134,0.001443,  48.467
   218.4,0.170498,0.104668,1.487975,0.001407,  48.466
   218.6,0.169358,0.103979,1.478216,0.001430,  48.470
   218.8,0.168208,0.103292,1.467896,0.001430,  48.465
   219.0,0.167069,0.102604,1.458369,0.001381,  48.472
   219.2,0.165946,0.101925,1.448844,0.001404,  48.473
   219.4,0.164823,0.101252,1.439162,0.001404,  48.471
   219.6,0.163723,0.100584,1.429712,0.001354,  48.472
   219.8,0.162640,0.099926,1.420464,0.001364,  48.472
   220.0,0.161562,0.099276,1.411088,0.001364,  48.474
   220.2,0.160505,0.098716,1.401728,0.001328,  48.468
   220.4,0.159429,0.098194,1.392409,0.001351,  48.474
   220.6,0.158348,0.097729,1.382969,0.001338,  48.473
   220.8,0.157273,0.097306,1.373730,0.001302,  48.475
   221.0,0.156220,0.096706,1.364684,0.001325,  48.476
   221.2,0.155174,0.096069,1.355530,0.001312,  48.474
   221.4,0.154152,0.095390,1.346420,0.001275,  48.475
   221.6,0.153102,0.094749,1.337361,0.001312,  48.472
   221.8,0.152035,0.094115,1.328220,0.001325,  48.472
   222.0,0.150975,0.093478,1.319109,0.001275,  48.469
   222.2,0.149941,0.092846,1.310051,0.001285,  48.470
   222.4,0.148906,0.092218,1.301047,0.001298,  48.472
   222.6,0.147895,0.091590,1.292220,0.001249,  48.473
   222.8,0.146875,0.090964,1.283323,0.001272,  48.473
   223.0,0.145852,0.090348,1.274610,0.001272,  48.474
   223.2,0.144847,0.089732,1.265522,0.001223,  48.475
   223.4,0.143842,0.089115,1.256185,0.001233,  48.478
   223.6,0.142843,0.088501,1.246620,0.001233,  48.475
   223.8,0.141853,0.087895,1.238052,0.001197,  48.473
   224.0,0.141000,0.087293,1.229715,0.001220,  48.474
   224.2,0.140228,0.086692,1.221706,0.001207,  48.470
   224.4,0.139522,0.086094,1.213451,0.001170,  48.475
   224.6,0.138890,0.085492,1.204928,0.001193,  48.475
   224.8,0.137968,0.084891,1.196568,0.001193,  48.478
   225.0,0.136982,0.084288,1.187876,0.001144,  48.476
   225.2,0.135920,0.083680,1.178876,0.001180,  48.480
   225.4,0.134942,0.083078,1.169785,0.001180,  48.477
   225.6,0.133967,0.082473,1.161434,0.001144,  48.480
   225.8,0.132990,0.081893,1.153152,0.001167,  48.477
   226.0,0.132047,0.081320,1.145215,0.001154,  48.478
   226.2,0.131114,0.080766,1.138392,0.001118,  48.480
   226.4,0.130193,0.080204,1.132380,0.001141,  48.475
   226.6,0.129277,0.079643,1.126800,0.001128,  48.479
   226.8,0.128364,0.079090,1.121885,0.001128,  48.476
   227.0,0.127450,0.078530,1.114482,0.001079,  48.476
   227.2,0.126540,0.077973,1.106544,0.001102,  48.473
   227.4,0.125626,0.077417,1.098102,0.001088,  48.478
   227.6,0.124713,0.076866,1.090438,0.001052,  48.475
   227.8,0.123820,0.076323,1.082822,0.001088,  48.482
   228.0,0.122939,0.075790,1.075163,0.001075,  48.476
   228.2,0.122060,0.075253,1.067506,0.001026,  48.477
   228.4,0.121186,0.074728,1.059836,0.001049,  48.481
   228.6,0.120320,0.074204,1.052157,0.001062,  48.479
   228.8,0.119457,0.073754,1.044612,0.001013,  48.479
   229.0,0.118605,0.073344,1.037064,0.001036,  48.480
   229.2,0.117752,0.072971,1.029581,0.001036,  48.482
   229.4,0.116907,0.072637,1.022208,0.001000,  48.475
   229.6,0.116071,0.072161,1.014896,0.001023,  48.477
   229.8,0.115236,0.071656,1.007500,0.001023,  48.479
   230.0,0.114403,0.071110,1.000167,0.001000,  48.478
   230.2,0.113558,0.070590,0.992834,0.001023,  48.483
   230.4,0.112711,0.070082,0.985501,0.001023,  48.478
   230.6,0.111852,0.069564,0.978211,0.000987,  48.476
   230.8,0.111019,0.069050,0.970914,0.000997,  48.477
   231.0,0.110187,0.068546,0.963610,0.000947,  48.477
   231.2,0.109364,0.068043,0.956481,0.000947,  48.475
   231.4,0.108542,0.067538,0.949413,0.000934,  48.475
   231.6,0.107725,0.067041,0.942343,0.000885,  48.478
   231.8,0.106909,0.066542,0.935234,0.000921,  48.476
   232.0,0.106102,0.066041,0.928185,0.000921,  48.478
   232.2,0.105303,0.065545,0.921156,0.000898,  48.477
   232.4,0.104509,0.065045,0.914211,0.000921,  48.473
   232.6,0.103826,0.064555,0.907363,0.000908,  48.475
   232.8,0.103197,0.064075,0.900622,0.000885,  48.480
   233.0,0.102633,0.063594,0.893743,0.000908,  48.478
   233.2,0.102128,0.063108,0.886832,0.000895,  48.472
   233.4,0.101402,0.062634,0.879842,0.000872,  48.479
   233.6,0.100625,0.062153,0.873087,0.000895,  48.479
   233.8,0.099797,0.061677,0.866387,0.000882,  48.480
   234.0,0.099025,0.061214,0.859784,0.000846,  48.478
   234.2,0.098259,0.060752,0.853139,0.000882,  48.480
   234.4,0.097491,0.060287,0.846513,0.000869,  48.479
   234.6,0.096727,0.059827,0.839852,0.000869,  48.476
   234.8,0.095968,0.059365,0.833369,0.000832,  48.478
   235.0,0.095207,0.058908,0.826942,0.000832,  48.475
   235.2,0.094467,0.058456,0.820480,0.000855,  48.473
   235.4,0.093728,0.058007,0.815010,0.000819,  48.475
   235.6,0.093000,0.057555,0.809988,0.000829,  48.477
   235.8,0.092270,0.057107,0.805449,0.000803,  48.477
   236.0,0.091541,0.056661,0.801288,0.000767,  48.478
   236.2,0.090810,0.056218,0.795427,0.000803,  48.478
   236.4,0.090100,0.055780,0.789207,0.000803,  48.476
   236.6,0.089394,0.055344,0.782597,0.000780,  48.478
   236.8,0.088696,0.054913,0.776444,0.000803,  48.475
   237.0,0.087999,0.054489,0.770382,0.000790,  48.475
   237.2,0.087303,0.054064,0.764340,0.000767,  48.472
   237.4,0.086615,0.053703,0.758320,0.000754,  48.473
   237.6,0.085924,0.053370,0.752340,0.000754,  48.473
   237.8,0.085247,0.053073,0.746446,0.000731,  48.474
   238.0,0.084578,0.052805,0.740632,0.000704,  48.472
   238.2,0.083903,0.052425,0.734798,0.000727,  48.471
   238.4,0.083239,0.052017,0.729007,0.000704,  48.477
   238.6,0.082586,0.051583,0.723246,0.000691,  48.474
   238.8,0.081921,0.051175,0.717475,0.000727,  48.473
   239.0,0.081263,0.050768,0.711707,0.000704,  48.476
   239.2,0.080612,0.050366,0.706103,0.000691,  48.474
   239.4,0.079966,0.049962,0.700538,0.000727,  48.474
   239.6,0.079333,0.049572,0.695036,0.000691,  48.473
   239.8,0.078710,0.049189,0.689531,0.000691,  48.474
   240.0,0.078076,0.048796,0.683979,0.000714,  48.471
   240.2,0.077449,0.048407,0.678410,0.000678,  48.471
   240.4,0.076829,0.048026,0.673007,0.000678,  48.473
   240.6,0.076210,0.047639,0.667676,0.000701,  48.473
   240.8,0.075598,0.047264,0.662344,0.000665,  48.473
   241.0,0.075003,0.046892,0.657148,0.000652,  48.473
   241.2,0.074483,0.046514,0.652037,0.000675,  48.472
   241.4,0.074001,0.046146,0.646956,0.000639,  48.472
   241.6,0.073576,0.045777,0.641824,0.000639,  48.472
   241.8,0.073188,0.045407,0.636650,0.000675,  48.472
   242.0,0.072636,0.045044,0.631464,0.000626,  48.471
   242.2,0.072045,0.044679,0.626382,0.000626,  48.472
   242.4,0.071414,0.044319,0.621338,0.000662,  48.473
   242.6,0.070824,0.043966,0.616283,0.000613,  48.472
   242.8,0.070244,0.043620,0.611321,0.000613,  48.468
   243.0,0.069665,0.043260,0.606384,0.000662,  48.472
   243.2,0.069093,0.042908,0.601475,0.000662,  48.473
   243.4,0.068528,0.042561,0.596673,0.000662,  48.471
   243.6,0.067958,0.042211,0.591872,0.000662,  48.474
   243.8,0.067400,0.041870,0.587155,0.000649,  48.472
   244.0,0.066850,0.041535,0.582368,0.000649,  48.476
   244.2,0.066300,0.041193,0.577565,0.000636,  48.473
   244.4,0.065747,0.040857,0.572753,0.000623,  48.475
   244.6,0.065199,0.040522,0.568685,0.000599,  48.477
   244.8,0.064648,0.040191,0.564969,0.000586,  48.474
   245.0,0.064110,0.039862,0.561605,0.000609,  48.476
   245.2,0.063579,0.039536,0.558547,0.000573,  48.475
   245.4,0.063063,0.039215,0.554335,0.000573,  48.475
   245.6,0.062533,0.038891,0.549861,0.000596,  48.474
   245.8,0.062007,0.038570,0.545179,0.000560,  48.470
   246.0,0.061490,0.038251,0.540689,0.000573,  48.473
   246.2,0.060974,0.037937,0.536211,0.000596,  48.470
   246.4,0.060467,0.037618,0.531707,0.000560,  48.473
   246.6,0.059974,0.037353,0.527382,0.000560,  48.471
   246.8,0.059471,0.037108,0.523109,0.000570,  48.472
   247.0,0.058976,0.036898,0.518890,0.000534,  48.471
   247.2,0.058487,0.036709,0.514631,0.000547,  48.471
   247.4,0.057989,0.036430,0.510349,0.000570,  48.470
   247.6,0.057501,0.036128,0.506058,0.000534,  48.472
   247.8,0.057023,0.035802,0.501891,0.000547,  48.470
   248.0,0.056539,0.035505,0.497769,0.000570,  48.469
   248.2,0.056064,0.035211,0.493659,0.000534,  48.471
   248.4,0.055603,0.034929,0.489327,0.000547,  48.470
   248.6,0.055132,0.034640,0.484908,0.000570,  48.470
   248.8,0.054668,0.034347,0.480372,0.000534,  48.469
   249.0,0.054214,0.034063,0.476431,0.000534,  48.469
   249.2,0.053753,0.033784,0.472713,0.000557,  48.465
   249.4,0.053303,0.033502,0.469211,0.000508,  48.470
   249.6,0.052859,0.033224,0.465467,0.000508,  48.471
   249.8,0.052474,0.032947,0.461696,0.000544,  48.473
   250.0,0.052119,0.032672,0.457913,0.000495,  48.470
   250.2,0.051806,0.032395,0.454138,0.000481,  48.468
   250.4,0.051520,0.032121,0.450357,0.000518,  48.468
   250.6,0.051113,0.031851,0.446559,0.000495,  48.470
   250.8,0.050671,0.031585,0.442784,0.000481,  48.470
   251.0,0.050200,0.031317,0.439036,0.000518,  48.472
   251.2,0.049764,0.031045,0.435301,0.000495,  48.470
   251.4,0.049341,0.030787,0.431656,0.000481,  48.468
   251.6,0.048925,0.030530,0.428100,0.000468,  48.469
   251.8,0.048508,0.030271,0.424590,0.000468,  48.467
   252.0,0.048103,0.030025,0.421236,0.000432,  48.470
   252.2,0.047712,0.029777,0.417992,0.000468,  48.473
   252.4,0.047311,0.029529,0.414829,0.000468,  48.471
   252.6,0.046913,0.029287,0.411486,0.000432,  48.468
   252.8,0.046526,0.029044,0.408118,0.000419,  48.470
   253.0,0.046131,0.028803,0.404677,0.000419,  48.470
   253.2,0.045744,0.028558,0.401906,0.000396,  48.469
   253.4,0.045363,0.028325,0.399426,0.000383,  48.468
   253.6,0.044979,0.028090,0.397210,0.000419,  48.466
   253.8,0.044601,0.027859,0.395298,0.000396,  48.467
   254.0,0.044230,0.027631,0.392311,0.000383,  48.468
   254.2,0.043852,0.027399,0.389061,0.000419,  48.468
   254.4,0.043488,0.027171,0.385566,0.000396,  48.472
   254.6,0.043126,0.026951,0.382440,0.000383,  48.467
   254.8,0.042761,0.026725,0.379361,0.000419,  48.470
   255.0,0.042412,0.026513,0.376331,0.000396,  48.472
   255.2,0.042069,0.026324,0.373267,0.000383,  48.470
   255.4,0.041710,0.026161,0.370208,0.000419,  48.472
   255.6,0.041355,0.025999,0.367142,0.000383,  48.472
   255.8,0.041007,0.025867,0.364051,0.000383,  48.467
   256.0,0.040650,0.025663,0.360952,0.000406,  48.473
   256.2,0.040296,0.025447,0.357836,0.000370,  48.471
   256.4,0.039949,0.025212,0.354604,0.000370,  48.471
   256.6,0.039600,0.024996,0.351303,0.000393,  48.472
   256.8,0.039256,0.024780,0.347919,0.000357,  48.471
   257.0,0.038921,0.024564,0.345004,0.000357,  48.473
   257.2,0.038577,0.024354,0.342285,0.000393,  48.476
   257.4,0.038239,0.024144,0.339707,0.000357,  48.474
   257.6,0.037898,0.023936,0.336937,0.000357,  48.478
   257.8,0.037560,0.023730,0.334164,0.000380,  48.477
   258.0,0.037238,0.023524,0.331364,0.000344,  48.479
   258.2,0.036910,0.023329,0.328593,0.000357,  48.474
   258.4,0.036578,0.023130,0.325839,0.000380,  48.477
   258.6,0.036263,0.022922,0.323080,0.000344,  48.473
   258.8,0.035938,0.022724,0.320334,0.000357,  48.476
   259.0,0.035662,0.022525,0.317604,0.000380,  48.471
   259.2,0.035409,0.022323,0.314870,0.000344,  48.475
   259.4,0.035175,0.022123,0.312222,0.000344,  48.477
   259.6,0.034977,0.021928,0.309603,0.000367,  48.475
   259.8,0.034690,0.021739,0.307019,0.000317,  48.471
   260.0,0.034378,0.021552,0.304444,0.000354,  48.473
   260.2,0.034052,0.021359,0.301884,0.000377,  48.473
   260.4,0.033748,0.021173,0.299326,0.000363,  48.472
   260.6,0.033454,0.020988,0.296794,0.000377,  48.474
   260.8,0.033159,0.020807,0.294270,0.000363,  48.480
   261.0,0.032862,0.020630,0.291772,0.000363,  48.474
   261.2,0.032574,0.020452,0.289659,0.000363,  48.472
   261.4,0.032283,0.020279,0.287724,0.000327,  48.477
   261.6,0.031992,0.020108,0.285980,0.000363,  48.477
   261.8,0.031716,0.019934,0.284413,0.000340,  48.477
   262.0,0.031441,0.019760,0.281692,0.000363,  48.477
   262.2,0.031158,0.019587,0.278610,0.000363,  48.477
   262.4,0.030883,0.019416,0.275180,0.000340,  48.476
   262.6,0.030616,0.019242,0.272792,0.000363,  48.476
   262.8,0.030337,0.019072,0.270745,0.000363,  48.477
   263.0,0.030064,0.018908,0.269034,0.000340,  48.473
   263.2,0.029798,0.018766,0.266967,0.000363,  48.481
   263.4,0.029528,0.018633,0.264872,0.000363,  48.477
   263.6,0.029267,0.018521,0.262769,0.000340,  48.472
   263.8,0.029019,0.018420,0.260687,0.000363,  48.476
   264.0,0.028757,0.018271,0.258603,0.000363,  48.478
   264.2,0.028503,0.018115,0.256511,0.000340,  48.477
   264.4,0.028252,0.017942,0.254369,0.000363,  48.478
   264.6,0.027996,0.017784,0.252185,0.000363,  48.477
   264.8,0.027748,0.017624,0.249982,0.000340,  48.479
   265.0,0.027503,0.017468,0.247896,0.000327,  48.478
   265.2,0.027253,0.017312,0.245854,0.000327,  48.478
   265.4,0.027011,0.017161,0.243838,0.000304,  48.475
   265.6,0.026777,0.017012,0.241809,0.000291,  48.482
   265.8,0.026534,0.016864,0.239783,0.000314,  48.478
   266.0,0.026294,0.016709,0.237756,0.000291,  48.481
   266.2,0.026064,0.016565,0.235721,0.000291,  48.480
   266.4,0.025824,0.016419,0.233679,0.000314,  48.480
   266.6,0.025593,0.016276,0.231648,0.000278,  48.479
   266.8,0.025366,0.016135,0.229685,0.000278,  48.479
   267.0,0.025169,0.015989,0.227754,0.000288,  48.481
   267.2,0.024988,0.015850,0.225853,0.000252,  48.480
   267.4,0.024827,0.015707,0.223911,0.000265,  48.479
   267.6,0.024680,0.015561,0.221978,0.000288,  48.478
   267.8,0.024472,0.015426,0.220033,0.000252,  48.482
   268.0,0.024251,0.015289,0.218165,0.000265,  48.478
   268.2,0.024012,0.015150,0.216348,0.000288,  48.482
   268.4,0.023790,0.015019,0.214576,0.000252,  48.479
   268.6,0.023577,0.014886,0.212753,0.000265,  48.485
   268.8,0.023367,0.014753,0.210906,0.000288,  48.483
   269.0,0.023151,0.014627,0.209053,0.000288,  48.484
   269.2,0.022944,0.014496,0.207274,0.000301,  48.486
   269.4,0.022743,0.014365,0.205514,0.000288,  48.483
   269.6,0.022529,0.014244,0.203781,0.000288,  48.486
   269.8,0.022328,0.014118,0.202280,0.000252,  48.482
   270.0,0.022127,0.013991,0.200889,0.000275,  48.480
   270.2,0.021920,0.013867,0.199632,0.000275,  48.481
   270.4,0.021721,0.013745,0.198473,0.000239,  48.485
   270.6,0.021523,0.013620,0.196938,0.000239,  48.482
   270.8,0.021321,0.013495,0.195305,0.000275,  48.482
   271.0,0.021132,0.013376,0.193596,0.000239,  48.479
   271.2,0.020939,0.013255,0.191876,0.000239,  48.479
   271.4,0.020746,0.013139,0.190121,0.000239,  48.483
   271.6,0.020565,0.013025,0.188309,0.000239,  48.481
   271.8,0.020381,0.012908,0.186729,0.000239,  48.485
   272.0,0.020194,0.012800,0.185224,0.000239,  48.491
   272.2,0.020024,0.012688,0.183800,0.000239,  48.487
   272.4,0.019843,0.012573,0.182228,0.000239,  48.487
   272.6,0.019659,0.012468,0.180595,0.000239,  48.488
   272.8,0.019487,0.012360,0.178930,0.000239,  48.483
   273.0,0.019309,0.012268,0.177471,0.000239,  48.486
   273.2,0.019130,0.012181,0.176067,0.000226,  48.486
   273.4,0.018954,0.012099,0.174749,0.000226,  48.485
   273.6,0.018785,0.012032,0.173356,0.000239,  48.485
   273.8,0.018614,0.011932,0.171954,0.000226,  48.485
   274.0,0.018444,0.011826,0.170552,0.000226,  48.486
   274.2,0.018287,0.011714,0.169131,0.000239,  48.482
   274.4,0.018116,0.011612,0.167701,0.000226,  48.486
   274.6,0.017953,0.011508,0.166263,0.000189,  48.487
   274.8,0.017786,0.011399,0.164908,0.000203,  48.486
   275.0,0.017625,0.011292,0.163583,0.000203,  48.488
   275.2,0.017464,0.011191,0.162301,0.000166,  48.487
   275.4,0.017300,0.011096,0.160941,0.000166,  48.485
   275.6,0.017138,0.010998,0.159555,0.000189,  48.486
   275.8,0.016983,0.010898,0.158128,0.000189,  48.486
   276.0,0.016828,0.010806,0.156794,0.000189,  48.486
   276.2,0.016690,0.010713,0.155511,0.000176,  48.486
   276.4,0.016571,0.010614,0.154230,0.000176,  48.489
   276.6,0.016462,0.010518,0.152926,0.000176,  48.485
   276.8,0.016367,0.010427,0.151614,0.000176,  48.485
   277.0,0.016231,0.010332,0.150302,0.000176,  48.484
   277.2,0.016091,0.010240,0.149058,0.000176,  48.488
   277.4,0.015936,0.010148,0.147822,0.000176,  48.485
   277.6,0.015801,0.010054,0.146622,0.000176,  48.488
   277.8,0.015662,0.009971,0.145411,0.000176,  48.487
   278.0,0.015517,0.009886,0.144233,0.000176,  48.484
   278.2,0.015384,0.009795,0.143044,0.000176,  48.484
   278.4,0.015248,0.009710,0.141848,0.000140,  48.487
   278.6,0.015110,0.009625,0.140662,0.000176,  48.486
   278.8,0.014977,0.009543,0.139461,0.000176,  48.484
   279.0,0.014847,0.009462,0.138498,0.000140,  48.486
   279.2,0.014711,0.009375,0.137652,0.000176,  48.487
   279.4,0.014584,0.009299,0.136921,0.000176,  48.487
   279.6,0.014456,0.009226,0.136306,0.000176,  48.487
   279.8,0.014329,0.009144,0.135191,0.000176,  48.487
   280.0,0.014204,0.009064,0.133956,0.000176,  48.487
   280.2,0.014080,0.008987,0.132592,0.000176,  48.486
   280.4,0.013953,0.008915,0.131540,0.000176,  48.484
   280.6,0.013824,0.008837,0.130563,0.000176,  48.490
   280.8,0.013703,0.008762,0.129653,0.000176,  48.488
   281.0,0.013586,0.008684,0.128668,0.000176,  48.489
   281.2,0.013461,0.008615,0.127693,0.000176,  48.486
   281.4,0.013339,0.008541,0.126715,0.000176,  48.490
   281.6,0.013224,0.008477,0.125696,0.000176,  48.491
   281.8,0.013108,0.008422,0.124664,0.000176,  48.491
   282.0,0.012989,0.008362,0.123614,0.000176,  48.489
   282.2,0.012870,0.008317,0.122628,0.000176,  48.492
   282.4,0.012754,0.008247,0.121664,0.000176,  48.489
   282.6,0.012641,0.008171,0.120725,0.000176,  48.490
   282.8,0.012528,0.008097,0.119745,0.000176,  48.489
   283.0,0.012414,0.008028,0.118753,0.000176,  48.491
   283.2,0.012301,0.007952,0.117768,0.000176,  48.493
   283.4,0.012185,0.007881,0.116829,0.000176,  48.492
   283.6,0.012075,0.007811,0.115898,0.000176,  48.492
   283.8,0.011967,0.007742,0.114988,0.000176,  48.490
   284.0,0.011862,0.007673,0.114083,0.000176,  48.491
   284.2,0.011754,0.007604,0.113189,0.000176,  48.488
   284.4,0.011646,0.007534,0.112296,0.000176,  48.488
   284.6,0.011539,0.007469,0.111369,0.000176,  48.489
   284.8,0.011447,0.007403,0.110418,0.000176,  48.489
   285.0,0.011364,0.007335,0.109453,0.000176,  48.492
   285.2,0.011291,0.007277,0.108559,0.000140,  48.490
   285.4,0.011226,0.007213,0.107679,0.000140,  48.492
   285.6,0.011126,0.007148,0.106817,0.000140,  48.491
   285.8,0.011027,0.007083,0.105968,0.000104,  48.492
   286.0,0.010920,0.007018,0.105129,0.000140,  48.489
   286.2,0.010823,0.006958,0.104297,0.000127,  48.492
   286.4,0.010729,0.006898,0.103439,0.000091,  48.493
   286.6,0.010632,0.006831,0.102578,0.000127,  48.492
   286.8,0.010536,0.006770,0.101713,0.000114,  48.488
   287.0,0.010435,0.006707,0.100896,0.000078,  48.494
   287.2,0.010336,0.006647,0.100099,0.000078,  48.491
   287.4,0.010242,0.006589,0.099331,0.000127,  48.492
   287.6,0.010142,0.006539,0.098438,0.000091,  48.488
   287.8,0.010054,0.006484,0.097484,0.000091,  48.491
   288.0,0.009966,0.006424,0.096502,0.000127,  48.492
   288.2,0.009868,0.006373,0.095735,0.000127,  48.492
   288.4,0.009789,0.006322,0.095056,0.000091,  48.489
   288.6,0.009703,0.006267,0.094448,0.000127,  48.490
   288.8,0.009615,0.006214,0.093938,0.000127,  48.487
   289.0,0.009535,0.006164,0.093278,0.000091,  48.488
   289.2,0.009455,0.006106,0.092622,0.000127,  48.487
   289.4,0.009369,0.006045,0.091961,0.000127,  48.490
   289.6,0.009289,0.005989,0.091307,0.000091,  48.487
   289.8,0.009208,0.005939,0.090661,0.000127,  48.498
   290.0,0.009125,0.005888,0.090020,0.000127,  48.493
   290.2,0.009040,0.005843,0.089348,0.000091,  48.493
   290.4,0.008960,0.005801,0.088660,0.000127,  48.493
   290.6,0.008882,0.005768,0.087963,0.000127,  48.491
   290.8,0.008802,0.005740,0.087142,0.000091,  48.482
   291.0,0.008724,0.005693,0.086269,0.000127,  48.488
   291.2,0.008640,0.005644,0.085319,0.000127,  48.489
   291.4,0.008563,0.005593,0.084634,0.000091,  48.493
   291.6,0.008488,0.005542,0.084046,0.000127,  48.488
   291.8,0.008404,0.005494,0.083555,0.000127,  48.486
   292.0,0.008333,0.005451,0.082968,0.000091,  48.486
   292.2,0.008258,0.005403,0.082380,0.000127,  48.492
   292.4,0.008180,0.005358,0.081792,0.000127,  48.488
