Run Name,dead time
Run Date,02:22:02 PM   03-30-09
Method Name,Dead time
Export Format Version, 1.00
Method ID,  724
Points/Second, 5.00
Number of Records,   1460
Offset from Run Start Time,00:00:00
Run End Time,00:04:54
Time,Second
QuadTec 1, (280.0 nm), AU
QuadTec 2, (260.0 nm), AU
Gradient Pump,%B
QuadTec 3, (214.0 nm), AU
QuadTec 4, (405.0 nm), AU
Conductivity,mS/cm
Trace 6,<Not Available>
GP Pressure,<Not Selected>
Volume,<Not Selected>
Fraction,<Not Available>
Time,QuadTec 1,QuadTec 2,Gradient Pump,QuadTec 3,QuadTec 4,Conductivity
     0.0,0.006810,0.000000,100,0.000000,-0.425628,  80.568
     0.2,0.006835,0.000000,100,0.000000,-0.425614,  80.573
     0.4,0.006813,0.000000,100,0.000000,-0.425637,  80.570
     0.6,0.006850,0.000000,100,0.000000,-0.425601,  80.571
     0.8,0.000000,0.000000,100,0.000000,-0.425601,  80.568
     1.0,0.000000,0.000000,100,0.000000,-0.425574,  80.566
     1.2,0.000000,0.000000,100,0.000000,-0.425588,  80.558
     1.4,0.000000,0.000000,100,0.000000,0.000000,  80.566
     1.6,0.000000,0.000000,100,0.000000,0.000000,  80.566
     1.8,0.000000,0.000000,100,0.000000,0.000000,  80.568
     2.0,0.000000,0.000000,100,0.000000,0.000000,  80.574
     2.2,0.000000,0.000000,100,0.000000,0.000000,  80.576
     2.4,0.000000,0.000000,100,0.000000,0.000000,  80.579
     2.6,0.000000,0.000000,100,0.000000,0.000000,  80.584
     2.8,0.000000,0.000000,100,0.000000,0.000000,  80.592
     3.0,0.000000,0.000000,100,0.000000,0.000000,  80.595
     3.2,0.000000,0.000000,100,0.000000,0.000000,  80.591
     3.4,0.000000,0.000000,100,0.000000,0.000000,  80.595
     3.6,0.000000,0.000000,100,0.000000,0.000000,  80.603
     3.8,0.000000,0.000000,100,0.000000,0.000000,  80.604
     4.0,0.000000,0.000000,100,0.000000,0.000000,  80.605
     4.2,0.000000,0.000000,100,0.000000,0.000000,  80.610
     4.4,0.000000,0.000000,100,0.000000,0.000000,  80.616
     4.6,0.000000,0.000001,100,0.000006,0.000000,  80.616
     4.8,0.000001,0.000003,100,0.000012,0.000000,  80.619
     5.0,0.000001,0.000002,100,0.000007,0.000000,  80.621
     5.2,-0.000001,-0.000001,100,-0.000008,0.000000,  80.629
     5.4,-0.000008,-0.000005,100,-0.000025,0.000000,  80.638
     5.6,-0.000013,-0.000009,100,-0.000052,0.000000,  80.640
     5.8,-0.000022,-0.000009,100,-0.000085,0.000000,  80.639
     6.0,-0.000032,-0.000014,100,-0.000090,-0.000022,  80.645
     6.2,-0.000036,-0.000016,100,-0.000079,0.000027,  80.640
     6.4,-0.000043,-0.000023,100,-0.000049,0.000027,  80.648
     6.6,-0.000053,-0.000028,100,-0.000075,-0.000009,  80.651
     6.8,-0.000053,-0.000035,100,-0.000123,-0.000009,  80.656
     7.0,-0.000053,-0.000038,100,-0.000188,-0.000009,  80.655
     7.2,-0.000053,-0.000042,100,-0.000546,-0.000045,  80.661
     7.4,-0.000050,-0.000046,100,-0.001062,-0.000045,  80.665
     7.6,-0.000048,-0.000043,100,-0.001743,-0.000045,  80.661
     7.8,-0.000046,-0.000042,100,-0.001773,-0.000081,  80.669
     8.0,-0.000043,-0.000042,100,-0.001553,-0.000081,  80.674
     8.2,-0.000039,-0.000035,100,-0.001091,-0.000058,  80.676
     8.4,-0.000034,-0.000033,100,-0.000916,-0.000094,  80.677
     8.6,-0.000032,-0.000031,100,-0.000757,-0.000094,  80.674
     8.8,-0.000027,-0.000025,100,-0.000618,-0.000072,  80.678
     9.0,-0.000019,-0.000017,100,-0.000719,-0.000108,  80.683
     9.2,-0.000014,-0.000012,100,-0.000945,-0.000094,  80.683
     9.4,-0.000018,-0.000015,100,-0.001303,-0.000058,  80.680
     9.6,-0.000018,-0.000010,100,-0.001274,-0.000094,  80.683
     9.8,-0.000017,-0.000012,100,-0.001132,-0.000058,  80.685
    10.0,-0.000027,-0.000018,100,-0.000861,-0.000036,  80.687
    10.2,-0.000028,-0.000021,100,-0.000909,-0.000072,  80.688
    10.4,-0.000032,-0.000024,100,-0.001072,-0.000022,  80.696
    10.6,-0.000045,-0.000028,100,-0.001332,-0.000009,  80.692
    10.8,-0.000047,-0.000026,100,-0.001267,-0.000045,  80.701
    11.0,-0.000052,-0.000032,100,-0.001093,-0.000009,  80.695
    11.2,-0.000059,-0.000035,100,-0.000808,-0.000022,  80.706
    11.4,-0.000059,-0.000036,100,-0.000695,-0.000058,  80.703
    11.6,-0.000054,-0.000040,100,-0.000603,-0.000022,  80.704
    11.8,-0.000057,-0.000041,100,-0.000556,-0.000036,  80.701
    12.0,-0.000049,-0.000036,100,-0.000530,-0.000049,  80.705
    12.2,-0.000041,-0.000036,100,-0.000456,-0.000036,  80.695
    12.4,-0.000042,-0.000038,100,-0.000379,-0.000049,  80.695
    12.6,-0.000032,-0.000031,100,-0.000305,-0.000049,  80.699
    12.8,-0.000030,-0.000028,100,-0.000254,-0.000072,  80.696
    13.0,-0.000031,-0.000026,100,-0.000218,-0.000036,  80.693
    13.2,-0.000021,-0.000018,100,-0.000202,-0.000049,  80.696
    13.4,-0.000021,-0.000016,100,-0.000161,-0.000085,  80.694
    13.6,-0.000028,-0.000012,100,-0.000110,-0.000049,  80.690
    13.8,-0.000028,-0.000016,100,-0.000066,-0.000049,  80.687
    14.0,-0.000035,-0.000017,100,-0.000035,-0.000072,  80.689
    14.2,-0.000047,-0.000021,100,-0.000006,-0.000036,  80.685
    14.4,-0.000048,-0.000029,100,0.000007,-0.000036,  80.680
    14.6,-0.000058,-0.000033,100,0.000012,-0.000058,  80.674
    14.8,-0.000068,-0.000037,100,0.000011,-0.000009,  80.676
    15.0,-0.000069,-0.000042,100,0.000003,-0.000009,  80.669
    15.2,-0.000076,-0.000043,100,-0.000028,-0.000045,  80.660
    15.4,-0.000084,-0.000044,100,-0.000071,-0.000009,  80.656
    15.6,-0.000081,-0.000049,100,-0.000128,-0.000022,  80.655
    15.8,-0.000083,-0.000052,100,-0.000127,-0.000072,  80.645
    16.0,-0.000082,-0.000055,100,-0.000102,-0.000036,  80.642
    16.2,-0.000072,-0.000054,100,-0.000055,-0.000063,  80.640
    16.4,-0.000065,-0.000053,100,-0.000351,-0.000099,  80.634
    16.6,-0.000061,-0.000050,100,-0.000801,-0.000076,  80.633
    16.8,-0.000051,-0.000044,100,-0.001413,-0.000076,  80.630
    17.0,-0.000044,-0.000036,100,-0.001449,-0.000099,  80.623
    17.2,-0.000039,-0.000029,100,-0.001282,-0.000076,  80.619
    17.4,-0.000030,-0.000027,100,-0.000915,-0.000076,  80.611
    17.6,-0.000028,-0.000024,100,-0.000756,-0.000099,  80.605
    17.8,-0.000023,-0.000019,100,-0.000602,-0.000063,  80.595
    18.0,-0.000023,-0.000014,100,-0.000449,-0.000049,  80.586
    18.2,-0.000020,-0.000010,100,-0.000454,-0.000072,  80.571
    18.4,-0.000027,-0.000012,100,-0.000538,-0.000022,  80.562
    18.6,-0.000037,-0.000014,100,-0.000700,-0.000022,  80.555
    18.8,-0.000041,-0.000021,100,-0.000650,-0.000045,  80.545
    19.0,-0.000045,-0.000028,100,-0.000534,0.000005,  80.531
    19.2,-0.000055,-0.000029,100,-0.000353,-0.000009,  80.522
    19.4,-0.000058,-0.000033,100,-0.000256,-0.000045,  80.515
    19.6,-0.000060,-0.000038,100,-0.000180,-0.000022,  80.511
    19.8,-0.000066,-0.000034,100,-0.000109,-0.000036,  80.507
    20.0,-0.000062,-0.000033,100,-0.000058,-0.000085,  80.503
    20.2,-0.000057,-0.000035,100,-0.000038,-0.000049,  80.498
    20.4,-0.000055,-0.000029,100,-0.000033,-0.000049,  80.491
    20.6,-0.000041,-0.000028,100,-0.000023,-0.000099,  80.495
    20.8,-0.000026,-0.000026,100,-0.000021,-0.000063,  80.501
    21.0,-0.000022,-0.000019,100,-0.000025,-0.000063,  80.503
    21.2,-0.000012,-0.000014,100,-0.000036,-0.000063,  80.504
    21.4,-0.000007,-0.000017,100,-0.000031,-0.000063,  80.503
    21.6,-0.000006,-0.000012,100,-0.000020,-0.000063,  80.498
    21.8,-0.000000,-0.000008,100,-0.000010,-0.000063,  80.495
    22.0,-0.000000,-0.000010,100,-0.000032,-0.000085,  80.498
    22.2,-0.000006,-0.000007,100,-0.000080,-0.000049,  80.500
    22.4,-0.000003,-0.000004,100,-0.000149,-0.000036,  80.498
    22.6,-0.000010,-0.000005,100,-0.000118,-0.000058,  80.498
    22.8,-0.000020,-0.000013,100,-0.000045,-0.000009,  80.495
    23.0,-0.000019,-0.000016,100,0.000068,-0.000009,  80.494
    23.2,-0.000023,-0.000018,100,0.000110,-0.000045,  80.490
    23.4,-0.000034,-0.000024,100,0.000136,-0.000009,  80.487
    23.6,-0.000030,-0.000028,100,0.000159,-0.000009,  80.485
    23.8,-0.000035,-0.000029,100,0.000158,-0.000045,  80.486
    24.0,-0.000041,-0.000031,100,0.000131,-0.000022,  80.478
    24.2,-0.000033,-0.000031,100,0.000093,-0.000036,  80.482
    24.4,-0.000035,-0.000029,100,-0.000020,-0.000085,  80.477
    24.6,-0.000036,-0.000029,100,-0.000193,-0.000049,  80.475
    24.8,-0.000029,-0.000029,100,-0.000412,-0.000049,  80.473
    25.0,-0.000024,-0.000024,100,-0.000698,-0.000063,  80.480
    25.2,-0.000025,-0.000019,100,-0.001049,-0.000063,  80.479
    25.4,-0.000018,-0.000020,100,-0.001457,-0.000027,  80.484
    25.6,-0.000016,-0.000019,100,-0.001761,-0.000049,  80.484
    25.8,-0.000017,-0.000021,100,-0.002035,-0.000049,  80.480
    26.0,-0.000009,-0.000014,100,-0.002281,-0.000049,  80.483
    26.2,-0.000001,-0.000008,100,-0.002102,-0.000072,  80.481
    26.4,0.000004,-0.000010,100,-0.001700,-0.000022,  80.483
    26.6,0.000002,-0.000011,100,-0.001058,-0.000022,  80.482
    26.8,-0.000000,-0.000014,100,-0.000762,-0.000045,  80.482
    27.0,-0.000007,-0.000017,100,-0.000523,0.000005,  80.483
    27.2,-0.000010,-0.000017,100,-0.000349,-0.000009,  80.480
    27.4,-0.000013,-0.000025,100,-0.000212,-0.000045,  80.481
    27.6,-0.000028,-0.000029,100,-0.000117,-0.000009,  80.479
    27.8,-0.000038,-0.000035,100,-0.000083,-0.000009,  80.478
    28.0,-0.000040,-0.000038,100,-0.000007,-0.000045,  80.480
    28.2,-0.000047,-0.000043,100,0.000064,-0.000009,  80.479
    28.4,-0.000047,-0.000045,100,0.000125,-0.000022,  80.481
    28.6,-0.000051,-0.000042,100,0.000173,-0.000058,  80.482
    28.8,-0.000048,-0.000043,100,0.000218,-0.000022,  80.482
    29.0,-0.000049,-0.000042,100,0.000245,-0.000036,  80.487
    29.2,-0.000042,-0.000037,100,0.000276,-0.000085,  80.494
    29.4,-0.000035,-0.000038,100,0.000303,-0.000049,  80.503
    29.6,-0.000034,-0.000033,100,0.000316,-0.000049,  80.507
    29.8,-0.000021,-0.000031,100,0.000328,-0.000049,  80.510
    30.0,-0.000016,-0.000027,100,0.000324,-0.000049,  80.507
    30.2,-0.000017,-0.000027,100,0.000313,-0.000036,  80.518
    30.4,-0.000015,-0.000024,100,0.000292,-0.000049,  80.516
    30.6,-0.000013,-0.000025,100,0.000298,-0.000072,  80.511
    30.8,-0.000021,-0.000025,100,0.000312,-0.000036,  80.516
    31.0,-0.000032,-0.000030,100,0.000336,-0.000036,  80.523
    31.2,-0.000038,-0.000034,100,0.000336,-0.000058,  80.526
    31.4,-0.000048,-0.000041,100,0.000324,-0.000009,  80.522
    31.6,-0.000058,-0.000044,100,0.000308,-0.000022,  80.525
    31.8,-0.000059,-0.000047,100,0.000317,-0.000058,  80.525
    32.0,-0.000069,-0.000053,100,0.000332,-0.000009,  80.522
    32.2,-0.000071,-0.000054,100,0.000356,-0.000022,  80.527
    32.4,-0.000072,-0.000058,100,0.000365,-0.000072,  80.525
    32.6,-0.000078,-0.000061,100,0.000361,-0.000036,  80.530
    32.8,-0.000072,-0.000058,100,0.000355,-0.000063,  80.529
    33.0,-0.000072,-0.000059,100,0.000380,-0.000063,  80.531
    33.2,-0.000071,-0.000057,100,0.000402,-0.000076,  80.532
    33.4,-0.000058,-0.000054,100,0.000439,-0.000054,  80.538
    33.6,-0.000051,-0.000047,100,0.000429,-0.000040,  80.542
    33.8,-0.000048,-0.000043,100,0.000402,-0.000090,  80.547
    34.0,-0.000038,-0.000038,100,0.000346,-0.000067,  80.547
    34.2,-0.000031,-0.000033,100,0.000044,-0.000054,  80.551
    34.4,-0.000030,-0.000029,100,-0.000396,-0.000090,  80.552
    34.6,-0.000025,-0.000021,100,-0.000964,-0.000054,  80.549
    34.8,-0.000020,-0.000013,100,-0.000969,-0.000040,  80.550
    35.0,-0.000017,-0.000017,100,-0.000761,-0.000063,  80.548
    35.2,-0.000025,-0.000014,100,-0.000333,-0.000027,  80.550
    35.4,-0.000022,-0.000014,100,-0.000180,0.000000,  80.547
    35.6,-0.000029,-0.000017,100,-0.000047,-0.000022,  80.545
    35.8,-0.000028,-0.000021,100,0.000059,0.000013,  80.545
    36.0,-0.000030,-0.000024,100,0.000156,0.000013,  80.538
    36.2,-0.000033,-0.000026,100,0.000237,-0.000022,  80.542
    36.4,-0.000041,-0.000026,100,0.000308,-0.000013,  80.537
    36.6,-0.000041,-0.000031,100,0.000365,-0.000027,  80.538
    36.8,-0.000044,-0.000038,100,0.000406,-0.000063,  80.537
    37.0,-0.000048,-0.000032,100,0.000431,-0.000013,  80.534
    37.2,-0.000042,-0.000033,100,0.000462,-0.000013,  80.539
    37.4,-0.000042,-0.000039,100,0.000488,-0.000049,  80.530
    37.6,-0.000041,-0.000033,100,0.000503,-0.000013,  80.529
    37.8,-0.000026,-0.000033,100,0.000499,-0.000013,  80.529
    38.0,-0.000019,-0.000028,100,0.000482,-0.000049,  80.533
    38.2,-0.000017,-0.000019,100,0.000455,-0.000027,  80.529
    38.4,-0.000005,-0.000008,100,0.000465,0.000000,  80.524
    38.6,-0.000000,-0.000003,100,0.000487,-0.000036,  80.522
    38.8,0.000002,-0.000000,100,0.000537,0.000000,  80.514
    39.0,0.000004,0.000002,100,0.000585,0.000013,  80.506
    39.2,0.000010,-0.000002,100,0.000451,0.000027,  80.500
    39.4,0.000002,0.000001,100,0.000249,0.000013,  80.481
    39.6,-0.000003,-0.000006,100,-0.000021,0.000013,  80.479
    39.8,-0.000010,-0.000012,100,-0.000011,0.000040,  80.461
    40.0,-0.000014,-0.000014,100,0.000109,0.000005,  80.403
    40.2,-0.000019,-0.000020,100,0.000329,0.000027,  80.389
    40.4,-0.000020,-0.000023,100,0.000411,-0.000009,  80.359
    40.6,-0.000023,-0.000025,100,0.000482,-0.000009,  80.350
    40.8,-0.000030,-0.000028,100,0.000533,-0.000009,  80.335
    41.0,-0.000030,-0.000031,100,0.000580,-0.000045,  80.328
    41.2,-0.000030,-0.000031,100,0.000624,-0.000009,  80.320
    41.4,-0.000033,-0.000035,100,0.000649,-0.000022,  80.310
    41.6,-0.000030,-0.000035,100,0.000614,-0.000058,  80.303
    41.8,-0.000025,-0.000031,100,0.000554,-0.000022,  80.291
    42.0,-0.000021,-0.000029,100,0.000449,-0.000036,  80.296
    42.2,-0.000009,-0.000032,100,0.000444,-0.000072,  80.307
    42.4,-0.000004,-0.000033,100,0.000472,-0.000036,  80.315
    42.6,-0.000005,-0.000028,100,0.000530,-0.000036,  80.317
    42.8,0.000003,-0.000019,100,0.000377,-0.000072,  80.311
    43.0,0.000003,-0.000017,100,0.000132,-0.000022,  80.309
    43.2,-0.000003,-0.000014,100,-0.000197,-0.000009,  80.303
    43.4,0.000003,-0.000011,100,-0.000487,-0.000045,  80.304
    43.6,-0.000002,-0.000011,100,-0.000805,-0.000009,  80.301
    43.8,-0.000014,-0.000013,100,-0.001152,-0.000009,  80.300
    44.0,-0.000018,-0.000013,100,-0.001054,-0.000045,  80.291
    44.2,-0.000025,-0.000017,100,-0.000747,0.000005,  80.297
    44.4,-0.000037,-0.000024,100,-0.000230,0.000005,  80.297
    44.6,-0.000041,-0.000033,100,-0.000050,-0.000031,  80.293
    44.8,-0.000046,-0.000042,100,0.000065,0.000005,  80.289
    45.0,-0.000046,-0.000044,100,0.000115,-0.000009,  80.295
    45.2,-0.000056,-0.000048,100,0.000224,-0.000045,  80.303
    45.4,-0.000050,-0.000059,100,0.000328,-0.000009,  80.310
    45.6,-0.000056,-0.000060,100,0.000428,-0.000022,  80.310
    45.8,-0.000054,-0.000060,100,0.000486,-0.000072,  80.312
    46.0,-0.000048,-0.000063,100,0.000523,-0.000036,  80.315
    46.2,-0.000041,-0.000064,100,0.000544,-0.000049,  80.329
    46.4,-0.000042,-0.000056,100,0.000559,-0.000063,  80.336
    46.6,-0.000027,-0.000049,100,0.000564,-0.000076,  80.345
    46.8,-0.000026,-0.000045,100,0.000553,-0.000040,  80.349
    47.0,-0.000019,-0.000037,100,0.000373,-0.000027,  80.342
    47.2,-0.000014,-0.000032,100,0.000095,-0.000063,  80.356
    47.4,-0.000012,-0.000028,100,-0.000284,-0.000027,  80.362
    47.6,-0.000010,-0.000031,100,-0.000295,-0.000013,  80.362
    47.8,-0.000009,-0.000037,100,-0.000169,-0.000049,  80.367
    48.0,-0.000011,-0.000034,100,0.000094,-0.000013,  80.371
    48.2,-0.000019,-0.000034,100,0.000169,0.000000,  80.378
    48.4,-0.000018,-0.000037,100,0.000209,-0.000036,  80.380
    48.6,-0.000023,-0.000041,100,0.000223,0.000000,  80.376
    48.8,-0.000030,-0.000041,100,0.000211,0.000000,  80.379
    49.0,-0.000030,-0.000041,100,0.000289,0.000000,  80.376
    49.2,-0.000030,-0.000039,100,0.000396,0.000000,  80.385
    49.4,-0.000035,-0.000040,100,0.000510,0.000000,  80.392
    49.6,-0.000034,-0.000042,100,0.000574,0.000013,  80.392
    49.8,-0.000032,-0.000039,100,0.000635,-0.000049,  80.396
    50.0,-0.000035,-0.000039,100,0.000681,-0.000027,  80.401
    50.2,-0.000027,-0.000039,100,0.000698,-0.000027,  80.409
    50.4,-0.000023,-0.000037,100,0.000699,-0.000063,  80.422
    50.6,-0.000023,-0.000033,100,0.000687,-0.000027,  80.427
    50.8,-0.000011,-0.000032,100,0.000681,-0.000013,  80.438
    51.0,-0.000006,-0.000026,100,0.000670,-0.000063,  80.443
    51.2,-0.000010,-0.000023,100,0.000644,-0.000040,  80.442
    51.4,-0.000002,-0.000022,100,0.000670,-0.000027,  80.440
    51.6,0.000001,-0.000022,100,0.000707,-0.000063,  80.462
    51.8,-0.000007,-0.000022,100,0.000762,-0.000013,  80.493
    52.0,-0.000002,-0.000023,100,0.000766,0.000000,  80.515
    52.2,-0.000004,-0.000027,100,0.000738,-0.000036,  80.589
    52.4,-0.000011,-0.000030,100,0.000690,0.000000,  80.609
    52.6,-0.000015,-0.000032,100,0.000721,0.000013,  80.624
    52.8,-0.000012,-0.000026,100,0.000778,-0.000009,  80.638
    53.0,-0.000016,-0.000015,100,0.000867,0.000013,  80.651
    53.2,-0.000011,-0.000000,100,0.001009,0.000013,  80.670
    53.4,-0.000002,0.000013,100,0.001191,-0.000022,  80.682
    53.6,0.000010,0.000031,100,0.001425,0.000000,  80.697
    53.8,0.000021,0.000057,100,0.001611,-0.000013,  80.710
    54.0,0.000039,0.000076,100,0.001790,-0.000063,  80.722
    54.2,0.000052,0.000098,100,0.001965,-0.000040,  80.732
    54.4,0.000079,0.000124,100,0.002012,-0.000040,  80.740
    54.6,0.000104,0.000144,100,0.001995,-0.000090,  80.726
    54.8,0.000122,0.000171,100,0.001911,-0.000054,  80.673
    55.0,0.000151,0.000193,100,0.002031,-0.000040,  80.624
    55.2,0.000169,0.000220,100,0.002228,-0.000063,  80.595
    55.4,0.000199,0.000243,100,0.002497,-0.000013,  80.573
    55.6,0.000248,0.000276,100,0.002492,0.000000,  80.570
    55.8,0.000297,0.000261,100,0.002385,-0.000009,  80.560
    56.0,0.000238,0.000221,100,0.002173,0.000040,  80.557
    56.2,0.000141,0.000165,100,0.002114,0.000067,  80.554
    56.4,-0.000007,0.000080,100,0.002077,0.000058,  80.548
    56.6,-0.000099,-0.000025,100,0.002064,0.000094,  80.550
    56.8,-0.000172,-0.000148,100,0.001984,0.000148,  80.550
    57.0,-0.000244,-0.000202,100,0.001888,0.000153,  80.546
    57.2,-0.000282,-0.000232,100,0.001765,0.000243,  80.548
    57.4,-0.000288,-0.000235,100,0.001625,0.000216,  80.549
    57.6,-0.000281,-0.000249,100,0.001521,0.000162,  80.548
    57.8,-0.000281,-0.000249,100,0.001407,0.000054,  80.549
    58.0,-0.000274,-0.000240,100,0.001299,-0.000094,  80.550
    58.2,-0.000259,-0.000238,100,0.001214,-0.000135,  80.554
    58.4,-0.000245,-0.000229,100,0.001143,-0.000211,  80.554
    58.6,-0.000237,-0.000213,100,0.001085,-0.000202,  80.560
    58.8,-0.000215,-0.000205,100,0.001039,-0.000216,  80.564
    59.0,-0.000197,-0.000201,100,0.000998,-0.000238,  80.563
    59.2,-0.000184,-0.000195,100,0.000966,-0.000202,  80.567
    59.4,-0.000160,-0.000187,100,0.000947,-0.000189,  80.574
    59.6,-0.000127,-0.000157,100,0.000923,-0.000211,  80.579
    59.8,-0.000095,-0.000108,100,0.000910,-0.000175,  80.579
    60.0,-0.000048,-0.000050,100,0.000930,-0.000148,  80.579
    60.2,-0.000018,-0.000014,100,0.000980,-0.000171,  80.586
    60.4,0.000002,0.000011,100,0.001040,-0.000121,  80.586
    60.6,0.000029,0.000039,100,0.001080,-0.000094,  80.597
    60.8,0.000042,0.000052,100,0.001125,-0.000103,  80.584
    61.0,0.000052,0.000051,100,0.001168,-0.000054,  80.581
    61.2,0.000055,0.000040,100,0.000854,-0.000027,  80.589
    61.4,0.000055,0.000045,100,0.000356,-0.000049,  80.590
    61.6,0.000055,0.000053,100,-0.000317,0.000000,  80.596
    61.8,0.000048,0.000060,100,-0.000673,0.000013,  80.601
    62.0,0.000050,0.000054,100,-0.000959,0.000005,  80.596
    62.2,0.000053,0.000046,100,-0.001178,0.000040,  80.605
    62.4,0.000055,0.000037,100,-0.001086,0.000005,  80.603
    62.6,0.000057,0.000037,100,-0.000798,0.000018,  80.600
    62.8,0.000062,0.000041,100,-0.000330,0.000005,  80.604
    63.0,0.000062,0.000054,100,-0.000073,-0.000031,  80.605
    63.2,0.000064,0.000055,100,0.000177,0.000005,  80.609
    63.4,0.000069,0.000052,100,0.000408,-0.000009,  80.614
    63.6,0.000078,0.000041,100,0.000564,-0.000045,  80.614
    63.8,0.000087,0.000032,100,0.000678,0.000005,  80.628
    64.0,0.000090,0.000031,100,0.000751,0.000005,  80.627
    64.2,0.000085,0.000029,100,0.000839,-0.000031,  80.626
    64.4,0.000076,0.000029,100,0.000911,0.000018,  80.632
    64.6,0.000074,0.000040,100,0.000971,0.000005,  80.631
    64.8,0.000074,0.000048,100,0.001012,-0.000018,  80.633
    65.0,0.000069,0.000040,100,0.001027,0.000018,  80.634
    65.2,0.000062,0.000033,100,0.001038,0.000018,  80.631
    65.4,0.000045,0.000019,100,0.001041,-0.000004,  80.630
    65.6,0.000031,0.000012,100,0.001015,0.000032,  80.631
    65.8,0.000024,0.000008,100,0.000982,0.000032,  80.628
    66.0,0.000009,0.000018,100,0.000997,-0.000004,  80.632
    66.2,0.000005,0.000013,100,0.001043,0.000032,  80.628
    66.4,-0.000002,0.000005,100,0.001100,0.000005,  80.628
    66.6,-0.000004,-0.000002,100,0.001182,-0.000009,  80.628
    66.8,-0.000003,-0.000006,100,0.001197,-0.000022,  80.626
    67.0,-0.000003,-0.000003,100,0.001181,0.000013,  80.626
    67.2,-0.000001,-0.000007,100,0.001150,0.000000,  80.625
    67.4,0.000002,-0.000006,100,0.001145,0.000000,  80.620
    67.6,0.000006,0.000003,100,0.001142,-0.000049,  80.624
    67.8,0.000013,0.000014,100,0.001142,-0.000013,  80.632
    68.0,0.000018,0.000020,100,0.001126,-0.000027,  80.634
    68.2,0.000022,0.000021,100,0.001111,-0.000063,  80.639
    68.4,0.000027,0.000024,100,0.001084,-0.000013,  80.642
    68.6,0.000027,0.000019,100,0.001089,0.000000,  80.638
    68.8,0.000029,0.000017,100,0.001100,-0.000022,  80.640
    69.0,0.000027,0.000015,100,0.001121,0.000013,  80.642
    69.2,0.000022,0.000016,100,0.001152,0.000040,  80.639
    69.4,0.000020,0.000012,100,0.001188,0.000018,  80.648
    69.6,0.000013,0.000007,100,0.001234,0.000054,  80.640
    69.8,0.000004,0.000002,100,0.001259,0.000067,  80.637
    70.0,-0.000001,-0.000003,100,0.001275,0.000032,  80.636
    70.2,-0.000008,-0.000010,100,0.001284,0.000067,  80.635
    70.4,-0.000015,-0.000019,100,0.000905,0.000067,  80.629
    70.6,-0.000017,-0.000019,100,0.000327,0.000032,  80.627
    70.8,-0.000019,-0.000024,100,-0.000434,0.000040,  80.633
    71.0,-0.000024,-0.000028,100,-0.000485,0.000040,  80.626
    71.2,-0.000024,-0.000027,100,-0.000290,0.000005,  80.633
    71.4,-0.000022,-0.000032,100,0.000166,0.000013,  80.632
    71.6,-0.000027,-0.000032,100,0.000334,0.000013,  80.633
    71.8,-0.000025,-0.000032,100,0.000469,-0.000009,  80.633
    72.0,-0.000026,-0.000036,100,0.000587,0.000013,  80.635
    72.2,-0.000023,-0.000031,100,0.000711,-0.000022,  80.643
    72.4,-0.000013,-0.000029,100,0.000816,-0.000022,  80.646
    72.6,-0.000009,-0.000029,100,0.000915,-0.000036,  80.646
    72.8,-0.000007,-0.000024,100,0.000824,-0.000049,  80.641
    73.0,0.000003,-0.000022,100,0.000644,-0.000063,  80.646
    73.2,0.000003,-0.000019,100,0.000360,-0.000040,  80.644
    73.4,-0.000003,-0.000020,100,0.000401,-0.000027,  80.648
    73.6,0.000001,-0.000019,100,0.000564,-0.000063,  80.647
    73.8,0.000001,-0.000020,100,0.000835,0.000000,  80.645
    74.0,-0.000004,-0.000022,100,0.000947,0.000013,  80.644
    74.2,-0.000005,-0.000028,100,0.001029,-0.000009,  80.644
    74.4,-0.000008,-0.000031,100,0.001084,0.000013,  80.643
    74.6,-0.000010,-0.000034,100,0.001111,0.000013,  80.642
    74.8,-0.000015,-0.000033,100,0.001172,0.000013,  80.641
    75.0,-0.000015,-0.000034,100,0.001218,0.000013,  80.642
    75.2,-0.000020,-0.000037,100,0.001265,0.000000,  80.643
    75.4,-0.000020,-0.000034,100,0.001275,0.000000,  80.649
    75.6,-0.000016,-0.000033,100,0.001259,-0.000049,  80.648
    75.8,-0.000019,-0.000031,100,0.001226,0.000000,  80.646
    76.0,-0.000011,-0.000028,100,0.001200,-0.000013,  80.654
    76.2,-0.000004,-0.000030,100,0.001172,-0.000049,  80.653
    76.4,-0.000005,-0.000026,100,0.001126,-0.000013,  80.655
    76.6,0.000005,-0.000024,100,0.001121,-0.000049,  80.662
    76.8,0.000010,-0.000022,100,0.001140,-0.000049,  80.671
    77.0,0.000009,-0.000015,100,0.001166,-0.000036,  80.671
    77.2,0.000019,-0.000013,100,0.001197,-0.000058,  80.668
    77.4,0.000022,-0.000012,100,0.001234,-0.000009,  80.676
    77.6,0.000011,-0.000010,100,0.001277,-0.000009,  80.678
    77.8,0.000015,-0.000010,100,0.001292,-0.000045,  80.676
    78.0,0.000012,-0.000008,100,0.001286,-0.000009,  80.678
    78.2,0.000003,-0.000015,100,0.001272,-0.000009,  80.677
    78.4,-0.000001,-0.000017,100,0.001283,-0.000009,  80.677
    78.6,-0.000005,-0.000023,100,0.001308,-0.000009,  80.679
    78.8,-0.000012,-0.000028,100,0.001338,0.000027,  80.681
    79.0,-0.000019,-0.000026,100,0.001354,0.000027,  80.676
    79.2,-0.000022,-0.000030,100,0.001379,-0.000022,  80.680
    79.4,-0.000022,-0.000032,100,0.001394,0.000000,  80.680
    79.6,-0.000025,-0.000033,100,0.001395,0.000000,  80.684
    79.8,-0.000023,-0.000035,100,0.001387,-0.000036,  80.680
    80.0,-0.000026,-0.000038,100,0.001371,0.000000,  80.683
    80.2,-0.000021,-0.000037,100,0.001366,0.000000,  80.688
    80.4,-0.000016,-0.000034,100,0.001358,-0.000036,  80.693
    80.6,-0.000011,-0.000038,100,0.001357,0.000000,  80.697
    80.8,-0.000012,-0.000033,100,0.001346,-0.000013,  80.695
    81.0,-0.000004,-0.000034,100,0.001321,-0.000049,  80.700
    81.2,0.000001,-0.000027,100,0.001293,-0.000027,  80.699
    81.4,-0.000003,-0.000024,100,0.001287,-0.000013,  80.705
    81.6,0.000005,-0.000024,100,0.001283,-0.000036,  80.701
    81.8,0.000005,-0.000023,100,0.001286,0.000013,  80.701
    82.0,-0.000000,-0.000018,100,0.001121,0.000027,  80.703
    82.2,0.000001,-0.000018,100,0.000874,0.000005,  80.710
    82.4,-0.000002,-0.000023,100,0.000542,0.000013,  80.712
    82.6,-0.000010,-0.000024,100,0.000505,0.000013,  80.712
    82.8,-0.000009,-0.000025,100,0.000562,-0.000009,  80.708
    83.0,-0.000009,-0.000028,100,0.000732,0.000027,  80.709
    83.2,-0.000016,-0.000027,100,0.001000,0.000027,  80.714
    83.4,-0.000016,-0.000026,100,0.001076,0.000027,  80.712
    83.6,-0.000016,-0.000022,100,0.001131,0.000013,  80.715
    83.8,-0.000021,-0.000022,100,0.001176,0.000013,  80.720
    84.0,-0.000016,-0.000021,100,0.001237,0.000013,  80.717
    84.2,-0.000013,-0.000019,100,0.001288,-0.000022,  80.729
    84.4,-0.000014,-0.000018,100,0.001346,0.000013,  80.734
    84.6,-0.000004,-0.000014,100,0.001377,0.000000,  80.735
    84.8,0.000001,-0.000010,100,0.001383,-0.000036,  80.740
    85.0,0.000002,-0.000008,100,0.001385,-0.000027,  80.746
    85.2,0.000012,-0.000006,100,0.001406,-0.000027,  80.747
    85.4,0.000017,-0.000005,100,0.001427,-0.000063,  80.749
    85.6,0.000016,-0.000001,100,0.001449,-0.000013,  80.752
    85.8,0.000022,0.000000,100,0.001428,0.000000,  80.760
    86.0,0.000022,-0.000001,100,0.001399,-0.000022,  80.761
    86.2,0.000014,-0.000001,100,0.001336,0.000013,  80.759
    86.4,0.000012,0.000001,100,0.001346,0.000027,  80.761
    86.6,0.000010,-0.000001,100,0.001373,0.000005,  80.764
    86.8,0.000005,-0.000004,100,0.001429,0.000013,  80.767
    87.0,0.000002,-0.000010,100,0.001401,0.000013,  80.766
    87.2,-0.000003,-0.000017,100,0.001338,-0.000009,  80.773
    87.4,-0.000008,-0.000017,100,0.001246,0.000013,  80.776
    87.6,-0.000012,-0.000020,100,0.001281,0.000013,  80.779
    87.8,-0.000015,-0.000025,100,0.001349,-0.000009,  80.784
    88.0,-0.000017,-0.000028,100,0.001464,0.000013,  80.790
    88.2,-0.000017,-0.000029,100,0.001512,0.000000,  80.787
    88.4,-0.000017,-0.000032,100,0.001554,-0.000036,  80.790
    88.6,-0.000007,-0.000032,100,0.001575,-0.000013,  80.791
    88.8,-0.000008,-0.000031,100,0.001573,-0.000027,  80.794
    89.0,0.000002,-0.000032,100,0.001570,-0.000063,  80.800
    89.2,0.000004,-0.000024,100,0.001543,-0.000027,  80.806
    89.4,0.000011,-0.000022,100,0.001529,-0.000013,  80.808
    89.6,0.000021,-0.000023,100,0.001517,-0.000049,  80.809
    89.8,0.000026,-0.000014,100,0.001500,-0.000013,  80.809
    90.0,0.000022,-0.000010,100,0.001494,0.000000,  80.810
    90.2,0.000022,-0.000012,100,0.001485,-0.000022,  80.813
    90.4,0.000020,-0.000009,100,0.001480,0.000027,  80.817
    90.6,0.000011,-0.000012,100,0.001483,0.000040,  80.821
    90.8,0.000005,-0.000019,100,0.001488,0.000005,  80.827
    91.0,0.000000,-0.000025,100,0.001503,0.000027,  80.828
    91.2,-0.000012,-0.000030,100,0.001528,0.000027,  80.822
    91.4,-0.000014,-0.000037,100,0.001560,-0.000009,  80.824
    91.6,-0.000019,-0.000040,100,0.001607,0.000013,  80.828
    91.8,-0.000029,-0.000040,100,0.001663,0.000000,  80.831
    92.0,-0.000036,-0.000049,100,0.001648,0.000013,  80.835
    92.2,-0.000038,-0.000054,100,0.001606,-0.000013,  80.838
    92.4,-0.000040,-0.000059,100,0.001538,-0.000027,  80.839
    92.6,-0.000045,-0.000064,100,0.001549,-0.000027,  80.843
    92.8,-0.000040,-0.000060,100,0.001582,-0.000076,  80.838
    93.0,-0.000036,-0.000058,100,0.001640,-0.000027,  80.844
    93.2,-0.000031,-0.000056,100,0.001477,-0.000013,  80.850
    93.4,-0.000026,-0.000052,100,0.001220,-0.000063,  80.901
    93.6,-0.000019,-0.000044,100,0.000863,-0.000040,  80.904
    93.8,-0.000012,-0.000040,100,0.000853,-0.000027,  80.906
    94.0,-0.000010,-0.000038,100,0.000961,-0.000076,  80.911
    94.2,-0.000008,-0.000032,100,0.001198,-0.000040,  80.916
    94.4,-0.000008,-0.000028,100,0.001286,-0.000013,  80.920
    94.6,-0.000012,-0.000032,100,0.001361,-0.000049,  80.919
    94.8,-0.000019,-0.000030,100,0.001422,0.000000,  80.925
    95.0,-0.000033,-0.000034,100,0.001468,0.000013,  80.928
    95.2,-0.000043,-0.000042,100,0.001492,0.000005,  80.923
    95.4,-0.000052,-0.000045,100,0.001492,0.000040,  80.926
    95.6,-0.000059,-0.000057,100,0.001481,0.000040,  80.925
    95.8,-0.000061,-0.000066,100,0.001458,0.000005,  80.929
    96.0,-0.000068,-0.000067,100,0.001405,0.000027,  80.927
    96.2,-0.000073,-0.000070,100,0.001410,0.000013,  80.932
    96.4,-0.000075,-0.000078,100,0.001424,-0.000036,  80.930
    96.6,-0.000075,-0.000080,100,0.001451,-0.000027,  80.937
    96.8,-0.000077,-0.000081,100,0.001478,-0.000027,  80.935
    97.0,-0.000075,-0.000082,100,0.001520,-0.000076,  80.940
    97.2,-0.000066,-0.000080,100,0.001558,-0.000054,  80.932
    97.4,-0.000061,-0.000074,100,0.001570,-0.000040,  80.937
    97.6,-0.000052,-0.000071,100,0.001572,-0.000090,  80.938
    97.8,-0.000045,-0.000068,100,0.001566,-0.000067,  80.936
    98.0,-0.000040,-0.000066,100,0.001530,-0.000054,  80.940
    98.2,-0.000031,-0.000060,100,0.001469,-0.000090,  80.941
    98.4,-0.000026,-0.000051,100,0.001390,-0.000054,  80.942
    98.6,-0.000022,-0.000043,100,0.001276,-0.000040,  80.940
    98.8,-0.000019,-0.000041,100,0.001128,-0.000063,  80.938
    99.0,-0.000022,-0.000044,100,0.000947,-0.000013,  80.938
    99.2,-0.000026,-0.000048,100,0.000778,-0.000013,  80.931
    99.4,-0.000036,-0.000049,100,0.000592,-0.000049,  80.928
    99.6,-0.000036,-0.000056,100,0.000386,-0.000013,  80.929
    99.8,-0.000046,-0.000063,100,0.000438,-0.000013,  80.923
   100.0,-0.000048,-0.000068,100,0.000610,-0.000049,  80.921
   100.2,-0.000048,-0.000068,100,0.000901,-0.000013,  80.917
   100.4,-0.000058,-0.000067,100,0.001009,-0.000049,  80.914
   100.6,-0.000057,-0.000068,100,0.001087,-0.000049,  80.913
   100.8,-0.000057,-0.000070,100,0.001132,-0.000049,  80.905
   101.0,-0.000061,-0.000063,100,0.001148,-0.000049,  80.909
   101.2,-0.000053,-0.000059,100,0.001205,-0.000063,  80.906
   101.4,-0.000046,-0.000056,100,0.001266,-0.000040,  80.906
   101.6,-0.000042,-0.000049,100,0.001318,-0.000067,  80.902
   101.8,-0.000023,-0.000042,100,0.001390,-0.000054,  80.911
   102.0,-0.000011,-0.000034,100,0.001462,-0.000090,  80.907
   102.2,-0.000005,-0.000026,100,0.001535,-0.000054,  80.902
   102.4,0.000012,-0.000018,100,0.001583,-0.000040,  80.896
   102.6,0.000024,-0.000013,100,0.001628,-0.000076,  80.901
   102.8,0.000028,-0.000000,100,0.001649,-0.000040,  80.896
   103.0,0.000038,0.000009,100,0.001696,-0.000027,  80.896
   103.2,0.000045,0.000019,100,0.001750,-0.000063,  80.891
   103.4,0.000049,0.000030,100,0.001804,-0.000027,  80.894
   103.6,0.000060,0.000040,100,0.001848,0.000000,  80.894
   103.8,0.000067,0.000050,100,0.001876,-0.000022,  80.890
   104.0,0.000069,0.000053,100,0.001898,0.000027,  80.888
   104.2,0.000079,0.000056,100,0.001931,0.000040,  80.883
   104.4,0.000086,0.000066,100,0.001964,0.000005,  80.885
   104.6,0.000092,0.000076,100,0.001993,0.000027,  80.880
   104.8,0.000101,0.000089,100,0.002038,0.000027,  80.884
   105.0,0.000113,0.000097,100,0.002077,-0.000009,  80.882
   105.2,0.000125,0.000111,100,0.002122,0.000027,  80.872
   105.4,0.000136,0.000122,100,0.002130,0.000027,  80.872
   105.6,0.000146,0.000133,100,0.002120,-0.000009,  80.871
   105.8,0.000157,0.000143,100,0.002092,0.000027,  80.868
   106.0,0.000169,0.000155,100,0.002093,0.000027,  80.874
   106.2,0.000180,0.000164,100,0.002114,0.000005,  80.871
   106.4,0.000186,0.000179,100,0.002148,0.000040,  80.874
   106.6,0.000198,0.000196,100,0.002178,0.000040,  80.876
   106.8,0.000210,0.000206,100,0.002203,0.000018,  80.878
   107.0,0.000219,0.000215,100,0.002228,0.000040,  80.874
   107.2,0.000218,0.000229,100,0.002269,0.000054,  80.873
   107.4,0.000228,0.000234,100,0.002316,0.000032,  80.868
   107.6,0.000235,0.000235,100,0.002367,0.000081,  80.875
   107.8,0.000232,0.000235,100,0.002363,0.000072,  80.867
   108.0,0.000238,0.000235,100,0.002339,0.000072,  80.867
   108.2,0.000240,0.000235,100,0.002284,0.000085,  80.867
   108.4,0.000237,0.000238,100,0.002278,0.000050,  80.863
   108.6,0.000238,0.000241,100,0.002287,0.000085,  80.863
   108.8,0.000240,0.000245,100,0.002303,0.000072,  80.859
   109.0,0.000239,0.000252,100,0.002342,0.000058,  80.860
   109.2,0.000249,0.000259,100,0.002362,0.000058,  80.862
   109.4,0.000259,0.000269,100,0.002388,0.000081,  80.861
   109.6,0.000265,0.000281,100,0.002418,0.000081,  80.858
   109.8,0.000284,0.000292,100,0.002449,0.000094,  80.857
   110.0,0.000295,0.000304,100,0.002479,0.000045,  80.859
   110.2,0.000311,0.000323,100,0.002514,0.000081,  80.863
   110.4,0.000325,0.000337,100,0.002518,0.000094,  80.861
   110.6,0.000339,0.000348,100,0.002509,0.000045,  80.858
   110.8,0.000351,0.000364,100,0.002480,0.000081,  80.856
   111.0,0.000363,0.000372,100,0.002505,0.000108,  80.853
   111.2,0.000375,0.000382,100,0.002551,0.000085,  80.856
   111.4,0.000386,0.000392,100,0.002617,0.000135,  80.847
   111.6,0.000399,0.000401,100,0.002641,0.000148,  80.846
   111.8,0.000401,0.000405,100,0.002641,0.000126,  80.844
   112.0,0.000399,0.000407,100,0.002633,0.000148,  80.834
   112.2,0.000390,0.000406,100,0.002663,0.000162,  80.833
   112.4,0.000385,0.000404,100,0.002695,0.000139,  80.828
   112.6,0.000383,0.000401,100,0.002745,0.000189,  80.825
   112.8,0.000373,0.000403,100,0.002844,0.000202,  80.766
   113.0,0.000369,0.000398,100,0.002964,0.000153,  80.758
   113.2,0.000362,0.000387,100,0.003118,0.000175,  80.752
   113.4,0.000355,0.000377,100,0.003071,0.000175,  80.749
   113.6,0.000350,0.000367,100,0.002940,0.000126,  80.747
   113.8,0.000341,0.000354,100,0.002712,0.000148,  80.749
   114.0,0.000334,0.000349,100,0.002486,0.000135,  80.740
   114.2,0.000329,0.000342,100,0.002218,0.000085,  80.742
   114.4,0.000327,0.000331,100,0.001900,0.000108,  80.743
   114.6,0.000322,0.000324,100,0.001841,0.000108,  80.744
   114.8,0.000320,0.000313,100,0.001885,0.000072,  80.749
   115.0,0.000315,0.000305,100,0.002036,0.000121,  80.749
   115.2,0.000308,0.000295,100,0.002091,0.000121,  80.744
   115.4,0.000299,0.000285,100,0.002154,0.000121,  80.747
   115.6,0.000292,0.000270,100,0.002219,0.000144,  80.744
   115.8,0.000278,0.000259,100,0.002241,0.000144,  80.742
   116.0,0.000262,0.000245,100,0.002247,0.000144,  80.746
   116.2,0.000248,0.000231,100,0.002232,0.000157,  80.743
   116.4,0.000234,0.000216,100,0.002233,0.000171,  80.740
   116.6,0.000215,0.000202,100,0.002223,0.000184,  80.744
   116.8,0.000201,0.000183,100,0.002222,0.000171,  80.742
   117.0,0.000185,0.000166,100,0.002228,0.000157,  80.738
   117.2,0.000171,0.000156,100,0.002241,0.000157,  80.742
   117.4,0.000162,0.000143,100,0.002262,0.000130,  80.736
   117.6,0.000150,0.000132,100,0.002285,0.000117,  80.743
   117.8,0.000141,0.000120,100,0.002277,0.000117,  80.743
   118.0,0.000134,0.000107,100,0.002271,0.000117,  80.743
   118.2,0.000125,0.000105,100,0.002242,0.000103,  80.749
   118.4,0.000115,0.000097,100,0.002229,0.000103,  80.742
   118.6,0.000111,0.000092,100,0.002224,0.000090,  80.748
   118.8,0.000111,0.000086,100,0.002220,0.000076,  80.753
   119.0,0.000116,0.000084,100,0.002221,0.000076,  80.752
   119.2,0.000116,0.000085,100,0.002222,0.000090,  80.755
   119.4,0.000106,0.000082,100,0.002226,0.000076,  80.751
   119.6,0.000109,0.000081,100,0.002215,0.000076,  80.760
   119.8,0.000107,0.000076,100,0.002186,0.000090,  80.763
   120.0,0.000100,0.000071,100,0.002155,0.000076,  80.770
   120.2,0.000099,0.000064,100,0.002129,0.000090,  80.776
   120.4,0.000094,0.000055,100,0.002102,0.000067,  80.778
   120.6,0.000085,0.000051,100,0.002070,0.000067,  80.778
   120.8,0.000075,0.000044,100,0.002086,0.000081,  80.784
   121.0,0.000073,0.000037,100,0.002123,0.000045,  80.783
   121.2,0.000065,0.000036,100,0.002181,0.000067,  80.793
   121.4,0.000060,0.000029,100,0.002212,0.000081,  80.795
   121.6,0.000058,0.000022,100,0.002237,0.000032,  80.795
   121.8,0.000053,0.000020,100,0.002258,0.000054,  80.800
   122.0,0.000053,0.000022,100,0.002246,0.000054,  80.807
   122.2,0.000053,0.000020,100,0.002213,0.000005,  80.809
   122.4,0.000048,0.000016,100,0.002149,0.000027,  80.818
   122.6,0.000050,0.000015,100,0.002134,0.000027,  80.821
   122.8,0.000053,0.000015,100,0.002124,-0.000009,  80.826
   123.0,0.000055,0.000015,100,0.002124,0.000013,  80.828
   123.2,0.000057,0.000016,100,0.002149,0.000013,  80.884
   123.4,0.000062,0.000012,100,0.002177,-0.000009,  80.890
   123.6,0.000067,0.000017,100,0.002232,0.000013,  80.892
   123.8,0.000063,0.000018,100,0.002263,0.000013,  80.894
   124.0,0.000066,0.000017,100,0.002288,-0.000009,  80.897
   124.2,0.000066,0.000016,100,0.002314,0.000013,  80.898
   124.4,0.000061,0.000015,100,0.002349,0.000013,  80.900
   124.6,0.000062,0.000014,100,0.002379,-0.000009,  80.903
   124.8,0.000057,0.000008,100,0.002421,0.000027,  80.907
   125.0,0.000050,0.000003,100,0.002444,0.000040,  80.906
   125.2,0.000039,-0.000001,100,0.002458,0.000005,  80.909
   125.4,0.000036,-0.000002,100,0.002460,0.000054,  80.904
   125.6,0.000034,-0.000003,100,0.002230,0.000054,  80.906
   125.8,0.000032,-0.000001,100,0.001872,0.000018,  80.910
   126.0,0.000032,-0.000002,100,0.001390,0.000040,  80.913
   126.2,0.000034,-0.000003,100,0.001316,0.000005,  80.911
   126.4,0.000034,-0.000008,100,0.001396,0.000005,  80.912
   126.6,0.000036,-0.000006,100,0.001602,-0.000009,  80.916
   126.8,0.000041,-0.000002,100,0.001960,-0.000022,  80.911
   127.0,0.000051,-0.000001,100,0.002088,-0.000022,  80.915
   127.2,0.000058,0.000005,100,0.002210,-0.000036,  80.924
   127.4,0.000060,0.000010,100,0.002325,-0.000049,  80.926
   127.6,0.000074,0.000014,100,0.002456,-0.000085,  80.926
   127.8,0.000084,0.000019,100,0.002584,-0.000049,  80.928
   128.0,0.000085,0.000023,100,0.002711,-0.000036,  80.932
   128.2,0.000098,0.000027,100,0.002795,-0.000058,  80.933
   128.4,0.000102,0.000030,100,0.002852,-0.000009,  80.931
   128.6,0.000097,0.000032,100,0.002874,-0.000022,  80.938
   128.8,0.000100,0.000032,100,0.002958,-0.000058,  80.932
   129.0,0.000100,0.000036,100,0.003061,-0.000009,  80.934
   129.2,0.000094,0.000032,100,0.003170,-0.000009,  80.937
   129.4,0.000095,0.000032,100,0.003242,-0.000009,  80.933
   129.6,0.000098,0.000034,100,0.003304,0.000013,  80.941
   129.8,0.000094,0.000032,100,0.003346,0.000036,  80.933
   130.0,0.000102,0.000032,100,0.003444,0.000036,  80.934
   130.2,0.000109,0.000030,100,0.003552,0.000000,  80.931
   130.4,0.000113,0.000035,100,0.003677,0.000000,  80.927
   130.6,0.000123,0.000042,100,0.003465,-0.000013,  80.933
   130.8,0.000132,0.000045,100,0.003097,-0.000049,  80.930
   131.0,0.000139,0.000051,100,0.002573,-0.000013,  80.928
   131.2,0.000156,0.000059,100,0.002666,-0.000027,  80.932
   131.4,0.000167,0.000065,100,0.002995,-0.000063,  80.931
   131.6,0.000173,0.000075,100,0.003551,-0.000013,  80.932
   131.8,0.000191,0.000078,100,0.003781,0.000000,  80.934
   132.0,0.000200,0.000085,100,0.003958,-0.000036,  80.933
   132.2,0.000211,0.000093,100,0.004090,0.000000,  80.925
   132.4,0.000215,0.000103,100,0.004309,0.000013,  80.926
   132.6,0.000230,0.000108,100,0.004559,-0.000009,  80.927
   132.8,0.000234,0.000117,100,0.004820,0.000027,  80.924
   133.0,0.000245,0.000124,100,0.005029,0.000027,  80.926
   133.2,0.000260,0.000131,100,0.005229,0.000005,  80.929
   133.4,0.000270,0.000136,100,0.005405,0.000040,  80.929
   133.6,0.000269,0.000142,100,0.005576,0.000054,  80.926
   133.8,0.000279,0.000149,100,0.005754,0.000018,  80.926
   134.0,0.000290,0.000155,100,0.005911,0.000054,  80.931
   134.2,0.000294,0.000157,100,0.005914,0.000054,  80.925
   134.4,0.000309,0.000162,100,0.005828,0.000005,  80.923
   134.6,0.000323,0.000175,100,0.005658,0.000013,  80.926
   134.8,0.000334,0.000176,100,0.005885,0.000013,  80.926
   135.0,0.000356,0.000179,100,0.006266,-0.000022,  80.929
   135.2,0.000374,0.000191,100,0.006795,0.000000,  80.935
   135.4,0.000392,0.000204,100,0.007081,0.000000,  80.940
   135.6,0.000421,0.000213,100,0.007333,-0.000036,  80.941
   135.8,0.000446,0.000228,100,0.007530,0.000000,  80.947
   136.0,0.000469,0.000250,100,0.007689,0.000013,  80.951
   136.2,0.000500,0.000266,100,0.008001,0.000013,  80.953
   136.4,0.000528,0.000282,100,0.008347,0.000013,  80.953
   136.6,0.000552,0.000303,100,0.008725,0.000013,  80.957
   136.8,0.000586,0.000318,100,0.009054,0.000040,  80.957
   137.0,0.000611,0.000333,100,0.009378,0.000005,  80.960
   137.2,0.000631,0.000350,100,0.009692,0.000027,  80.964
   137.4,0.000660,0.000364,100,0.010063,0.000027,  80.969
   137.6,0.000688,0.000371,100,0.010455,0.000005,  80.970
   137.8,0.000708,0.000383,100,0.010864,0.000040,  80.967
   138.0,0.000736,0.000393,100,0.011261,0.000040,  80.976
   138.2,0.000766,0.000406,100,0.011658,0.000005,  80.978
   138.4,0.000792,0.000424,100,0.012060,0.000027,  80.983
   138.6,0.000817,0.000442,100,0.012456,0.000027,  80.978
   138.8,0.000850,0.000461,100,0.012857,-0.000009,  80.989
   139.0,0.000883,0.000474,100,0.013262,0.000027,  80.991
   139.2,0.000921,0.000496,100,0.013658,0.000027,  80.992
   139.4,0.000963,0.000516,100,0.014046,-0.000009,  80.997
   139.6,0.001001,0.000537,100,0.014437,0.000027,  80.999
   139.8,0.001056,0.000569,100,0.014857,0.000027,  80.998
   140.0,0.001105,0.000599,100,0.015290,-0.000022,  81.005
   140.2,0.001143,0.000625,100,0.015742,0.000000,  81.009
   140.4,0.001198,0.000662,100,0.015924,0.000000,  81.012
   140.6,0.001249,0.000690,100,0.015972,-0.000022,  81.011
   140.8,0.001290,0.000719,100,0.015899,0.000013,  81.013
   141.0,0.001344,0.000747,100,0.016474,0.000013,  81.017
   141.2,0.001384,0.000774,100,0.017302,0.000005,  81.016
   141.4,0.001424,0.000805,100,0.018390,0.000040,  81.021
   141.6,0.001448,0.000834,100,0.019172,0.000054,  81.021
   141.8,0.001484,0.000861,100,0.019917,0.000032,  81.026
   142.0,0.001521,0.000889,100,0.020636,0.000067,  81.023
   142.2,0.001565,0.000916,100,0.021330,0.000081,  81.032
   142.4,0.001617,0.000939,100,0.021996,0.000045,  81.028
   142.6,0.001666,0.000966,100,0.022630,0.000067,  81.026
   142.8,0.001707,0.000991,100,0.023298,0.000081,  81.030
   143.0,0.001764,0.001021,100,0.023962,0.000032,  81.036
   143.2,0.001818,0.001056,100,0.024624,0.000054,  81.030
   143.4,0.001868,0.001092,100,0.025276,0.000054,  81.034
   143.6,0.001930,0.001126,100,0.025917,0.000005,  81.036
   143.8,0.001990,0.001157,100,0.026551,0.000027,  81.033
   144.0,0.002050,0.001199,100,0.027087,0.000027,  81.039
   144.2,0.002119,0.001239,100,0.027567,-0.000009,  81.034
   144.4,0.002184,0.001276,100,0.027999,0.000027,  81.039
   144.6,0.002246,0.001317,100,0.028582,0.000027,  81.045
   144.8,0.002319,0.001360,100,0.029230,0.000027,  81.043
   145.0,0.002387,0.001402,100,0.029927,0.000027,  81.048
   145.2,0.002452,0.001441,100,0.030680,0.000027,  81.045
   145.4,0.002527,0.001479,100,0.031453,0.000027,  81.048
   145.6,0.002596,0.001521,100,0.032267,-0.000009,  81.043
   145.8,0.002657,0.001564,100,0.033126,0.000040,  81.046
   146.0,0.002720,0.001600,100,0.033927,0.000040,  81.047
   146.2,0.002781,0.001637,100,0.034719,0.000018,  81.043
   146.4,0.002847,0.001675,100,0.035492,0.000040,  81.045
   146.6,0.002904,0.001703,100,0.036230,0.000040,  81.041
   146.8,0.002967,0.001734,100,0.036945,0.000018,  81.040
   147.0,0.003032,0.001757,100,0.037628,0.000040,  81.038
   147.2,0.003092,0.001787,100,0.038409,0.000040,  81.044
   147.4,0.003157,0.001825,100,0.039220,0.000005,  81.042
   147.6,0.003227,0.001865,100,0.040077,0.000013,  81.040
   147.8,0.003295,0.001908,100,0.040895,0.000013,  81.044
   148.0,0.003364,0.001953,100,0.041696,-0.000022,  81.043
   148.2,0.003436,0.001994,100,0.042501,0.000000,  81.049
   148.4,0.003516,0.002043,100,0.043307,0.000000,  81.043
   148.6,0.003595,0.002092,100,0.044114,-0.000036,  81.047
   148.8,0.003675,0.002135,100,0.044915,0.000000,  81.048
   149.0,0.003757,0.002185,100,0.045641,0.000000,  81.050
   149.2,0.003836,0.002230,100,0.046332,-0.000022,  81.043
   149.4,0.003911,0.002276,100,0.046985,0.000027,  81.045
   149.6,0.003994,0.002323,100,0.047841,0.000027,  81.047
   149.8,0.004069,0.002367,100,0.048777,0.000005,  81.043
   150.0,0.004134,0.002414,100,0.049795,0.000040,  81.045
   150.2,0.004204,0.002463,100,0.050684,0.000054,  81.048
   150.4,0.004263,0.002503,100,0.051552,0.000018,  81.047
   150.6,0.004322,0.002544,100,0.052402,0.000054,  81.042
   150.8,0.004369,0.002588,100,0.053247,0.000067,  81.038
   151.0,0.004413,0.002626,100,0.054086,0.000018,  81.035
   151.2,0.004476,0.002664,100,0.054916,0.000054,  81.040
   151.4,0.004542,0.002707,100,0.055773,0.000067,  81.033
   151.6,0.004613,0.002744,100,0.056628,0.000018,  81.029
   151.8,0.004683,0.002789,100,0.057494,0.000054,  81.026
   152.0,0.004758,0.002835,100,0.058338,0.000067,  81.023
   152.2,0.004836,0.002877,100,0.059161,0.000018,  81.026
   152.4,0.004914,0.002925,100,0.059979,0.000054,  81.020
   152.6,0.004988,0.002971,100,0.060821,0.000067,  81.016
   152.8,0.005068,0.003019,100,0.061667,0.000018,  81.021
   153.0,0.005150,0.003067,100,0.062516,0.000054,  81.023
   153.2,0.005230,0.003116,100,0.063257,0.000067,  81.020
   153.4,0.005310,0.003166,100,0.063954,0.000032,  81.018
   153.6,0.005390,0.003213,100,0.064586,0.000067,  81.016
   153.8,0.005468,0.003262,100,0.065179,0.000067,  81.014
   154.0,0.005543,0.003311,100,0.065979,0.000067,  81.020
   154.2,0.005614,0.003354,100,0.066838,0.000081,  81.021
   154.4,0.005684,0.003405,100,0.067738,0.000067,  81.019
   154.6,0.005750,0.003448,100,0.068576,0.000081,  81.022
   154.8,0.005818,0.003486,100,0.069409,0.000045,  81.020
   155.0,0.005879,0.003526,100,0.070228,0.000081,  81.016
   155.2,0.005945,0.003570,100,0.071037,0.000094,  81.017
   155.4,0.006013,0.003607,100,0.071832,0.000045,  81.019
   155.6,0.006073,0.003650,100,0.072617,0.000081,  81.019
   155.8,0.006145,0.003686,100,0.073275,0.000058,  81.014
   156.0,0.006218,0.003716,100,0.073859,0.000045,  81.017
   156.2,0.006289,0.003745,100,0.074367,0.000045,  81.016
   156.4,0.006369,0.003772,100,0.075107,0.000023,  81.020
   156.6,0.006443,0.003814,100,0.075925,0.000045,  81.022
   156.8,0.006516,0.003856,100,0.076821,0.000032,  81.022
   157.0,0.006586,0.003898,100,0.077664,0.000009,  81.021
   157.2,0.006659,0.003939,100,0.078526,0.000045,  81.025
   157.4,0.006733,0.003985,100,0.079404,0.000032,  81.026
   157.6,0.006806,0.004031,100,0.080062,0.000009,  81.022
   157.8,0.006876,0.004078,100,0.080621,0.000045,  81.023
   158.0,0.006943,0.004121,100,0.081080,0.000032,  81.027
   158.2,0.007006,0.004166,100,0.081884,0.000045,  81.020
   158.4,0.007070,0.004209,100,0.082819,0.000045,  81.023
   158.6,0.007131,0.004250,100,0.083875,0.000081,  81.015
   158.8,0.007188,0.004288,100,0.084714,0.000094,  81.021
   159.0,0.007240,0.004327,100,0.085494,0.000045,  81.008
   159.2,0.007290,0.004365,100,0.086219,0.000081,  80.996
   159.4,0.007330,0.004401,100,0.086963,0.000094,  80.994
   159.6,0.007370,0.004436,100,0.087684,0.000045,  80.985
   159.8,0.007427,0.004473,100,0.088393,0.000081,  80.977
   160.0,0.007483,0.004513,100,0.088854,0.000094,  80.976
   160.2,0.007545,0.004549,100,0.089195,0.000032,  80.973
   160.4,0.007606,0.004589,100,0.089399,0.000054,  80.974
   160.6,0.007670,0.004631,100,0.089912,0.000054,  80.972
   160.8,0.007734,0.004669,100,0.090514,0.000018,  80.970
   161.0,0.007798,0.004710,100,0.091194,0.000040,  80.970
   161.2,0.007864,0.004753,100,0.091960,0.000040,  80.976
   161.4,0.007933,0.004791,100,0.092809,0.000018,  80.980
   161.6,0.007997,0.004829,100,0.093736,0.000040,  80.980
   161.8,0.008058,0.004872,100,0.094501,0.000054,  80.975
   162.0,0.008125,0.004909,100,0.095216,0.000018,  80.979
   162.2,0.008186,0.004946,100,0.095885,0.000054,  80.976
   162.4,0.008238,0.004981,100,0.096506,0.000067,  80.977
   162.6,0.008292,0.005011,100,0.097089,0.000018,  80.979
   162.8,0.008344,0.005052,100,0.097604,0.000054,  80.978
   163.0,0.008391,0.005082,100,0.098090,0.000054,  80.978
   163.2,0.008436,0.005112,100,0.098653,0.000054,  80.971
   163.4,0.008484,0.005138,100,0.099234,0.000067,  80.969
   163.6,0.008529,0.005161,100,0.099809,0.000067,  80.967
   163.8,0.008574,0.005191,100,0.100373,0.000067,  80.962
   164.0,0.008619,0.005222,100,0.100932,0.000032,  80.954
   164.2,0.008661,0.005250,100,0.101481,0.000067,  80.954
   164.4,0.008707,0.005275,100,0.102002,0.000081,  80.946
   164.6,0.008754,0.005303,100,0.102504,0.000032,  80.946
   164.8,0.008801,0.005338,100,0.102987,0.000054,  80.949
   165.0,0.008849,0.005364,100,0.103424,0.000067,  80.943
   165.2,0.008898,0.005384,100,0.103825,0.000018,  80.942
   165.4,0.008948,0.005409,100,0.104195,0.000054,  80.939
   165.6,0.008999,0.005430,100,0.104665,0.000067,  80.946
   165.8,0.009049,0.005462,100,0.105154,0.000018,  80.948
   166.0,0.009093,0.005493,100,0.105689,0.000054,  80.943
   166.2,0.009143,0.005528,100,0.106155,0.000067,  80.946
   166.4,0.009186,0.005556,100,0.106601,0.000018,  80.943
   166.6,0.009223,0.005584,100,0.107027,0.000054,  80.939
   166.8,0.009259,0.005612,100,0.107137,0.000067,  80.936
   167.0,0.009297,0.005637,100,0.107084,0.000018,  80.937
   167.2,0.009330,0.005659,100,0.106862,0.000054,  80.933
   167.4,0.009363,0.005683,100,0.107286,0.000067,  80.927
   167.6,0.009397,0.005705,100,0.107944,0.000018,  80.932
   167.8,0.009425,0.005725,100,0.108845,0.000054,  80.926
   168.0,0.009451,0.005744,100,0.109359,0.000067,  80.928
   168.2,0.009477,0.005766,100,0.109795,0.000018,  80.928
   168.4,0.009501,0.005784,100,0.110154,0.000054,  80.927
   168.6,0.009525,0.005803,100,0.110572,0.000054,  80.928
   168.8,0.009544,0.005822,100,0.110974,0.000018,  80.924
   169.0,0.009579,0.005847,100,0.111373,0.000040,  80.930
   169.2,0.009613,0.005871,100,0.111699,0.000040,  80.922
   169.4,0.009656,0.005896,100,0.111970,0.000018,  80.924
   169.6,0.009694,0.005918,100,0.112193,0.000040,  80.924
   169.8,0.009727,0.005945,100,0.112502,0.000040,  80.924
   170.0,0.009770,0.005968,100,0.112832,0.000018,  80.922
   170.2,0.009806,0.005991,100,0.113159,0.000040,  80.936
   170.4,0.009831,0.006019,100,0.113424,0.000054,  80.931
   170.6,0.009867,0.006040,100,0.113669,0.000032,  80.928
   170.8,0.009896,0.006061,100,0.113880,0.000067,  80.934
   171.0,0.009919,0.006086,100,0.114158,0.000081,  80.930
   171.2,0.009951,0.006106,100,0.114433,0.000045,  80.931
   171.4,0.009972,0.006123,100,0.114743,0.000067,  80.929
   171.6,0.009983,0.006139,100,0.115049,0.000067,  80.930
   171.8,0.010005,0.006152,100,0.114901,0.000081,  80.923
   172.0,0.010024,0.006165,100,0.114567,0.000081,  80.921
   172.2,0.010031,0.006174,100,0.114058,0.000081,  80.923
   172.4,0.010048,0.006187,100,0.114249,0.000094,  80.922
   172.6,0.010067,0.006198,100,0.114685,0.000045,  80.923
   172.8,0.010081,0.006209,100,0.115373,0.000081,  80.927
   173.0,0.010105,0.006224,100,0.115666,0.000094,  80.927
   173.2,0.010124,0.006235,100,0.115877,0.000045,  80.938
   173.4,0.010138,0.006251,100,0.116017,0.000081,  80.938
   173.6,0.010154,0.006265,100,0.116220,0.000094,  80.944
   173.8,0.010173,0.006274,100,0.116418,0.000045,  80.939
   174.0,0.010190,0.006287,100,0.116605,0.000067,  80.953
   174.2,0.010212,0.006293,100,0.116770,0.000045,  80.957
   174.4,0.010229,0.006303,100,0.116931,0.000045,  80.964
   174.6,0.010240,0.006318,100,0.117064,0.000045,  80.970
   174.8,0.010255,0.006331,100,0.117210,0.000023,  80.973
   175.0,0.010264,0.006341,100,0.117347,0.000045,  80.975
   175.2,0.010271,0.006350,100,0.117475,0.000045,  80.977
   175.4,0.010281,0.006362,100,0.117583,0.000023,  80.976
   175.6,0.010283,0.006368,100,0.117662,0.000058,  80.970
   175.8,0.010278,0.006373,100,0.117734,0.000058,  80.977
   176.0,0.010279,0.006377,100,0.117812,0.000036,  80.978
   176.2,0.010276,0.006380,100,0.117874,0.000072,  80.972
   176.4,0.010268,0.006379,100,0.117936,0.000058,  80.976
   176.6,0.010272,0.006381,100,0.117991,0.000036,  80.976
   176.8,0.010269,0.006382,100,0.118034,0.000058,  80.974
   177.0,0.010272,0.006381,100,0.118058,0.000045,  80.969
   177.2,0.010266,0.006375,100,0.118036,0.000023,  80.974
   177.4,0.010272,0.006377,100,0.117989,0.000045,  80.979
   177.6,0.010268,0.006377,100,0.117903,0.000045,  80.977
   177.8,0.010268,0.006381,100,0.117842,0.000023,  80.979
   178.0,0.010274,0.006380,100,0.117781,0.000045,  80.976
   178.2,0.010279,0.006379,100,0.117710,0.000032,  80.984
   178.4,0.010278,0.006386,100,0.117619,0.000032,  80.988
   178.6,0.010288,0.006387,100,0.117524,0.000067,  80.990
   178.8,0.010288,0.006386,100,0.117410,0.000076,  80.993
   179.0,0.010278,0.006389,100,0.117327,0.000090,  80.993
   179.2,0.010279,0.006389,100,0.117273,0.000067,  80.997
   179.4,0.010272,0.006386,100,0.117224,0.000067,  80.996
   179.6,0.010256,0.006385,100,0.117139,0.000081,  80.996
   179.8,0.010242,0.006378,100,0.117050,0.000045,  80.994
   180.0,0.010228,0.006370,100,0.116946,0.000067,  81.001
   180.2,0.010209,0.006365,100,0.116859,0.000081,  80.999
   180.4,0.010193,0.006357,100,0.116765,0.000058,  80.993
   180.6,0.010174,0.006344,100,0.116671,0.000094,  80.998
   180.8,0.010149,0.006334,100,0.116579,0.000094,  80.996
   181.0,0.010131,0.006327,100,0.116477,0.000108,  80.999
   181.2,0.010115,0.006316,100,0.116376,0.000094,  80.995
   181.4,0.010095,0.006311,100,0.116257,0.000081,  80.996
   181.6,0.010086,0.006302,100,0.116088,0.000081,  81.001
   181.8,0.010074,0.006291,100,0.115884,0.000032,  81.002
   182.0,0.010057,0.006285,100,0.115647,0.000067,  80.999
   182.2,0.010053,0.006275,100,0.115420,0.000081,  81.002
   182.4,0.010041,0.006272,100,0.115197,0.000032,  81.004
   182.6,0.010021,0.006263,100,0.114950,0.000054,  80.998
   182.8,0.010012,0.006262,100,0.114694,0.000054,  81.006
   183.0,0.010000,0.006257,100,0.114442,0.000018,  81.005
   183.2,0.009976,0.006251,100,0.114173,0.000040,  81.005
   183.4,0.009963,0.006240,100,0.113802,0.000054,  80.996
   183.6,0.009946,0.006228,100,0.113379,0.000032,  80.995
   183.8,0.009917,0.006219,100,0.112900,0.000067,  80.993
   184.0,0.009898,0.006211,100,0.112657,0.000081,  80.992
   184.2,0.009875,0.006193,100,0.112509,0.000045,  80.994
   184.4,0.009843,0.006183,100,0.112446,0.000081,  80.983
   184.6,0.009820,0.006167,100,0.112259,0.000094,  80.981
   184.8,0.009794,0.006149,100,0.112061,0.000058,  80.974
   185.0,0.009760,0.006137,100,0.111847,0.000094,  80.968
   185.2,0.009734,0.006125,100,0.111444,0.000108,  80.964
   185.4,0.009713,0.006109,100,0.110937,0.000072,  80.954
   185.6,0.009681,0.006093,100,0.110326,0.000094,  80.954
   185.8,0.009663,0.006080,100,0.110035,0.000108,  80.946
   186.0,0.009644,0.006060,100,0.109855,0.000058,  80.947
   186.2,0.009628,0.006048,100,0.109783,0.000081,  80.946
   186.4,0.009611,0.006032,100,0.109517,0.000094,  80.937
   186.6,0.009600,0.006019,100,0.109213,0.000045,  80.936
   186.8,0.009571,0.006000,100,0.108869,0.000067,  80.930
   187.0,0.009544,0.005989,100,0.108580,0.000081,  80.928
   187.2,0.009518,0.005977,100,0.108279,0.000045,  80.927
   187.4,0.009492,0.005959,100,0.107994,0.000067,  80.926
   187.6,0.009456,0.005938,100,0.107708,0.000081,  80.918
   187.8,0.009431,0.005922,100,0.107412,0.000045,  80.914
   188.0,0.009400,0.005905,100,0.107127,0.000067,  80.913
   188.2,0.009361,0.005883,100,0.106678,0.000081,  80.905
   188.4,0.009331,0.005860,100,0.106144,0.000045,  80.903
   188.6,0.009295,0.005843,100,0.105542,0.000081,  80.897
   188.8,0.009255,0.005820,100,0.105170,0.000094,  80.894
   189.0,0.009220,0.005795,100,0.104889,0.000058,  80.893
   189.2,0.009185,0.005773,100,0.104684,0.000094,  80.890
   189.4,0.009149,0.005746,100,0.104238,0.000094,  80.883
   189.6,0.009111,0.005718,100,0.103727,0.000108,  80.879
   189.8,0.009078,0.005702,100,0.103116,0.000094,  80.886
   190.0,0.009037,0.005683,100,0.102441,0.000081,  80.882
   190.2,0.009001,0.005659,100,0.102132,0.000081,  80.885
   190.4,0.008969,0.005636,100,0.101912,0.000032,  80.883
   190.6,0.008934,0.005617,100,0.101804,0.000054,  80.881
   190.8,0.008905,0.005599,100,0.101513,0.000067,  80.881
   191.0,0.008872,0.005574,100,0.101187,0.000018,  80.883
   191.2,0.008843,0.005556,100,0.100814,0.000054,  80.888
   191.4,0.008812,0.005539,100,0.100431,0.000054,  80.890
   191.6,0.008775,0.005521,100,0.100016,0.000018,  80.888
   191.8,0.008740,0.005504,100,0.099572,0.000040,  80.883
   192.0,0.008699,0.005489,100,0.099027,0.000054,  80.891
   192.2,0.008658,0.005462,100,0.098409,0.000018,  80.888
   192.4,0.008618,0.005435,100,0.097729,0.000054,  80.887
   192.6,0.008575,0.005404,100,0.097363,0.000067,  80.886
   192.8,0.008530,0.005379,100,0.097115,0.000018,  80.889
   193.0,0.008487,0.005350,100,0.096987,0.000054,  80.889
   193.2,0.008445,0.005321,100,0.096601,0.000067,  80.889
   193.4,0.008405,0.005291,100,0.096140,0.000018,  80.889
   193.6,0.008365,0.005267,100,0.095611,0.000054,  80.886
   193.8,0.008324,0.005248,100,0.095203,0.000067,  80.888
   194.0,0.008290,0.005222,100,0.094819,0.000018,  80.892
   194.2,0.008249,0.005193,100,0.094457,0.000054,  80.888
   194.4,0.008209,0.005171,100,0.094070,0.000067,  80.894
   194.6,0.008176,0.005148,100,0.093688,0.000018,  80.888
   194.8,0.008142,0.005121,100,0.093298,0.000054,  80.883
   195.0,0.008122,0.005101,100,0.092860,0.000067,  80.889
   195.2,0.008098,0.005079,100,0.092392,0.000018,  80.888
   195.4,0.008055,0.005049,100,0.091905,0.000054,  80.892
   195.6,0.008017,0.005025,100,0.091424,0.000067,  80.894
   195.8,0.007980,0.004999,100,0.090932,0.000018,  80.891
   196.0,0.007937,0.004975,100,0.090430,0.000054,  80.887
   196.2,0.007895,0.004947,100,0.089951,0.000067,  80.883
   196.4,0.007850,0.004917,100,0.089478,0.000032,  80.876
   196.6,0.007805,0.004891,100,0.089018,0.000067,  80.876
   196.8,0.007760,0.004865,100,0.088532,0.000081,  80.869
   197.0,0.007717,0.004829,100,0.088031,0.000032,  80.871
   197.2,0.007675,0.004799,100,0.087532,0.000054,  80.866
   197.4,0.007625,0.004773,100,0.087126,0.000067,  80.859
   197.6,0.007575,0.004740,100,0.086778,0.000018,  80.857
   197.8,0.007531,0.004708,100,0.086471,0.000054,  80.849
   198.0,0.007486,0.004684,100,0.086212,0.000054,  80.842
   198.2,0.007438,0.004655,100,0.085584,0.000040,  80.832
   198.4,0.007394,0.004630,100,0.084842,0.000040,  80.838
   198.6,0.007351,0.004600,100,0.083987,0.000027,  80.834
   198.8,0.007306,0.004571,100,0.083478,0.000027,  80.833
   199.0,0.007266,0.004545,100,0.083087,-0.000009,  80.831
   199.2,0.007223,0.004519,100,0.082801,0.000027,  80.832
   199.4,0.007181,0.004491,100,0.082195,0.000027,  80.833
   199.6,0.007135,0.004469,100,0.081478,-0.000009,  80.841
   199.8,0.007095,0.004446,100,0.080663,0.000027,  80.834
   200.0,0.007057,0.004424,100,0.080185,0.000027,  80.842
   200.2,0.007009,0.004399,100,0.079812,-0.000009,  80.839
   200.4,0.006967,0.004380,100,0.079558,0.000027,  80.845
   200.6,0.006928,0.004366,100,0.079181,0.000027,  80.846
   200.8,0.006891,0.004338,100,0.078788,-0.000009,  80.846
   201.0,0.006846,0.004310,100,0.078387,0.000027,  80.847
   201.2,0.006796,0.004284,100,0.077954,0.000027,  80.849
   201.4,0.006759,0.004255,100,0.077504,0.000005,  80.847
   201.6,0.006717,0.004231,100,0.077019,0.000040,  80.850
   201.8,0.006664,0.004202,100,0.076599,0.000040,  80.852
   202.0,0.006622,0.004172,100,0.076202,0.000018,  80.856
   202.2,0.006582,0.004148,100,0.075821,0.000040,  80.853
   202.4,0.006537,0.004118,100,0.075381,0.000040,  80.862
   202.6,0.006494,0.004089,100,0.074914,0.000005,  80.867
   202.8,0.006454,0.004061,100,0.074431,0.000027,  80.868
   203.0,0.006412,0.004033,100,0.073981,0.000013,  80.870
   203.2,0.006372,0.004004,100,0.073529,-0.000036,  80.877
   203.4,0.006329,0.003983,100,0.073089,-0.000013,  80.872
   203.6,0.006289,0.003957,100,0.072636,-0.000027,  80.882
   203.8,0.006254,0.003930,100,0.072197,-0.000063,  80.893
   204.0,0.006218,0.003907,100,0.071747,-0.000013,  80.899
   204.2,0.006195,0.003881,100,0.071243,-0.000013,  80.900
   204.4,0.006169,0.003855,100,0.070720,-0.000049,  80.901
   204.6,0.006128,0.003832,100,0.070162,-0.000013,  80.905
   204.8,0.006084,0.003804,100,0.069648,0.000000,  80.916
   205.0,0.006040,0.003778,100,0.069129,-0.000022,  80.920
   205.2,0.006000,0.003753,100,0.068620,0.000013,  80.920
   205.4,0.005953,0.003729,100,0.068191,0.000027,  80.921
   205.6,0.005908,0.003701,100,0.067796,0.000005,  80.929
   205.8,0.005860,0.003671,100,0.067444,0.000027,  80.932
   206.0,0.005818,0.003645,100,0.066982,0.000027,  80.931
   206.2,0.005773,0.003616,100,0.066483,-0.000009,  80.935
   206.4,0.005731,0.003587,100,0.065951,0.000027,  80.935
   206.6,0.005688,0.003561,100,0.065539,0.000027,  80.939
   206.8,0.005655,0.003533,100,0.065165,0.000040,  80.942
   207.0,0.005615,0.003505,100,0.064845,0.000027,  80.945
   207.2,0.005575,0.003481,100,0.064551,0.000040,  80.944
   207.4,0.005535,0.003453,100,0.064135,0.000040,  80.952
   207.6,0.005491,0.003425,100,0.063693,0.000005,  80.955
   207.8,0.005456,0.003401,100,0.063220,0.000040,  80.956
   208.0,0.005424,0.003374,100,0.062785,0.000040,  80.962
   208.2,0.005384,0.003355,100,0.062348,0.000018,  80.967
   208.4,0.005345,0.003335,100,0.061915,0.000040,  80.976
   208.6,0.005312,0.003306,100,0.061430,0.000040,  80.972
   208.8,0.005267,0.003286,100,0.060919,0.000054,  80.975
   209.0,0.005226,0.003260,100,0.060381,0.000076,  80.978
   209.2,0.005185,0.003235,100,0.059974,0.000076,  80.983
   209.4,0.005140,0.003219,100,0.059627,0.000090,  80.988
   209.6,0.005103,0.003197,100,0.059320,0.000076,  80.993
   209.8,0.005061,0.003183,100,0.058832,0.000076,  80.996
   210.0,0.005013,0.003158,100,0.058282,0.000076,  80.988
   210.2,0.004976,0.003132,100,0.057666,0.000049,  80.993
   210.4,0.004934,0.003106,100,0.057239,0.000049,  80.984
   210.6,0.004891,0.003078,100,0.056873,0.000027,  80.987
   210.8,0.004861,0.003058,100,0.056574,0.000013,  80.976
   211.0,0.004826,0.003033,100,0.056283,0.000013,  80.978
   211.2,0.004790,0.003008,100,0.056025,-0.000022,  80.973
   211.4,0.004762,0.002986,100,0.055804,0.000000,  80.976
   211.6,0.004729,0.002961,100,0.055425,-0.000013,  80.968
   211.8,0.004693,0.002944,100,0.054972,-0.000049,  80.964
   212.0,0.004663,0.002923,100,0.054462,-0.000013,  80.963
   212.2,0.004630,0.002904,100,0.054024,-0.000013,  80.957
   212.4,0.004599,0.002883,100,0.053587,-0.000049,  80.957
   212.6,0.004575,0.002868,100,0.053160,0.000000,  80.958
   212.8,0.004552,0.002852,100,0.052790,0.000013,  80.959
   213.0,0.004533,0.002829,100,0.052443,-0.000009,  80.952
   213.2,0.004499,0.002812,100,0.052130,0.000027,  80.953
   213.4,0.004464,0.002795,100,0.051763,0.000027,  80.948
   213.6,0.004432,0.002772,100,0.051373,0.000005,  80.946
   213.8,0.004399,0.002753,100,0.050975,0.000040,  80.950
   214.0,0.004359,0.002732,100,0.050640,0.000040,  80.948
   214.2,0.004322,0.002706,100,0.050322,0.000018,  80.940
   214.4,0.004283,0.002684,100,0.050028,0.000040,  80.939
   214.6,0.004251,0.002665,100,0.049705,0.000040,  80.941
   214.8,0.004218,0.002643,100,0.049388,0.000018,  80.934
   215.0,0.004179,0.002622,100,0.049054,0.000040,  80.929
   215.2,0.004142,0.002605,100,0.048705,0.000040,  80.936
   215.4,0.004110,0.002582,100,0.048334,0.000018,  80.937
   215.6,0.004082,0.002561,100,0.047955,0.000040,  80.936
   215.8,0.004049,0.002539,100,0.047643,0.000040,  80.936
   216.0,0.004021,0.002513,100,0.047350,0.000054,  80.941
   216.2,0.003998,0.002491,100,0.047087,0.000040,  80.938
   216.4,0.003965,0.002477,100,0.046848,0.000040,  80.940
   216.6,0.003933,0.002454,100,0.046472,0.000040,  80.936
   216.8,0.003908,0.002434,100,0.046068,0.000018,  80.948
   217.0,0.003875,0.002418,100,0.045620,0.000054,  80.959
   217.2,0.003837,0.002395,100,0.045222,0.000067,  80.952
   217.4,0.003805,0.002378,100,0.044830,0.000018,  80.958
   217.6,0.003770,0.002356,100,0.044438,0.000054,  80.952
   217.8,0.003747,0.002337,100,0.044069,0.000067,  80.961
   218.0,0.003709,0.002321,100,0.043721,0.000018,  80.959
   218.2,0.003678,0.002308,100,0.043389,0.000054,  80.960
   218.4,0.003650,0.002300,100,0.043073,0.000067,  80.963
   218.6,0.003614,0.002273,100,0.042785,0.000018,  80.959
   218.8,0.003581,0.002248,100,0.042506,0.000054,  80.968
   219.0,0.003544,0.002223,100,0.042151,0.000067,  80.964
   219.2,0.003508,0.002198,100,0.041778,0.000032,  80.967
   219.4,0.003473,0.002178,100,0.041361,0.000067,  80.966
   219.6,0.003438,0.002154,100,0.041007,0.000081,  80.969
   219.8,0.003402,0.002128,100,0.040676,0.000032,  80.967
   220.0,0.003374,0.002108,100,0.040358,0.000054,  80.965
   220.2,0.003346,0.002092,100,0.039718,0.000054,  80.966
   220.4,0.003312,0.002075,100,0.038929,0.000005,  80.966
   220.6,0.003286,0.002055,100,0.037987,0.000013,  80.972
   220.8,0.003261,0.002045,100,0.037642,0.000013,  80.977
   221.0,0.003237,0.002029,100,0.037526,-0.000009,  80.980
   221.2,0.003211,0.002012,100,0.037633,0.000013,  80.981
   221.4,0.003195,0.001993,100,0.037487,0.000013,  80.986
   221.6,0.003176,0.001978,100,0.037328,0.000005,  80.980
   221.8,0.003145,0.001963,100,0.037153,0.000040,  80.981
   222.0,0.003117,0.001946,100,0.036957,0.000040,  80.978
   222.2,0.003090,0.001925,100,0.036735,0.000018,  80.979
   222.4,0.003059,0.001905,100,0.036491,0.000040,  80.985
   222.6,0.003029,0.001883,100,0.036237,0.000040,  80.981
   222.8,0.003002,0.001863,100,0.035958,0.000018,  80.979
   223.0,0.002966,0.001844,100,0.035662,0.000040,  80.980
   223.2,0.002938,0.001832,100,0.035419,0.000040,  80.976
   223.4,0.002913,0.001813,100,0.035180,0.000005,  80.972
   223.6,0.002882,0.001795,100,0.034966,0.000027,  80.970
   223.8,0.002856,0.001775,100,0.034707,0.000027,  80.969
   224.0,0.002833,0.001755,100,0.034426,-0.000009,  80.968
   224.2,0.002805,0.001739,100,0.034135,0.000013,  80.974
   224.4,0.002781,0.001723,100,0.033909,0.000013,  80.969
   224.6,0.002758,0.001705,100,0.033711,0.000027,  80.974
   224.8,0.002737,0.001691,100,0.033544,0.000013,  80.973
   225.0,0.002716,0.001676,100,0.033399,0.000013,  80.979
   225.2,0.002692,0.001660,100,0.033130,0.000013,  80.979
   225.4,0.002669,0.001646,100,0.032821,-0.000022,  80.984
   225.6,0.002646,0.001632,100,0.032492,0.000013,  80.987
   225.8,0.002618,0.001614,100,0.032206,0.000013,  80.986
   226.0,0.002592,0.001603,100,0.031925,-0.000009,  80.990
   226.2,0.002572,0.001591,100,0.031644,0.000027,  80.993
   226.4,0.002555,0.001579,100,0.031415,0.000027,  80.991
   226.6,0.002528,0.001567,100,0.031207,-0.000009,  81.000
   226.8,0.002503,0.001559,100,0.031024,0.000027,  80.997
   227.0,0.002479,0.001548,100,0.030675,0.000027,  80.993
   227.2,0.002453,0.001534,100,0.030253,-0.000009,  80.997
   227.4,0.002432,0.001517,100,0.029758,0.000027,  80.995
   227.6,0.002407,0.001496,100,0.029492,0.000027,  80.997
   227.8,0.002380,0.001477,100,0.029291,-0.000009,  80.992
   228.0,0.002359,0.001461,100,0.029163,0.000013,  80.994
   228.2,0.002338,0.001447,100,0.029001,0.000013,  80.993
   228.4,0.002312,0.001429,100,0.028860,-0.000009,  81.001
   228.6,0.002293,0.001417,100,0.028731,0.000013,  81.002
   228.8,0.002272,0.001407,100,0.028170,0.000013,  80.999
   229.0,0.002251,0.001391,100,0.027418,-0.000009,  80.998
   229.2,0.002235,0.001379,100,0.026456,0.000013,  81.010
   229.4,0.002214,0.001369,100,0.026235,0.000013,  81.014
   229.6,0.002195,0.001355,100,0.026277,-0.000009,  81.014
   229.8,0.002174,0.001346,100,0.026589,0.000013,  81.015
   230.0,0.002153,0.001334,100,0.026536,0.000013,  81.015
   230.2,0.002137,0.001322,100,0.026432,0.000005,  81.015
   230.4,0.002115,0.001310,100,0.026273,0.000040,  81.015
   230.6,0.002101,0.001296,100,0.026160,0.000040,  81.015
   230.8,0.002087,0.001280,100,0.026053,0.000018,  81.018
   231.0,0.002060,0.001269,100,0.025937,0.000040,  81.015
   231.2,0.002042,0.001257,100,0.025778,0.000040,  81.022
   231.4,0.002017,0.001239,100,0.025605,0.000018,  81.017
   231.6,0.001999,0.001227,100,0.025405,0.000040,  81.020
   231.8,0.001976,0.001213,100,0.025228,0.000040,  81.012
   232.0,0.001958,0.001197,100,0.025049,0.000018,  81.000
   232.2,0.001937,0.001185,100,0.024866,0.000040,  80.999
   232.4,0.001918,0.001174,100,0.024679,0.000040,  80.992
   232.6,0.001902,0.001158,100,0.024496,-0.000009,  80.990
   232.8,0.001882,0.001148,100,0.024301,0.000000,  80.985
   233.0,0.001866,0.001136,100,0.024145,0.000000,  80.980
   233.2,0.001855,0.001122,100,0.024006,-0.000036,  80.973
   233.4,0.001833,0.001115,100,0.023887,0.000000,  80.970
   233.6,0.001817,0.001104,100,0.023779,0.000000,  80.969
   233.8,0.001804,0.001092,100,0.023609,0.000000,  80.973
   234.0,0.001782,0.001081,100,0.023431,0.000000,  80.969
   234.2,0.001768,0.001075,100,0.023235,0.000000,  80.966
   234.4,0.001757,0.001061,100,0.023049,0.000027,  80.965
   234.6,0.001738,0.001053,100,0.022866,-0.000009,  80.958
   234.8,0.001721,0.001048,100,0.022677,0.000027,  80.952
   235.0,0.001708,0.001036,100,0.022517,0.000027,  80.951
   235.2,0.001684,0.001027,100,0.022372,-0.000009,  80.951
   235.4,0.001665,0.001020,100,0.022239,0.000027,  80.941
   235.6,0.001650,0.001010,100,0.022073,0.000027,  80.938
   235.8,0.001624,0.001001,100,0.021910,0.000005,  80.941
   236.0,0.001605,0.000991,100,0.021737,0.000040,  80.935
   236.2,0.001589,0.000987,100,0.021581,0.000040,  80.930
   236.4,0.001568,0.000979,100,0.021425,0.000018,  80.925
   236.6,0.001556,0.000970,100,0.021268,0.000040,  80.928
   236.8,0.001542,0.000957,100,0.021119,0.000040,  80.924
   237.0,0.001530,0.000946,100,0.020976,0.000005,  80.922
   237.2,0.001516,0.000933,100,0.020831,0.000027,  80.924
   237.4,0.001502,0.000919,100,0.020348,0.000027,  80.923
   237.6,0.001491,0.000910,100,0.019694,-0.000009,  80.923
   237.8,0.001474,0.000900,100,0.018876,0.000013,  80.933
   238.0,0.001460,0.000891,100,0.018380,0.000013,  80.932
   238.2,0.001446,0.000879,100,0.017955,-0.000009,  80.941
   238.4,0.001432,0.000869,100,0.017607,0.000013,  80.944
   238.6,0.001416,0.000862,100,0.017576,0.000013,  80.946
   238.8,0.001402,0.000851,100,0.017739,-0.000009,  80.949
   239.0,0.001383,0.000840,100,0.018100,0.000027,  80.947
   239.2,0.001374,0.000835,100,0.018178,0.000027,  80.948
   239.4,0.001360,0.000821,100,0.018210,-0.000009,  80.961
   239.6,0.001343,0.000817,100,0.018202,0.000027,  80.959
   239.8,0.001327,0.000813,100,0.018192,0.000027,  80.957
   240.0,0.001313,0.000799,100,0.018156,0.000005,  80.963
   240.2,0.001299,0.000787,100,0.018106,0.000040,  80.973
   240.4,0.001278,0.000775,100,0.018019,0.000040,  80.980
   240.6,0.001268,0.000766,100,0.017900,-0.000009,  80.981
   240.8,0.001254,0.000757,100,0.017757,0.000000,  80.987
   241.0,0.001240,0.000747,100,0.017433,-0.000013,  80.997
   241.2,0.001220,0.000738,100,0.017006,-0.000049,  81.008
   241.4,0.001206,0.000728,100,0.016464,-0.000013,  81.009
   241.6,0.001197,0.000716,100,0.016308,-0.000027,  81.010
   241.8,0.001186,0.000707,100,0.016291,-0.000063,  81.021
   242.0,0.001174,0.000699,100,0.016403,-0.000013,  81.026
   242.2,0.001162,0.000688,100,0.016374,0.000000,  81.036
   242.4,0.001148,0.000682,100,0.016351,-0.000036,  81.038
   242.6,0.001137,0.000673,100,0.016315,0.000000,  81.042
   242.8,0.001125,0.000664,100,0.016275,0.000013,  81.042
   243.0,0.001111,0.000655,100,0.016242,0.000013,  81.048
   243.2,0.001102,0.000646,100,0.016201,0.000013,  81.057
   243.4,0.001090,0.000640,100,0.016169,0.000013,  81.060
   243.6,0.001076,0.000627,100,0.016078,0.000027,  81.060
   243.8,0.001062,0.000619,100,0.015972,-0.000009,  81.064
   244.0,0.001048,0.000613,100,0.015833,0.000013,  81.066
   244.2,0.001035,0.000604,100,0.015752,0.000013,  81.065
   244.4,0.001016,0.000591,100,0.015691,-0.000009,  81.067
   244.6,0.001002,0.000580,100,0.015638,0.000013,  81.071
   244.8,0.000995,0.000570,100,0.015426,0.000013,  81.072
   245.0,0.000981,0.000560,100,0.015134,-0.000022,  81.069
   245.2,0.000969,0.000557,100,0.014764,0.000000,  81.078
   245.4,0.000963,0.000550,100,0.014634,0.000000,  81.081
   245.6,0.000950,0.000548,100,0.014589,-0.000036,  81.075
   245.8,0.000943,0.000540,100,0.014628,0.000000,  81.073
   246.0,0.000944,0.000539,100,0.014369,0.000000,  81.074
   246.2,0.000932,0.000536,100,0.014004,-0.000036,  81.074
   246.4,0.000925,0.000529,100,0.013535,0.000000,  81.079
   246.6,0.000919,0.000527,100,0.013102,-0.000013,  81.079
   246.8,0.000906,0.000519,100,0.012631,-0.000049,  81.078
   247.0,0.000901,0.000520,100,0.012120,-0.000013,  81.078
   247.2,0.000898,0.000519,100,0.011721,-0.000013,  81.081
   247.4,0.000883,0.000511,100,0.011355,-0.000049,  81.078
   247.6,0.000871,0.000507,100,0.011021,0.000000,  81.078
   247.8,0.000863,0.000503,100,0.011146,0.000013,  81.079
   248.0,0.000854,0.000495,100,0.011517,-0.000022,  81.080
   248.2,0.000844,0.000488,100,0.012140,0.000000,  81.077
   248.4,0.000835,0.000480,100,0.012380,0.000000,  81.081
   248.6,0.000826,0.000475,100,0.012552,-0.000036,  81.081
   248.8,0.000817,0.000468,100,0.012654,0.000000,  81.082
   249.0,0.000806,0.000463,100,0.012751,-0.000013,  81.082
   249.2,0.000801,0.000460,100,0.012805,-0.000049,  81.085
   249.4,0.000789,0.000453,100,0.012822,-0.000013,  81.087
   249.6,0.000776,0.000445,100,0.012828,-0.000027,  81.087
   249.8,0.000768,0.000436,100,0.012802,-0.000054,  81.097
   250.0,0.000758,0.000431,100,0.012750,-0.000032,  81.096
   250.2,0.000759,0.000433,100,0.012710,-0.000018,  81.096
   250.4,0.000754,0.000430,100,0.012668,-0.000018,  81.112
   250.6,0.000746,0.000425,100,0.012621,-0.000018,  81.112
   250.8,0.000744,0.000423,100,0.012538,-0.000005,  81.116
   251.0,0.000740,0.000419,100,0.012437,-0.000005,  81.121
   251.2,0.000732,0.000418,100,0.012313,-0.000005,  81.131
   251.4,0.000727,0.000415,100,0.012238,0.000009,  81.132
   251.6,0.000728,0.000411,100,0.012177,-0.000005,  81.140
   251.8,0.000718,0.000403,100,0.012128,-0.000005,  81.141
   252.0,0.000711,0.000402,100,0.012092,-0.000005,  81.146
   252.2,0.000705,0.000397,100,0.012038,0.000009,  81.150
   252.4,0.000684,0.000388,100,0.011979,0.000009,  81.149
   252.6,0.000677,0.000384,100,0.011924,0.000009,  81.151
   252.8,0.000666,0.000380,100,0.011878,0.000022,  81.157
   253.0,0.000653,0.000369,100,0.011851,-0.000013,  81.153
   253.2,0.000644,0.000369,100,0.011825,-0.000013,  81.161
   253.4,0.000640,0.000366,100,0.011789,-0.000013,  81.163
   253.6,0.000635,0.000362,100,0.011742,-0.000049,  81.166
   253.8,0.000626,0.000358,100,0.011699,-0.000027,  81.170
   254.0,0.000617,0.000352,100,0.011641,-0.000013,  81.179
   254.2,0.000612,0.000350,100,0.011567,-0.000049,  81.181
   254.4,0.000608,0.000346,100,0.011486,-0.000027,  81.188
   254.6,0.000603,0.000342,100,0.011437,-0.000013,  81.190
   254.8,0.000608,0.000342,100,0.011390,-0.000063,  81.192
   255.0,0.000606,0.000342,100,0.011353,-0.000040,  81.196
   255.2,0.000604,0.000339,100,0.011289,-0.000027,  81.198
   255.4,0.000609,0.000335,100,0.011209,-0.000063,  81.206
   255.6,0.000605,0.000337,100,0.011122,-0.000027,  81.253
   255.8,0.000592,0.000335,100,0.011029,-0.000013,  81.256
   256.0,0.000587,0.000333,100,0.010926,-0.000049,  81.263
   256.2,0.000580,0.000328,100,0.010825,-0.000013,  81.265
   256.4,0.000577,0.000329,100,0.010760,0.000000,  81.272
   256.6,0.000570,0.000328,100,0.010711,-0.000036,  81.271
   256.8,0.000565,0.000323,100,0.010674,0.000000,  81.274
   257.0,0.000563,0.000322,100,0.010657,0.000013,  81.278
   257.2,0.000560,0.000315,100,0.010652,-0.000022,  81.282
   257.4,0.000556,0.000313,100,0.010666,0.000000,  81.285
   257.6,0.000549,0.000314,100,0.010648,-0.000013,  81.286
   257.8,0.000542,0.000310,100,0.010622,-0.000049,  81.291
   258.0,0.000532,0.000306,100,0.010589,-0.000027,  81.291
   258.2,0.000529,0.000303,100,0.010418,-0.000013,  81.289
   258.4,0.000533,0.000299,100,0.010178,-0.000049,  81.292
   258.6,0.000525,0.000301,100,0.009859,0.000000,  81.292
   258.8,0.000520,0.000296,100,0.009810,0.000000,  81.285
   259.0,0.000523,0.000292,100,0.009851,0.000000,  81.290
   259.2,0.000518,0.000294,100,0.009982,0.000022,  81.290
   259.4,0.000515,0.000297,100,0.009983,0.000022,  81.289
   259.6,0.000519,0.000290,100,0.009971,0.000022,  81.287
   259.8,0.000508,0.000289,100,0.009941,0.000036,  81.284
   260.0,0.000501,0.000286,100,0.009917,0.000049,  81.282
   260.2,0.000498,0.000278,100,0.009883,0.000063,  81.280
   260.4,0.000485,0.000280,100,0.009848,0.000049,  81.278
   260.6,0.000476,0.000277,100,0.009801,0.000063,  81.275
   260.8,0.000472,0.000271,100,0.009756,0.000063,  81.273
   261.0,0.000457,0.000266,100,0.009705,0.000063,  81.265
   261.2,0.000450,0.000259,100,0.009650,0.000049,  81.260
   261.4,0.000449,0.000252,100,0.009622,0.000049,  81.262
   261.6,0.000434,0.000244,100,0.009600,0.000036,  81.259
   261.8,0.000427,0.000243,100,0.009587,0.000036,  81.253
   262.0,0.000428,0.000236,100,0.009570,0.000022,  81.256
   262.2,0.000418,0.000229,100,0.009554,0.000022,  81.245
   262.4,0.000415,0.000229,100,0.009541,0.000009,  81.255
   262.6,0.000416,0.000226,100,0.009520,0.000009,  81.250
   262.8,0.000411,0.000220,100,0.009494,-0.000005,  81.251
   263.0,0.000413,0.000219,100,0.009476,-0.000005,  81.247
   263.2,0.000416,0.000218,100,0.009422,0.000009,  81.255
   263.4,0.000411,0.000216,100,0.009356,-0.000005,  81.252
   263.6,0.000411,0.000218,100,0.009277,-0.000005,  81.255
   263.8,0.000412,0.000219,100,0.009228,0.000009,  81.259
   264.0,0.000404,0.000221,100,0.009198,0.000009,  81.263
   264.2,0.000405,0.000217,100,0.009164,0.000022,  81.251
   264.4,0.000403,0.000214,100,0.009189,0.000036,  81.250
   264.6,0.000393,0.000215,100,0.009244,0.000036,  81.251
   264.8,0.000389,0.000211,100,0.009321,0.000036,  81.244
   265.0,0.000382,0.000202,100,0.009286,0.000049,  81.242
   265.2,0.000372,0.000196,100,0.009209,0.000063,  81.234
   265.4,0.000371,0.000194,100,0.009084,0.000049,  81.229
   265.6,0.000372,0.000192,100,0.009008,0.000049,  81.223
   265.8,0.000367,0.000185,100,0.008946,0.000049,  81.219
   266.0,0.000367,0.000184,100,0.008880,0.000036,  81.212
   266.2,0.000357,0.000185,100,0.008826,0.000036,  81.205
   266.4,0.000354,0.000181,100,0.008795,0.000036,  81.197
   266.6,0.000357,0.000180,100,0.008767,0.000036,  81.197
   266.8,0.000349,0.000180,100,0.008723,0.000036,  81.191
   267.0,0.000349,0.000178,100,0.008677,0.000013,  81.135
   267.2,0.000341,0.000176,100,0.008617,0.000013,  81.129
   267.4,0.000341,0.000176,100,0.008562,0.000013,  81.129
   267.6,0.000344,0.000176,100,0.008496,-0.000009,  81.127
   267.8,0.000336,0.000176,100,0.008425,0.000013,  81.126
   268.0,0.000336,0.000173,100,0.008338,0.000013,  81.128
   268.2,0.000342,0.000173,100,0.008244,-0.000022,  81.122
   268.4,0.000336,0.000169,100,0.008130,0.000000,  81.117
   268.6,0.000332,0.000167,100,0.008099,0.000000,  81.117
   268.8,0.000322,0.000164,100,0.008097,-0.000022,  81.110
   269.0,0.000318,0.000155,100,0.008126,0.000013,  81.111
   269.2,0.000315,0.000152,100,0.008187,0.000027,  81.107
   269.4,0.000306,0.000146,100,0.008183,0.000027,  81.095
   269.6,0.000299,0.000140,100,0.008164,0.000040,  81.099
   269.8,0.000295,0.000133,100,0.008140,0.000027,  81.087
   270.0,0.000285,0.000129,100,0.008111,0.000013,  81.087
   270.2,0.000276,0.000126,100,0.008070,-0.000022,  81.068
   270.4,0.000273,0.000121,100,0.008029,0.000013,  81.058
   270.6,0.000268,0.000118,100,0.008016,0.000013,  81.062
   270.8,0.000258,0.000115,100,0.008014,-0.000022,  81.059
   271.0,0.000255,0.000107,100,0.008027,0.000000,  81.054
   271.2,0.000258,0.000107,100,0.008010,0.000000,  81.048
   271.4,0.000252,0.000101,100,0.007977,-0.000036,  81.049
   271.6,0.000252,0.000097,100,0.007934,0.000000,  81.041
   271.8,0.000258,0.000100,100,0.007863,0.000000,  81.046
   272.0,0.000252,0.000099,100,0.007770,-0.000036,  81.048
   272.2,0.000252,0.000097,100,0.007660,0.000000,  81.049
   272.4,0.000250,0.000100,100,0.007604,0.000000,  81.041
   272.6,0.000242,0.000094,100,0.007555,-0.000036,  81.048
   272.8,0.000242,0.000089,100,0.007526,0.000000,  81.044
   273.0,0.000237,0.000087,100,0.007519,0.000000,  81.043
   273.2,0.000229,0.000081,100,0.007532,-0.000036,  81.045
   273.4,0.000223,0.000080,100,0.007562,0.000000,  81.041
   273.6,0.000221,0.000081,100,0.007533,-0.000013,  81.042
   273.8,0.000211,0.000078,100,0.007477,-0.000013,  81.040
   274.0,0.000206,0.000075,100,0.007407,0.000022,  81.036
   274.2,0.000205,0.000073,100,0.007399,0.000009,  81.033
   274.4,0.000200,0.000071,100,0.007406,0.000009,  81.025
   274.6,0.000196,0.000064,100,0.007430,0.000022,  81.020
   274.8,0.000193,0.000062,100,0.007417,0.000022,  81.020
   275.0,0.000189,0.000061,100,0.007379,0.000022,  81.018
   275.2,0.000186,0.000058,100,0.007333,0.000009,  81.025
   275.4,0.000184,0.000057,100,0.007304,0.000022,  81.023
   275.6,0.000184,0.000053,100,0.007261,0.000022,  81.024
   275.8,0.000178,0.000054,100,0.007217,0.000009,  81.015
   276.0,0.000181,0.000051,100,0.007156,0.000022,  81.018
   276.2,0.000186,0.000047,100,0.007089,0.000009,  81.023
   276.4,0.000181,0.000047,100,0.007002,-0.000018,  81.031
   276.6,0.000183,0.000049,100,0.006966,-0.000005,  81.033
   276.8,0.000186,0.000045,100,0.006947,0.000009,  81.028
   277.0,0.000181,0.000044,100,0.006943,0.000009,  81.031
   277.2,0.000178,0.000049,100,0.006944,0.000022,  81.035
   277.4,0.000179,0.000047,100,0.006945,0.000022,  81.031
   277.6,0.000171,0.000046,100,0.006963,0.000009,  81.040
   277.8,0.000172,0.000048,100,0.006980,0.000009,  81.036
   278.0,0.000173,0.000050,100,0.006956,0.000022,  81.028
   278.2,0.000165,0.000046,100,0.006920,0.000009,  81.033
   278.4,0.000169,0.000042,100,0.006867,0.000009,  81.035
   278.6,0.000166,0.000042,100,0.006810,0.000022,  81.032
   278.8,0.000161,0.000040,100,0.006742,0.000022,  81.023
   279.0,0.000166,0.000036,100,0.006664,0.000022,  81.027
   279.2,0.000164,0.000035,100,0.006662,0.000022,  81.030
   279.4,0.000158,0.000036,100,0.006700,0.000022,  81.024
   279.6,0.000158,0.000038,100,0.006767,0.000009,  81.031
   279.8,0.000158,0.000037,100,0.006760,0.000022,  81.028
   280.0,0.000153,0.000035,100,0.006743,0.000022,  81.024
   280.2,0.000155,0.000037,100,0.006687,0.000009,  81.023
   280.4,0.000155,0.000038,100,0.006679,0.000022,  81.031
   280.6,0.000155,0.000036,100,0.006690,0.000022,  81.029
   280.8,0.000157,0.000035,100,0.006702,0.000009,  81.039
   281.0,0.000161,0.000039,100,0.006673,0.000022,  81.035
   281.2,0.000155,0.000037,100,0.006631,0.000022,  81.039
   281.4,0.000157,0.000038,100,0.006569,0.000022,  81.041
   281.6,0.000161,0.000037,100,0.006539,0.000036,  81.041
   281.8,0.000151,0.000036,100,0.006512,0.000036,  81.040
   282.0,0.000148,0.000032,100,0.006497,0.000036,  81.040
   282.2,0.000144,0.000029,100,0.006513,0.000049,  81.045
   282.4,0.000134,0.000025,100,0.006538,0.000063,  81.043
   282.6,0.000130,0.000025,100,0.006586,0.000049,  81.042
   282.8,0.000130,0.000023,100,0.006592,0.000049,  81.045
   283.0,0.000128,0.000020,100,0.006574,0.000049,  81.039
   283.2,0.000128,0.000017,100,0.006538,0.000036,  81.053
   283.4,0.000128,0.000013,100,0.006540,0.000036,  81.048
   283.6,0.000128,0.000010,100,0.006546,0.000036,  81.052
   283.8,0.000128,0.000015,100,0.006548,0.000036,  81.053
   284.0,0.000128,0.000017,100,0.006519,0.000036,  81.048
   284.2,0.000128,0.000015,100,0.006482,0.000036,  81.047
   284.4,0.000125,0.000016,100,0.006420,0.000036,  81.049
   284.6,0.000127,0.000015,100,0.006229,0.000036,  81.049
   284.8,0.000135,0.000014,100,0.005965,0.000036,  81.046
   285.0,0.000130,0.000017,100,0.005627,0.000036,  81.050
   285.2,0.000130,0.000023,100,0.005587,0.000036,  81.042
   285.4,0.000135,0.000025,100,0.005669,0.000036,  81.039
   285.6,0.000132,0.000026,100,0.005847,0.000036,  81.039
   285.8,0.000132,0.000028,100,0.005768,0.000036,  81.031
   286.0,0.000137,0.000028,100,0.005616,0.000049,  81.028
   286.2,0.000132,0.000028,100,0.005380,0.000049,  81.035
   286.4,0.000130,0.000027,100,0.005375,0.000049,  81.025
   286.6,0.000130,0.000029,100,0.005439,0.000013,  81.020
   286.8,0.000125,0.000028,100,0.005584,0.000000,  81.016
   287.0,0.000123,0.000028,100,0.005800,-0.000013,  81.017
   287.2,0.000130,0.000028,100,0.005863,-0.000036,  81.012
   287.4,0.000127,0.000026,100,0.005904,-0.000013,  81.007
   287.6,0.000125,0.000025,100,0.005925,0.000000,  81.002
   287.8,0.000128,0.000023,100,0.005973,0.000013,  81.002
   288.0,0.000125,0.000020,100,0.006026,-0.000036,  80.997
   288.2,0.000123,0.000019,100,0.006081,-0.000013,  80.998
   288.4,0.000126,0.000019,100,0.006065,-0.000027,  80.997
   288.6,0.000123,0.000020,100,0.006018,-0.000063,  80.996
   288.8,0.000120,0.000012,100,0.005924,-0.000013,  81.005
   289.0,0.000126,0.000016,100,0.005927,0.000000,  81.010
   289.2,0.000120,0.000011,100,0.005959,-0.000022,  81.019
   289.4,0.000120,0.000011,100,0.006019,0.000013,  81.023
   289.6,0.000124,0.000010,100,0.006020,0.000027,  81.020
   289.8,0.000116,0.000007,100,0.005999,0.000040,  81.019
   290.0,0.000113,0.000010,100,0.005962,0.000049,  81.022
   290.2,0.000112,0.000010,100,0.005962,0.000049,  81.020
   290.4,0.000102,0.000008,100,0.005967,0.000049,  81.021
   290.6,0.000100,0.000004,100,0.005973,0.000036,  81.019
   290.8,0.000104,0.000002,100,0.005936,0.000036,  81.018
   291.0,0.000094,-0.000002,100,0.005873,0.000036,  81.015
   291.2,0.000090,-0.000007,N/A,0.005797,0.000036,  81.016
   291.4,0.000083,-0.000013,N/A,0.005799,0.000036,  81.016
   291.6,0.000075,-0.000019,N/A,0.005837,0.000036,  81.016
   291.8,0.000080,-0.000019,N/A,0.005906,0.000036,  81.023
