Run Name,group 1
Run Date,12:44:46 PM   03-05-15
Method Name,20% CRL group 12 4 2 14
Export Format Version, 1.00
Method ID, 2236
Points/Second, 5.00
Number of Records,   1718
Offset from Run Start Time,00:00:00
Run End Time,00:05:48
Time,Second
QuadTec 1, (280.0 nm), AU
QuadTec 2, (260.0 nm), AU
Gradient Pump,<Not Selected>
QuadTec 3, (214.0 nm), AU
QuadTec 4, (405.0 nm), AU
Conductivity,mS/cm
Trace 6,<Not Available>
GP Pressure,<Not Selected>
Volume,<Not Selected>
Fraction,<Not Available>
Time,QuadTec 1,QuadTec 2,QuadTec 3,QuadTec 4,Conductivity
     0.0,0.000844,0.000683,0.591679,0.010669,  42.517
     0.2,0.000841,0.000676,0.591718,0.010682,  42.506
     0.4,0.000842,0.000676,0.591814,0.010682,  42.494
     0.6,0.000847,0.000683,0.591941,0.010669,  42.495
     0.8,0.000843,0.000685,0.592036,0.010682,  42.512
     1.0,0.000839,0.000687,0.592125,0.010682,  42.506
     1.2,0.000845,0.000682,0.592220,0.010669,  42.489
     1.4,0.000841,0.000682,0.592284,0.010682,  42.473
     1.6,0.000841,0.000687,0.592323,0.010682,  42.458
     1.8,0.000848,0.000684,0.592342,0.010669,  42.454
     2.0,0.000844,0.000681,0.592355,0.010682,  42.457
     2.2,0.000845,0.000679,0.592336,0.010682,  42.450
     2.4,0.000846,0.000685,0.592305,0.010669,  42.448
     2.6,0.000842,0.000688,0.592368,0.010682,  42.448
     2.8,0.000849,0.000685,0.592458,0.010682,  42.443
     3.0,0.000852,0.000685,0.592566,0.010669,  42.446
     3.2,0.000848,0.000688,0.592465,0.010682,  42.439
     3.4,0.000848,0.000688,0.592274,0.010646,  42.450
     3.6,0.000844,0.000686,0.591969,0.010633,  42.482
     3.8,0.000837,0.000688,0.591810,0.010646,  42.471
     4.0,0.000844,0.000686,0.591664,0.010611,  42.452
     4.2,0.000844,0.000688,0.591544,0.010633,  42.438
     4.4,0.000840,0.000691,0.591602,0.010646,  42.431
     4.6,0.000850,0.000688,0.591729,0.010611,  42.432
     4.8,0.000211,0.000694,0.592593,0.010633,  42.429
     5.0,0.000164,0.000709,0.592593,0.010669,  42.428
     5.2,-0.000740,0.000709,0.592593,0.010678,  42.428
     5.4,-0.001312,0.000199,0.592593,0.010709,  42.426
     5.6,0.000000,-0.000828,0.592593,0.006352,  42.431
     5.8,0.000000,-0.000828,0.000000,0.000000,  42.433
     6.0,0.000000,0.000000,0.000000,0.000000,  42.436
     6.2,0.000000,0.000000,0.000000,0.000000,  42.456
     6.4,0.000000,0.000000,0.000000,0.000000,  42.456
     6.6,0.000000,0.000000,0.000000,0.000000,  42.437
     6.8,0.000000,0.000000,0.000000,0.000000,  42.429
     7.0,0.000000,0.000000,0.000000,0.000000,  42.424
     7.2,0.000000,0.000000,0.000000,0.000000,  42.422
     7.4,0.000000,0.000000,0.000000,0.000000,  42.426
     7.6,0.000000,0.000000,0.000000,0.000000,  42.422
     7.8,0.000000,0.000000,0.000000,0.000000,  42.422
     8.0,0.000000,0.000000,0.000000,0.000000,  42.425
     8.2,0.000000,0.000000,0.000000,0.000000,  42.425
     8.4,0.000000,0.000000,0.000000,0.000000,  42.423
     8.6,0.000000,0.000000,0.000000,0.000000,  42.427
     8.8,0.000000,0.000000,0.000000,0.000000,  42.448
     9.0,0.000000,0.000000,0.000000,0.000000,  42.464
     9.2,0.000084,0.000000,0.000000,0.000000,  42.457
     9.4,0.000178,0.000000,0.002534,0.000000,  42.436
     9.6,0.000278,0.000245,0.002598,0.000000,  42.434
     9.8,0.000387,0.000303,0.002725,0.000000,  42.435
    10.0,0.000494,0.000394,0.002928,0.000000,  42.432
    10.2,0.000601,0.000518,0.003215,0.000132,  42.433
    10.4,0.000739,0.000671,0.003585,0.000096,  42.436
    10.6,0.000896,0.000859,0.004020,0.000123,  42.448
    10.8,0.001071,0.001079,0.004390,0.000162,  42.449
    11.0,0.001210,0.001216,0.004779,0.000242,  42.449
    11.2,0.001344,0.001334,0.005162,0.000272,  42.454
    11.4,0.001476,0.001430,0.005373,0.000400,  42.463
    11.6,0.001575,0.001500,0.005508,0.000466,  42.485
    11.8,0.001657,0.001595,0.005540,0.000470,  42.477
    12.0,0.001721,0.001689,0.005561,0.000545,  42.463
    12.2,0.001779,0.001788,0.005538,0.000611,  42.457
    12.4,0.001820,0.001859,0.005450,0.000642,  42.453
    12.6,0.001849,0.001902,0.005456,0.000744,  42.454
    12.8,0.001872,0.001945,0.005495,0.000810,  42.457
    13.0,0.001881,0.001974,0.005557,0.000814,  42.450
    13.2,0.001878,0.001984,0.005665,0.000876,  42.454
    13.4,0.001879,0.001987,0.005790,0.000902,  42.456
    13.6,0.001859,0.001992,0.005955,0.000880,  42.457
    13.8,0.001827,0.001996,0.005967,0.000929,  42.458
    14.0,0.001815,0.001997,0.005917,0.000942,  42.464
    14.2,0.001806,0.001993,0.005784,0.000906,  42.482
    14.4,0.001803,0.001984,0.005765,0.000942,  42.508
    14.6,0.001800,0.001974,0.005771,0.000942,  42.489
    14.8,0.001789,0.001958,0.005801,0.000906,  42.467
    15.0,0.001770,0.001939,0.005750,0.000916,  42.459
    15.2,0.001753,0.001922,0.005674,0.000916,  42.459
    15.4,0.001731,0.001897,0.005574,0.000902,  42.455
    15.6,0.001714,0.001870,0.005517,0.000925,  42.458
    15.8,0.001700,0.001854,0.005460,0.000925,  42.457
    16.0,0.001665,0.001828,0.005390,0.000925,  42.456
    16.2,0.001624,0.001796,0.005422,0.000898,  42.459
    16.4,0.001572,0.001765,0.005484,0.000898,  42.456
    16.6,0.001537,0.001731,0.005592,0.000898,  42.459
    16.8,0.001511,0.001688,0.005592,0.000872,  42.474
    17.0,0.001487,0.001646,0.005528,0.000845,  42.492
    17.2,0.001468,0.001615,0.005413,0.000783,  42.479
    17.4,0.001445,0.001583,0.005374,0.000744,  42.462
    17.6,0.001424,0.001561,0.005354,0.000691,  42.460
    17.8,0.001408,0.001532,0.005322,0.000691,  42.455
    18.0,0.001382,0.001511,0.005309,0.000678,  42.456
    18.2,0.001343,0.001496,0.004843,0.000678,  42.450
    18.4,0.001314,0.001475,0.004197,0.000691,  42.451
    18.6,0.001285,0.001446,0.003396,0.000642,  42.456
    18.8,0.001253,0.001414,0.003197,0.000651,  42.459
    19.0,0.001232,0.001399,0.003191,0.000651,  42.459
    19.2,0.001209,0.001380,0.003399,0.000602,  42.456
    19.4,0.001194,0.001359,0.003568,0.000598,  42.465
    19.6,0.001186,0.001339,0.003811,0.000572,  42.493
    19.8,0.001174,0.001321,0.004135,0.000510,  42.509
    20.0,0.001168,0.001306,0.004272,0.000479,  42.485
    20.2,0.001159,0.001295,0.004359,0.000466,  42.470
    20.4,0.001151,0.001282,0.004389,0.000444,  42.460
    20.6,0.001139,0.001276,0.004206,0.000479,  42.462
    20.8,0.001126,0.001270,0.003918,0.000479,  42.458
    21.0,0.001121,0.001263,0.003485,0.000457,  42.448
    21.2,0.001115,0.001256,0.003522,0.000479,  42.432
    21.4,0.001073,0.001252,0.003735,0.000479,  42.427
    21.6,0.001020,0.001225,0.004111,0.000444,  42.427
    21.8,0.000960,0.001185,0.004275,0.000466,  42.424
    22.0,0.000946,0.001136,0.004387,0.000453,  42.428
    22.2,0.000943,0.001123,0.004463,0.000417,  42.439
    22.4,0.000958,0.001118,0.004512,0.000453,  42.450
    22.6,0.000963,0.001125,0.004511,0.000427,  42.443
    22.8,0.000962,0.001127,0.004479,0.000413,  42.438
    23.0,0.000968,0.001132,0.004503,0.000422,  42.438
    23.2,0.000971,0.001134,0.004534,0.000436,  42.435
    23.4,0.000971,0.001132,0.004577,0.000436,  42.439
    23.6,0.000971,0.001125,0.004563,0.000436,  42.441
    23.8,0.000975,0.001116,0.004519,0.000449,  42.442
    24.0,0.000955,0.001107,0.004443,0.000436,  42.444
    24.2,0.000919,0.001093,0.004462,0.000436,  42.447
    24.4,0.000888,0.001086,0.004507,0.000449,  42.445
    24.6,0.000882,0.001082,0.004565,0.000436,  42.447
    24.8,0.000891,0.001073,0.004595,0.000436,  42.459
    25.0,0.000911,0.001076,0.004625,0.000422,  42.474
    25.2,0.000920,0.001081,0.004649,0.000383,  42.493
    25.4,0.000928,0.001079,0.004585,0.000330,  42.476
    25.6,0.000940,0.001076,0.004465,0.000330,  42.471
    25.8,0.000943,0.001071,0.004309,0.000343,  42.466
    26.0,0.000940,0.001061,0.004252,0.000370,  42.472
    26.2,0.000931,0.001055,0.004208,0.000383,  42.469
    26.4,0.000931,0.001050,0.004208,0.000360,  42.472
    26.6,0.000926,0.001052,0.004221,0.000396,  42.474
    26.8,0.000926,0.001062,0.003707,0.000409,  42.478
    27.0,0.000927,0.001049,0.003015,0.000422,  42.478
    27.2,0.000912,0.001025,0.002117,0.000387,  42.478
    27.4,0.000895,0.000993,0.002105,0.000374,  42.482
    27.6,0.000901,0.000985,0.002422,0.000360,  42.496
    27.8,0.000910,0.000999,0.003083,0.000299,  42.505
    28.0,0.000915,0.001015,0.003169,0.000308,  42.491
    28.2,0.000930,0.001021,0.003131,0.000308,  42.486
    28.4,0.000947,0.001033,0.002974,0.000259,  42.489
    28.6,0.000977,0.001051,0.003054,0.000308,  42.487
    28.8,0.000991,0.001069,0.003190,0.000321,  42.493
    29.0,0.001011,0.001089,0.003370,0.000285,  42.493
    29.2,0.001035,0.001111,0.003444,0.000334,  42.490
    29.4,0.001043,0.001133,0.003488,0.000360,  42.494
    29.6,0.001055,0.001142,0.003500,0.000351,  42.501
    29.8,0.001058,0.001147,0.003530,0.000413,  42.504
    30.0,0.001062,0.001145,0.003549,0.000453,  42.506
    30.2,0.001077,0.001163,0.003580,0.000444,  42.514
    30.4,0.001091,0.001184,0.003518,0.000479,  42.530
    30.6,0.001109,0.001204,0.003380,0.000493,  42.532
    30.8,0.001123,0.001216,0.003200,0.000483,  42.522
    31.0,0.001148,0.001232,0.003218,0.000506,  42.519
    31.2,0.001159,0.001250,0.003305,0.000519,  42.518
    31.4,0.001171,0.001256,0.003434,0.000497,  42.521
    31.6,0.001184,0.001268,0.003515,0.000545,  42.527
    31.8,0.001190,0.001275,0.003596,0.000559,  42.532
    32.0,0.001183,0.001279,0.003665,0.000523,  42.537
    32.2,0.001177,0.001295,0.003765,0.000572,  42.538
    32.4,0.001178,0.001309,0.003899,0.000585,  42.539
    32.6,0.001174,0.001310,0.004039,0.000563,  42.545
    32.8,0.001177,0.001315,0.004089,0.000598,  42.547
    33.0,0.001190,0.001310,0.004100,0.000585,  42.561
    33.2,0.001200,0.001320,0.004068,0.000523,  42.564
    33.4,0.001224,0.001343,0.004024,0.000493,  42.553
    33.6,0.001250,0.001365,0.003943,0.000493,  42.552
    33.8,0.001276,0.001384,0.003843,0.000483,  42.549
    34.0,0.001302,0.001404,0.003824,0.000559,  42.557
    34.2,0.001331,0.001428,0.003819,0.000585,  42.558
    34.4,0.001357,0.001458,0.003838,0.000576,  42.555
    34.6,0.001375,0.001485,0.003733,0.000625,  42.558
    34.8,0.001392,0.001518,0.003578,0.000638,  42.561
    35.0,0.001410,0.001536,0.003366,0.000616,  42.563
    35.2,0.001427,0.001548,0.003105,0.000664,  42.562
    35.4,0.001449,0.001560,0.003174,0.000664,  42.563
    35.6,0.001465,0.001581,0.003337,0.000678,  42.573
    35.8,0.001498,0.001612,0.003593,0.000678,  42.600
    36.0,0.001537,0.001650,0.003167,0.000678,  42.597
    36.2,0.001565,0.001678,0.002456,0.000704,  42.581
    36.4,0.001600,0.001710,0.001448,0.000668,  42.577
    36.6,0.001628,0.001742,0.001510,0.000704,  42.577
    36.8,0.001661,0.001772,0.001972,0.000730,  42.578
    37.0,0.001693,0.001800,0.002835,0.000708,  42.583
    37.2,0.001725,0.001836,0.003223,0.000757,  42.582
    37.4,0.001739,0.001863,0.003542,0.000770,  42.574
    37.6,0.001742,0.001884,0.003837,0.000748,  42.580
    37.8,0.001746,0.001911,0.004101,0.000810,  42.576
    38.0,0.001763,0.001931,0.004348,0.000823,  42.585
    38.2,0.001795,0.001962,0.004558,0.000814,  42.584
    38.4,0.001842,0.001996,0.004697,0.000863,  42.594
    38.6,0.001873,0.002029,0.004786,0.000863,  42.591
    38.8,0.001914,0.002067,0.004837,0.000814,  42.584
    39.0,0.001965,0.002109,0.005032,0.000810,  42.582
    39.2,0.001999,0.002158,0.005266,0.000823,  42.583
    39.4,0.002037,0.002199,0.005550,0.000801,  42.580
    39.6,0.002079,0.002246,0.005589,0.000876,  42.585
    39.8,0.002115,0.002297,0.005504,0.000902,  42.582
    40.0,0.002162,0.002345,0.005339,0.000880,  42.584
    40.2,0.002219,0.002399,0.005473,0.000916,  42.582
    40.4,0.002264,0.002453,0.005677,0.000942,  42.583
    40.6,0.002314,0.002501,0.005995,0.000920,  42.584
    40.8,0.002370,0.002553,0.006217,0.000955,  42.586
    41.0,0.002429,0.002603,0.006433,0.000968,  42.593
    41.2,0.002489,0.002680,0.006654,0.000933,  42.609
    41.4,0.002563,0.002776,0.006662,0.000942,  42.600
    41.6,0.002636,0.002888,0.006583,0.000968,  42.581
    41.8,0.002720,0.002979,0.006390,0.000973,  42.578
    42.0,0.002816,0.003080,0.006537,0.001061,  42.579
    42.2,0.002928,0.003182,0.006798,0.001101,  42.569
    42.4,0.003027,0.003280,0.007161,0.001131,  42.553
    42.6,0.003142,0.003376,0.007435,0.001220,  42.555
    42.8,0.003267,0.003480,0.007724,0.001273,  42.553
    43.0,0.003359,0.003587,0.008019,0.001290,  42.551
    43.2,0.003450,0.003696,0.008231,0.001365,  42.549
    43.4,0.003542,0.003811,0.008379,0.001418,  42.549
    43.6,0.003641,0.003914,0.008501,0.001436,  42.554
    43.8,0.003752,0.004016,0.008643,0.001511,  42.566
    44.0,0.003866,0.004121,0.008803,0.001537,  42.561
    44.2,0.003962,0.004233,0.008932,0.001555,  42.549
    44.4,0.004062,0.004352,0.009067,0.001604,  42.547
    44.6,0.004153,0.004487,0.009208,0.001617,  42.546
    44.8,0.004237,0.004590,0.009350,0.001670,  42.543
    45.0,0.004332,0.004681,0.009485,0.001723,  42.547
    45.2,0.004414,0.004764,0.009536,0.001789,  42.547
    45.4,0.004457,0.004822,0.009537,0.001842,  42.542
    45.6,0.004493,0.004874,0.009487,0.001873,  42.546
    45.8,0.004499,0.004903,0.009576,0.001935,  42.541
    46.0,0.004510,0.004934,0.009716,0.001975,  42.544
    46.2,0.004529,0.004973,0.009895,0.001979,  42.545
    46.4,0.004534,0.005004,0.009920,0.002028,  42.557
    46.6,0.004533,0.005017,0.009880,0.002041,  42.570
    46.8,0.004543,0.005017,0.009783,0.002019,  42.550
    47.0,0.004540,0.005015,0.009680,0.002028,  42.542
    47.2,0.004501,0.004997,0.009552,0.002028,  42.543
    47.4,0.004461,0.004973,0.009385,0.002019,  42.539
    47.6,0.004388,0.004941,0.009224,0.002054,  42.537
    47.8,0.004319,0.004903,0.009026,0.002054,  42.541
    48.0,0.004259,0.004847,0.008814,0.002019,  42.539
    48.2,0.004185,0.004777,0.008826,0.002041,  42.540
    48.4,0.004105,0.004700,0.008909,0.002028,  42.538
    48.6,0.004030,0.004626,0.009086,0.001966,  42.537
    48.8,0.003945,0.004552,0.008963,0.001961,  42.539
    49.0,0.003871,0.004476,0.008732,0.001922,  42.551
    49.2,0.003816,0.004386,0.008380,0.001833,  42.557
    49.4,0.003755,0.004298,0.008090,0.001789,  42.545
    49.6,0.003694,0.004206,0.007796,0.001763,  42.541
    49.8,0.003623,0.004107,0.007457,0.001701,  42.543
    50.0,0.003560,0.004011,0.007187,0.001710,  42.539
    50.2,0.003492,0.003907,0.006937,0.001696,  42.542
    50.4,0.003415,0.003812,0.006701,0.001634,  42.539
    50.6,0.003332,0.003723,0.006464,0.001657,  42.538
    50.8,0.003256,0.003631,0.006247,0.001630,  42.541
    51.0,0.003170,0.003528,0.006019,0.001604,  42.536
    51.2,0.003092,0.003419,0.005877,0.001600,  42.537
    51.4,0.003014,0.003303,0.005761,0.001573,  42.540
    51.6,0.002926,0.003216,0.005702,0.001533,  42.550
    51.8,0.002848,0.003136,0.005636,0.001507,  42.564
    52.0,0.002767,0.003057,0.005582,0.001480,  42.569
    52.2,0.002681,0.002983,0.005555,0.001454,  42.558
    52.4,0.002599,0.002912,0.005420,0.001427,  42.550
    52.6,0.002520,0.002842,0.005268,0.001401,  42.539
    52.8,0.002443,0.002773,0.005058,0.001352,  42.544
    53.0,0.002380,0.002701,0.004925,0.001348,  42.544
    53.2,0.002313,0.002630,0.004810,0.001335,  42.552
    53.4,0.002233,0.002554,0.004689,0.001308,  42.548
    53.6,0.002157,0.002478,0.004594,0.001282,  42.546
    53.8,0.002079,0.002393,0.004562,0.001229,  42.550
    54.0,0.002010,0.002325,0.004569,0.001189,  42.546
    54.2,0.001955,0.002263,0.004620,0.001176,  42.550
    54.4,0.001915,0.002209,0.004530,0.001136,  42.559
    54.6,0.001862,0.002147,0.004383,0.001083,  42.573
    54.8,0.001815,0.002090,0.004186,0.001017,  42.553
    55.0,0.001775,0.002039,0.004090,0.000925,  42.550
    55.2,0.001728,0.001995,0.004012,0.000898,  42.551
    55.4,0.001690,0.001945,0.003954,0.000863,  42.552
    55.6,0.001656,0.001907,0.003847,0.000863,  42.552
    55.8,0.001620,0.001874,0.003689,0.000863,  42.548
    56.0,0.001588,0.001828,0.003513,0.000827,  42.553
    56.2,0.001568,0.001782,0.003462,0.000836,  42.555
    56.4,0.001538,0.001744,0.003456,0.000823,  42.557
    56.6,0.001512,0.001712,0.003495,0.000787,  42.559
    56.8,0.001495,0.001690,0.003468,0.000797,  42.562
    57.0,0.001462,0.001673,0.003434,0.000783,  42.565
    57.2,0.001433,0.001637,0.003395,0.000721,  42.580
    57.4,0.001401,0.001606,0.003337,0.000717,  42.581
    57.6,0.001374,0.001566,0.003254,0.000717,  42.569
    57.8,0.001353,0.001532,0.003179,0.000682,  42.556
    58.0,0.001333,0.001500,0.003109,0.000704,  42.555
    58.2,0.001316,0.001463,0.003022,0.000691,  42.552
    58.4,0.001301,0.001441,0.002941,0.000655,  42.551
    58.6,0.001274,0.001423,0.002952,0.000678,  42.549
    58.8,0.001266,0.001408,0.003002,0.000678,  42.551
    59.0,0.001222,0.001370,0.003069,0.000664,  42.551
    59.2,0.001164,0.001333,0.003106,0.000687,  42.550
    59.4,0.001101,0.001286,0.003151,0.000687,  42.547
    59.6,0.001079,0.001254,0.003178,0.000673,  42.550
    59.8,0.001064,0.001238,0.003108,0.000683,  42.569
    60.0,0.001062,0.001224,0.003002,0.000669,  42.566
    60.2,0.001043,0.001199,0.002846,0.000607,  42.549
    60.4,0.001038,0.001185,0.002777,0.000581,  42.547
    60.6,0.001031,0.001163,0.002745,0.000581,  42.549
    60.8,0.001006,0.001143,0.002727,0.000555,  42.545
    61.0,0.000993,0.001128,0.002745,0.000555,  42.548
    61.2,0.000969,0.001113,0.002795,0.000555,  42.542
    61.4,0.000936,0.001090,0.002870,0.000541,  42.542
    61.6,0.000914,0.001072,0.002933,0.000528,  42.548
    61.8,0.000876,0.001053,0.003015,0.000528,  42.550
    62.0,0.000852,0.001033,0.003103,0.000479,  42.551
    62.2,0.000844,0.001012,0.003197,0.000502,  42.548
    62.4,0.000836,0.000994,0.003196,0.000488,  42.559
    62.6,0.000823,0.000978,0.003164,0.000462,  42.577
    62.8,0.000821,0.000975,0.003112,0.000409,  42.565
    63.0,0.000815,0.000972,0.003074,0.000330,  42.555
    63.2,0.000808,0.000960,0.003010,0.000330,  42.544
    63.4,0.000812,0.000948,0.002960,0.000330,  42.535
    63.6,0.000815,0.000941,0.002935,0.000330,  42.535
    63.8,0.000805,0.000934,0.002916,0.000343,  42.539
    64.0,0.000794,0.000929,0.002904,0.000356,  42.539
    64.2,0.000782,0.000930,0.002948,0.000356,  42.541
    64.4,0.000767,0.000912,0.002999,0.000370,  42.540
    64.6,0.000752,0.000883,0.003100,0.000370,  42.542
    64.8,0.000744,0.000852,0.003119,0.000356,  42.540
    65.0,0.000732,0.000810,0.003106,0.000356,  42.546
    65.2,0.000739,0.000803,0.003075,0.000343,  42.563
    65.4,0.000755,0.000811,0.003086,0.000304,  42.557
    65.6,0.000748,0.000823,0.003118,0.000304,  42.547
    65.8,0.000751,0.000824,0.003162,0.000317,  42.549
    66.0,0.000761,0.000833,0.003180,0.000304,  42.550
    66.2,0.000763,0.000845,0.003173,0.000317,  42.547
    66.4,0.000775,0.000851,0.003180,0.000317,  42.551
    66.6,0.000790,0.000862,0.003174,0.000317,  42.552
    66.8,0.000772,0.000881,0.003137,0.000330,  42.554
    67.0,0.000748,0.000876,0.003107,0.000330,  42.555
    67.2,0.000713,0.000865,0.002539,0.000330,  42.559
    67.4,0.000707,0.000850,0.001692,0.000343,  42.556
    67.6,0.000719,0.000848,0.000574,0.000356,  42.560
    67.8,0.000744,0.000857,0.000500,0.000370,  42.572
    68.0,0.000756,0.000874,0.000784,0.000370,  42.586
    68.2,0.000758,0.000881,0.001462,0.000356,  42.579
    68.4,0.000758,0.000888,0.001692,0.000330,  42.566
    68.6,0.000764,0.000902,0.001884,0.000343,  42.563
    68.8,0.000769,0.000903,0.002040,0.000356,  42.567
    69.0,0.000777,0.000908,0.002188,0.000356,  42.567
    69.2,0.000786,0.000907,0.002331,0.000370,  42.568
    69.4,0.000773,0.000902,0.002461,0.000370,  42.573
    69.6,0.000763,0.000901,0.002618,0.000370,  42.576
    69.8,0.000744,0.000892,0.002795,0.000370,  42.581
    70.0,0.000731,0.000882,0.002979,0.000370,  42.580
    70.2,0.000724,0.000883,0.003016,0.000370,  42.584
    70.4,0.000727,0.000878,0.002965,0.000343,  42.588
    70.6,0.000729,0.000875,0.002831,0.000304,  42.601
    70.8,0.000743,0.000873,0.002705,0.000251,  42.603
    71.0,0.000768,0.000867,0.002554,0.000251,  42.603
    71.2,0.000778,0.000874,0.002360,0.000228,  42.606
    71.4,0.000805,0.000885,0.002135,0.000277,  42.605
    71.6,0.000833,0.000900,0.002104,0.000304,  42.612
    71.8,0.000846,0.000908,0.002084,0.000330,  42.615
    72.0,0.000871,0.000928,0.002121,0.000370,  42.622
    72.2,0.000882,0.000950,0.002171,0.000396,  42.622
    72.4,0.000878,0.000952,0.002208,0.000422,  42.624
    72.6,0.000885,0.000957,0.002290,0.000449,  42.633
    72.8,0.000879,0.000954,0.002215,0.000462,  42.630
    73.0,0.000869,0.000954,0.002039,0.000475,  42.632
    73.2,0.000876,0.000958,0.001809,0.000475,  42.644
    73.4,0.000879,0.000963,0.001802,0.000475,  42.654
    73.6,0.000878,0.000961,0.001864,0.000488,  42.649
    73.8,0.000884,0.000961,0.002000,0.000488,  42.644
    74.0,0.000893,0.000959,0.002019,0.000488,  42.646
    74.2,0.000892,0.000958,0.001987,0.000488,  42.643
    74.4,0.000886,0.000960,0.001945,0.000488,  42.644
    74.6,0.000880,0.000964,0.001938,0.000488,  42.649
    74.8,0.000865,0.000967,0.001944,0.000502,  42.647
    75.0,0.000842,0.000953,0.001949,0.000502,  42.653
    75.2,0.000820,0.000942,0.001962,0.000502,  42.649
    75.4,0.000804,0.000927,0.001994,0.000515,  42.651
    75.6,0.000804,0.000914,0.002034,0.000515,  42.652
    75.8,0.000810,0.000901,0.002058,0.000502,  42.658
    76.0,0.000813,0.000892,0.002043,0.000462,  42.663
    76.2,0.000810,0.000885,0.002047,0.000422,  42.659
    76.4,0.000807,0.000880,0.002022,0.000370,  42.656
    76.6,0.000807,0.000887,0.001953,0.000356,  42.652
    76.8,0.000807,0.000882,0.001879,0.000383,  42.646
    77.0,0.000804,0.000882,0.001903,0.000422,  42.653
    77.2,0.000801,0.000879,0.001959,0.000449,  42.649
    77.4,0.000801,0.000872,0.002063,0.000462,  42.649
    77.6,0.000796,0.000873,0.002157,0.000449,  42.648
    77.8,0.000787,0.000866,0.002270,0.000462,  42.651
    78.0,0.000778,0.000854,0.002403,0.000475,  42.651
    78.2,0.000767,0.000848,0.002401,0.000475,  42.650
    78.4,0.000755,0.000842,0.002351,0.000475,  42.652
    78.6,0.000755,0.000837,0.002243,0.000462,  42.664
    78.8,0.000752,0.000832,0.002173,0.000422,  42.671
    79.0,0.000752,0.000831,0.002129,0.000422,  42.658
    79.2,0.000752,0.000824,0.002073,0.000436,  42.648
    79.4,0.000749,0.000812,0.002034,0.000422,  42.648
    79.6,0.000743,0.000806,0.001996,0.000422,  42.647
    79.8,0.000746,0.000801,0.001978,0.000400,  42.647
    80.0,0.000749,0.000793,0.001960,0.000436,  42.647
    80.2,0.000752,0.000806,0.001941,0.000436,  42.650
    80.4,0.000726,0.000790,0.001910,0.000449,  42.645
    80.6,0.000682,0.000758,0.001886,0.000413,  42.643
    80.8,0.000621,0.000728,0.001905,0.000427,  42.649
    81.0,0.000607,0.000720,0.001943,0.000440,  42.647
    81.2,0.000604,0.000706,0.001994,0.000378,  42.654
    81.4,0.000612,0.000702,0.001982,0.000400,  42.664
    81.6,0.000610,0.000703,0.001938,0.000387,  42.657
    81.8,0.000604,0.000703,0.001882,0.000325,  42.649
    82.0,0.000595,0.000698,0.001882,0.000321,  42.654
    82.2,0.000595,0.000693,0.001888,0.000321,  42.650
    82.4,0.000598,0.000694,0.001933,0.000272,  42.654
    82.6,0.000601,0.000690,0.001765,0.000308,  42.650
    82.8,0.000580,0.000694,0.001497,0.000308,  42.651
    83.0,0.000546,0.000683,0.001143,0.000294,  42.652
    83.2,0.000496,0.000676,0.001161,0.000304,  42.654
    83.4,0.000487,0.000661,0.001343,0.000304,  42.654
    83.6,0.000487,0.000647,0.001636,0.000304,  42.654
    83.8,0.000496,0.000637,0.001449,0.000290,  42.664
    84.0,0.000502,0.000625,0.001093,0.000264,  42.673
    84.2,0.000509,0.000623,0.000558,0.000224,  42.677
    84.4,0.000516,0.000620,0.000589,0.000172,  42.659
    84.6,0.000515,0.000619,0.000819,0.000158,  42.653
    84.8,0.000523,0.000621,0.001236,0.000172,  42.651
    85.0,0.000522,0.000618,0.001404,0.000185,  42.651
    85.2,0.000522,0.000628,0.001552,0.000198,  42.655
    85.4,0.000522,0.000623,0.001669,0.000211,  42.654
    85.6,0.000516,0.000618,0.001620,0.000211,  42.654
    85.8,0.000505,0.000610,0.001497,0.000224,  42.658
    86.0,0.000496,0.000583,0.001268,0.000224,  42.658
    86.2,0.000482,0.000559,0.001293,0.000211,  42.659
    86.4,0.000461,0.000519,0.001374,0.000211,  42.661
    86.6,0.000458,0.000510,0.001516,0.000185,  42.669
    86.8,0.000458,0.000521,0.001597,0.000145,  42.668
    87.0,0.000467,0.000537,0.001677,0.000145,  42.665
    87.2,0.000473,0.000538,0.001751,0.000145,  42.661
    87.4,0.000476,0.000548,0.001775,0.000145,  42.663
    87.6,0.000479,0.000552,0.001768,0.000145,  42.658
    87.8,0.000484,0.000552,0.001750,0.000158,  42.661
    88.0,0.000490,0.000561,0.001799,0.000172,  42.663
    88.2,0.000490,0.000566,0.001855,0.000172,  42.662
    88.4,0.000479,0.000550,0.001942,0.000149,  42.666
    88.6,0.000455,0.000526,0.002048,0.000185,  42.668
    88.8,0.000423,0.000501,0.002073,0.000172,  42.665
    89.0,0.000421,0.000496,0.002098,0.000185,  42.669
    89.2,0.000429,0.000500,0.002092,0.000198,  42.677
    89.4,0.000444,0.000522,0.002048,0.000198,  42.686
    89.6,0.000453,0.000528,0.001968,0.000198,  42.681
    89.8,0.000458,0.000534,0.001862,0.000185,  42.676
    90.0,0.000467,0.000545,0.001593,0.000158,  42.675
    90.2,0.000476,0.000544,0.001252,0.000158,  42.675
    90.4,0.000479,0.000553,0.000805,0.000185,  42.672
    90.6,0.000482,0.000559,0.000761,0.000185,  42.671
    90.8,0.000470,0.000559,0.000860,0.000185,  42.674
    91.0,0.000450,0.000558,0.001115,0.000198,  42.671
    91.2,0.000421,0.000552,0.001328,0.000185,  42.674
    91.4,0.000412,0.000551,0.001584,0.000198,  42.672
    91.6,0.000412,0.000546,0.001859,0.000198,  42.677
    91.8,0.000421,0.000547,0.001927,0.000198,  42.676
    92.0,0.000438,0.000540,0.001888,0.000172,  42.688
    92.2,0.000464,0.000545,0.001754,0.000132,  42.685
    92.4,0.000496,0.000549,0.001715,0.000066,  42.677
    92.6,0.000522,0.000561,0.001683,0.000079,  42.675
    92.8,0.000540,0.000579,0.001632,0.000119,  42.672
    93.0,0.000554,0.000591,0.001526,0.000158,  42.675
    93.2,0.000566,0.000621,0.001377,0.000198,  42.673
    93.4,0.000575,0.000634,0.001197,0.000238,  42.673
    93.6,0.000578,0.000636,0.001216,0.000264,  42.677
    93.8,0.000580,0.000645,0.001302,0.000290,  42.678
    94.0,0.000583,0.000653,0.001490,0.000317,  42.681
    94.2,0.000586,0.000656,0.001526,0.000330,  42.682
    94.4,0.000589,0.000664,0.001519,0.000343,  42.683
    94.6,0.000598,0.000663,0.001488,0.000343,  42.690
    94.8,0.000601,0.000664,0.001357,0.000330,  42.702
    95.0,0.000607,0.000662,0.001133,0.000343,  42.700
    95.2,0.000612,0.000659,0.000854,0.000343,  42.692
    95.4,0.000615,0.000663,0.000865,0.000330,  42.687
    95.6,0.000618,0.000670,0.001008,0.000343,  42.684
    95.8,0.000621,0.000670,0.001250,0.000343,  42.683
    96.0,0.000624,0.000673,0.001318,0.000343,  42.685
    96.2,0.000627,0.000681,0.001367,0.000356,  42.681
    96.4,0.000612,0.000680,0.001393,0.000356,  42.681
    96.6,0.000586,0.000670,0.001424,0.000370,  42.679
    96.8,0.000551,0.000667,0.001469,0.000370,  42.678
    97.0,0.000548,0.000658,0.001501,0.000370,  42.680
    97.2,0.000554,0.000649,0.001495,0.000370,  42.682
    97.4,0.000572,0.000633,0.001457,0.000370,  42.695
    97.6,0.000580,0.000631,0.001408,0.000321,  42.688
    97.8,0.000586,0.000630,0.001326,0.000330,  42.676
    98.0,0.000589,0.000641,0.001308,0.000304,  42.675
    98.2,0.000591,0.000646,0.001284,0.000317,  42.671
    98.4,0.000597,0.000648,0.001265,0.000330,  42.670
    98.6,0.000600,0.000660,0.001302,0.000343,  42.669
    98.8,0.000593,0.000667,0.001377,0.000356,  42.667
    99.0,0.000590,0.000672,0.001476,0.000356,  42.668
    99.2,0.000588,0.000674,0.001538,0.000356,  42.669
    99.4,0.000585,0.000669,0.001614,0.000370,  42.673
    99.6,0.000579,0.000665,0.001678,0.000370,  42.669
    99.8,0.000574,0.000661,0.001666,0.000370,  42.673
   100.0,0.000576,0.000661,0.001615,0.000356,  42.683
   100.2,0.000582,0.000658,0.001528,0.000343,  42.703
   100.4,0.000588,0.000660,0.001490,0.000304,  42.687
   100.6,0.000594,0.000665,0.001464,0.000317,  42.680
   100.8,0.000603,0.000664,0.001446,0.000330,  42.675
   101.0,0.000608,0.000663,0.001459,0.000343,  42.675
   101.2,0.000614,0.000670,0.001477,0.000356,  42.675
   101.4,0.000614,0.000670,0.001502,0.000356,  42.674
   101.6,0.000611,0.000673,0.001309,0.000370,  42.677
   101.8,0.000594,0.000684,0.001004,0.000370,  42.678
   102.0,0.000562,0.000668,0.000607,0.000370,  42.681
   102.2,0.000521,0.000639,0.000638,0.000370,  42.680
   102.4,0.000507,0.000591,0.000838,0.000370,  42.680
   102.6,0.000501,0.000580,0.001180,0.000356,  42.689
   102.8,0.000501,0.000571,0.001342,0.000330,  42.705
   103.0,0.000498,0.000571,0.001498,0.000330,  42.696
   103.2,0.000492,0.000564,0.001629,0.000317,  42.689
   103.4,0.000489,0.000562,0.001716,0.000277,  42.682
   103.6,0.000493,0.000559,0.001773,0.000264,  42.681
   103.8,0.000487,0.000557,0.001786,0.000264,  42.684
   104.0,0.000484,0.000555,0.001835,0.000251,  42.686
   104.2,0.000476,0.000556,0.001892,0.000238,  42.686
   104.4,0.000455,0.000552,0.001935,0.000224,  42.688
   104.6,0.000426,0.000539,0.001948,0.000224,  42.685
   104.8,0.000395,0.000521,0.001937,0.000238,  42.692
   105.0,0.000380,0.000507,0.001926,0.000224,  42.692
   105.2,0.000380,0.000506,0.001914,0.000211,  42.696
   105.4,0.000401,0.000503,0.001895,0.000198,  42.706
   105.6,0.000400,0.000497,0.001850,0.000172,  42.717
   105.8,0.000403,0.000509,0.001869,0.000132,  42.706
   106.0,0.000409,0.000518,0.001900,0.000132,  42.686
   106.2,0.000421,0.000520,0.001937,0.000132,  42.682
   106.4,0.000429,0.000526,0.001949,0.000145,  42.677
   106.6,0.000438,0.000530,0.001955,0.000145,  42.684
   106.8,0.000438,0.000530,0.001949,0.000110,  42.687
   107.0,0.000432,0.000532,0.001943,0.000158,  42.690
   107.2,0.000421,0.000527,0.002038,0.000145,  42.687
   107.4,0.000409,0.000516,0.002151,0.000158,  42.688
   107.6,0.000397,0.000498,0.002302,0.000158,  42.691
   107.8,0.000380,0.000474,0.002333,0.000158,  42.694
   108.0,0.000380,0.000464,0.002301,0.000145,  42.705
   108.2,0.000386,0.000474,0.002239,0.000119,  42.714
   108.4,0.000398,0.000488,0.002213,0.000079,  42.720
   108.6,0.000400,0.000489,0.002169,0.000079,  42.711
   108.8,0.000406,0.000500,0.002145,0.000079,  42.705
   109.0,0.000415,0.000511,0.002145,0.000092,  42.706
   109.2,0.000423,0.000512,0.002133,0.000106,  42.708
   109.4,0.000426,0.000512,0.002133,0.000119,  42.707
   109.6,0.000426,0.000512,0.002158,0.000119,  42.713
   109.8,0.000415,0.000509,0.002183,0.000132,  42.712
   110.0,0.000397,0.000494,0.002209,0.000132,  42.716
   110.2,0.000368,0.000474,0.002240,0.000154,  42.729
   110.4,0.000362,0.000444,0.002277,0.000168,  42.733
   110.6,0.000365,0.000442,0.002301,0.000132,  42.742
   110.8,0.000377,0.000447,0.002270,0.000154,  42.755
   111.0,0.000389,0.000465,0.002214,0.000168,  42.759
   111.2,0.000397,0.000474,0.002103,0.000132,  42.747
   111.4,0.000409,0.000488,0.002096,0.000119,  42.746
   111.6,0.000415,0.000501,0.002140,0.000132,  42.748
   111.8,0.000415,0.000506,0.002189,0.000132,  42.745
   112.0,0.000412,0.000513,0.001946,0.000154,  42.749
   112.2,0.000406,0.000512,0.001585,0.000181,  42.750
   112.4,0.000394,0.000512,0.001077,0.000145,  42.749
   112.6,0.000383,0.000509,0.001135,0.000145,  42.754
   112.8,0.000360,0.000506,0.001397,0.000158,  42.752
   113.0,0.000365,0.000503,0.001859,0.000158,  42.756
   113.2,0.000380,0.000502,0.001939,0.000145,  42.753
   113.4,0.000400,0.000511,0.001945,0.000119,  42.766
   113.6,0.000423,0.000519,0.001837,0.000092,  42.770
   113.8,0.000453,0.000532,0.001872,0.000040,  42.761
   114.0,0.000482,0.000555,0.001965,0.000053,  42.759
   114.2,0.000505,0.000568,0.002077,0.000092,  42.756
   114.4,0.000525,0.000586,0.002145,0.000145,  42.758
   114.6,0.000550,0.000604,0.002220,0.000172,  42.762
   114.8,0.000560,0.000618,0.002302,0.000198,  42.768
   115.0,0.000575,0.000636,0.002371,0.000224,  42.767
   115.2,0.000590,0.000647,0.002459,0.000238,  42.773
   115.4,0.000589,0.000651,0.002528,0.000228,  42.772
   115.6,0.000592,0.000652,0.002617,0.000277,  42.773
   115.8,0.000593,0.000646,0.002605,0.000277,  42.779
   116.0,0.000592,0.000645,0.002587,0.000277,  42.785
   116.2,0.000601,0.000655,0.002551,0.000264,  42.799
   116.4,0.000619,0.000666,0.002577,0.000251,  42.809
   116.6,0.000621,0.000670,0.002621,0.000251,  42.797
   116.8,0.000627,0.000677,0.002690,0.000251,  42.793
   117.0,0.000640,0.000681,0.002759,0.000264,  42.798
   117.2,0.000639,0.000681,0.002836,0.000277,  42.795
   117.4,0.000647,0.000686,0.002905,0.000290,  42.797
   117.6,0.000660,0.000684,0.003025,0.000277,  42.799
   117.8,0.000641,0.000676,0.003185,0.000277,  42.795
   118.0,0.000615,0.000674,0.003337,0.000304,  42.800
   118.2,0.000580,0.000662,0.003477,0.000304,  42.801
   118.4,0.000576,0.000657,0.003606,0.000317,  42.804
   118.6,0.000594,0.000652,0.003721,0.000317,  42.801
   118.8,0.000623,0.000654,0.003736,0.000317,  42.822
   119.0,0.000636,0.000649,0.003669,0.000304,  42.833
   119.2,0.000657,0.000656,0.003559,0.000277,  42.819
   119.4,0.000690,0.000662,0.003712,0.000251,  42.805
   119.6,0.000720,0.000675,0.003957,0.000251,  42.807
   119.8,0.000737,0.000689,0.004298,0.000251,  42.806
   120.0,0.000752,0.000697,0.004541,0.000264,  42.810
   120.2,0.000773,0.000718,0.004803,0.000277,  42.807
   120.4,0.000785,0.000731,0.005040,0.000290,  42.805
   120.6,0.000787,0.000740,0.004768,0.000290,  42.809
   120.8,0.000801,0.000755,0.004252,0.000290,  42.805
   121.0,0.000819,0.000766,0.003455,0.000304,  42.807
   121.2,0.000839,0.000769,0.003740,0.000304,  42.805
   121.4,0.000857,0.000781,0.004446,0.000290,  42.813
   121.6,0.000877,0.000792,0.005563,0.000277,  42.832
   121.8,0.000895,0.000801,0.006147,0.000238,  42.832
   122.0,0.000915,0.000819,0.006675,0.000238,  42.824
   122.2,0.000932,0.000835,0.007160,0.000238,  42.823
   122.4,0.000950,0.000842,0.007646,0.000251,  42.807
   122.6,0.000971,0.000851,0.008107,0.000264,  42.805
   122.8,0.000994,0.000863,0.008545,0.000277,  42.807
   123.0,0.001023,0.000878,0.009053,0.000277,  42.807
   123.2,0.001062,0.000887,0.009575,0.000290,  42.808
   123.4,0.001058,0.000873,0.010117,0.000290,  42.808
   123.6,0.001049,0.000853,0.010576,0.000264,  42.807
   123.8,0.001030,0.000823,0.011022,0.000264,  42.810
   124.0,0.001037,0.000818,0.011429,0.000215,  42.811
   124.2,0.001066,0.000830,0.011824,0.000238,  42.827
   124.4,0.001114,0.000850,0.012207,0.000211,  42.840
   124.6,0.001139,0.000865,0.012557,0.000198,  42.826
   124.8,0.001174,0.000893,0.012895,0.000172,  42.822
   125.0,0.001210,0.000922,0.013408,0.000158,  42.809
   125.2,0.001235,0.000939,0.013973,0.000158,  42.811
   125.4,0.001271,0.000962,0.014598,0.000172,  42.814
   125.6,0.001304,0.000975,0.015165,0.000158,  42.811
   125.8,0.001315,0.000979,0.015753,0.000158,  42.812
   126.0,0.001331,0.000988,0.016316,0.000172,  42.813
   126.2,0.001328,0.000991,0.016898,0.000158,  42.815
   126.4,0.001361,0.001004,0.017509,0.000158,  42.816
   126.6,0.001430,0.001027,0.018120,0.000172,  42.816
   126.8,0.001505,0.001049,0.018747,0.000158,  42.829
   127.0,0.001563,0.001080,0.019381,0.000145,  42.852
   127.2,0.001624,0.001116,0.020044,0.000132,  42.840
   127.4,0.001688,0.001154,0.020732,0.000092,  42.831
   127.6,0.001742,0.001191,0.021442,0.000092,  42.829
   127.8,0.001810,0.001222,0.022166,0.000092,  42.831
   128.0,0.001873,0.001261,0.022864,0.000106,  42.832
   128.2,0.001912,0.001301,0.023537,0.000119,  42.840
   128.4,0.001960,0.001331,0.024197,0.000119,  42.841
   128.6,0.001992,0.001359,0.024698,0.000119,  42.845
   128.8,0.002014,0.001390,0.025098,0.000132,  42.851
   129.0,0.002045,0.001398,0.025406,0.000132,  42.851
   129.2,0.002059,0.001396,0.026028,0.000119,  42.853
   129.4,0.002104,0.001387,0.026780,0.000119,  42.857
   129.6,0.002141,0.001411,0.027633,0.000092,  42.873
   129.8,0.002210,0.001449,0.028408,0.000040,  42.867
   130.0,0.002272,0.001503,0.029184,0.000040,  42.861
   130.2,0.002338,0.001542,0.029962,0.000053,  42.861
   130.4,0.002416,0.001589,0.030855,0.000053,  42.865
   130.6,0.002500,0.001636,0.031839,0.000066,  42.862
   130.8,0.002575,0.001680,0.032879,0.000066,  42.869
   131.0,0.002661,0.001728,0.033636,0.000079,  42.870
   131.2,0.002740,0.001781,0.034292,0.000092,  42.865
   131.4,0.002791,0.001807,0.034846,0.000092,  42.873
   131.6,0.002832,0.001823,0.035654,0.000092,  42.875
   131.8,0.002858,0.001836,0.036532,0.000106,  42.874
   132.0,0.002933,0.001873,0.037494,0.000106,  42.877
   132.2,0.003027,0.001924,0.038651,0.000092,  42.887
   132.4,0.003145,0.001988,0.039956,0.000106,  42.894
   132.6,0.003243,0.002044,0.041404,0.000106,  42.892
   132.8,0.003358,0.002103,0.042551,0.000092,  42.885
   133.0,0.003486,0.002179,0.043604,0.000092,  42.885
   133.2,0.003588,0.002243,0.044582,0.000070,  42.888
   133.4,0.003696,0.002307,0.045464,0.000106,  42.885
   133.6,0.003805,0.002369,0.046749,0.000092,  42.887
   133.8,0.003891,0.002431,0.048115,0.000106,  42.889
   134.0,0.003977,0.002489,0.049613,0.000106,  42.890
   134.2,0.004048,0.002544,0.050790,0.000106,  42.890
   134.4,0.004167,0.002605,0.051849,0.000119,  42.886
   134.6,0.004323,0.002679,0.052824,0.000119,  42.888
   134.8,0.004493,0.002755,0.054431,0.000119,  42.896
   135.0,0.004654,0.002846,0.056288,0.000119,  42.903
   135.2,0.004830,0.002951,0.058434,0.000092,  42.901
   135.4,0.005012,0.003065,0.060462,0.000053,  42.890
   135.6,0.005181,0.003152,0.062550,0.000066,  42.888
   135.8,0.005358,0.003233,0.064730,0.000092,  42.888
   136.0,0.005541,0.003320,0.066715,0.000132,  42.888
   136.2,0.005711,0.003392,0.068619,0.000158,  42.887
   136.4,0.005884,0.003481,0.070465,0.000172,  42.891
   136.6,0.006058,0.003575,0.072385,0.000234,  42.887
   136.8,0.006229,0.003670,0.074305,0.000260,  42.886
   137.0,0.006397,0.003762,0.076239,0.000238,  42.885
   137.2,0.006562,0.003847,0.078508,0.000273,  42.886
   137.4,0.006756,0.003930,0.080932,0.000286,  42.887
   137.6,0.006963,0.004039,0.083567,0.000224,  42.899
   137.8,0.007184,0.004162,0.086153,0.000234,  42.907
   138.0,0.007388,0.004299,0.088786,0.000247,  42.898
   138.2,0.007592,0.004419,0.091498,0.000211,  42.887
   138.4,0.007793,0.004543,0.094319,0.000260,  42.883
   138.6,0.008000,0.004671,0.097197,0.000273,  42.880
   138.8,0.008207,0.004817,0.100165,0.000238,  42.878
   139.0,0.008417,0.004967,0.103484,0.000286,  42.882
   139.2,0.008627,0.005130,0.107023,0.000300,  42.879
   139.4,0.008826,0.005267,0.110779,0.000264,  42.877
   139.6,0.009016,0.005400,0.114104,0.000300,  42.880
   139.8,0.009199,0.005522,0.117296,0.000300,  42.873
   140.0,0.009449,0.005669,0.120365,0.000264,  42.878
   140.2,0.009728,0.005820,0.123662,0.000286,  42.888
   140.4,0.010038,0.005979,0.127008,0.000273,  42.888
   140.6,0.010304,0.006139,0.130394,0.000238,  42.872
   140.8,0.010578,0.006301,0.133501,0.000273,  42.867
   141.0,0.010855,0.006463,0.136482,0.000286,  42.866
   141.2,0.011131,0.006615,0.139337,0.000251,  42.862
   141.4,0.011412,0.006774,0.142965,0.000286,  42.863
   141.6,0.011705,0.006923,0.146956,0.000300,  42.860
   141.8,0.011987,0.007089,0.151281,0.000264,  42.860
   142.0,0.012274,0.007275,0.154357,0.000300,  42.855
   142.2,0.012571,0.007462,0.156959,0.000300,  42.856
   142.4,0.012860,0.007622,0.159092,0.000313,  42.850
   142.6,0.013156,0.007783,0.160704,0.000300,  42.852
   142.8,0.013462,0.007939,0.164332,0.000300,  42.856
   143.0,0.013758,0.008114,0.168518,0.000300,  42.864
   143.2,0.014065,0.008298,0.173215,0.000273,  42.870
   143.4,0.014372,0.008492,0.177082,0.000260,  42.848
   143.6,0.014635,0.008655,0.180837,0.000260,  42.839
   143.8,0.014897,0.008799,0.184406,0.000224,  42.832
   144.0,0.015132,0.008932,0.188058,0.000273,  42.820
   144.2,0.015414,0.009092,0.191676,0.000286,  42.815
   144.4,0.015724,0.009273,0.195232,0.000251,  42.807
   144.6,0.016046,0.009462,0.198861,0.000286,  42.809
   144.8,0.016238,0.009584,0.202522,0.000300,  42.808
   145.0,0.016392,0.009675,0.206166,0.000264,  42.803
   145.2,0.016487,0.009736,0.209460,0.000300,  42.803
   145.4,0.016730,0.009772,0.212580,0.000300,  42.806
   145.6,0.017036,0.009917,0.215501,0.000251,  42.809
   145.8,0.017387,0.010078,0.218936,0.000211,  42.811
   146.0,0.017679,0.010261,0.222567,0.000198,  42.793
   146.2,0.017979,0.010430,0.226356,0.000185,  42.794
   146.4,0.018273,0.010593,0.229850,0.000172,  42.790
   146.6,0.018536,0.010757,0.233242,0.000172,  42.789
   146.8,0.018800,0.010909,0.236521,0.000172,  42.779
   147.0,0.019040,0.011059,0.240054,0.000158,  42.780
   147.2,0.019273,0.011205,0.243647,0.000158,  42.777
   147.4,0.019513,0.011353,0.247307,0.000158,  42.778
   147.6,0.019735,0.011500,0.250667,0.000145,  42.771
   147.8,0.019963,0.011649,0.253895,0.000132,  42.766
   148.0,0.020191,0.011806,0.257000,0.000132,  42.757
   148.2,0.020416,0.011967,0.260689,0.000132,  42.758
   148.4,0.020636,0.012133,0.264619,0.000119,  42.767
   148.6,0.020906,0.012297,0.268819,0.000106,  42.763
   148.8,0.021211,0.012461,0.272337,0.000106,  42.738
   149.0,0.021529,0.012640,0.275568,0.000119,  42.733
   149.2,0.021803,0.012807,0.278579,0.000106,  42.717
   149.4,0.022084,0.012971,0.282054,0.000106,  42.710
   149.6,0.022354,0.013143,0.285628,0.000119,  42.704
   149.8,0.022604,0.013301,0.289288,0.000106,  42.694
   150.0,0.022852,0.013450,0.291781,0.000106,  42.692
   150.2,0.023101,0.013594,0.293720,0.000119,  42.686
   150.4,0.023290,0.013695,0.295051,0.000106,  42.682
   150.6,0.023458,0.013768,0.298011,0.000106,  42.673
   150.8,0.023606,0.013818,0.301553,0.000106,  42.667
   151.0,0.023848,0.013956,0.305628,0.000079,  42.672
   151.2,0.024136,0.014126,0.308631,0.000040,  42.664
   151.4,0.024459,0.014330,0.311389,0.000026,  42.645
   151.6,0.024734,0.014502,0.313847,0.000004,  42.640
   151.8,0.025024,0.014670,0.316032,0.000053,  42.624
   152.0,0.025304,0.014844,0.319342,0.000066,  42.607
   152.2,0.025577,0.015016,0.322964,0.000066,  42.600
   152.4,0.025865,0.015179,0.326871,0.000066,  42.588
   152.6,0.026145,0.015350,0.330253,0.000066,  42.580
   152.8,0.026357,0.015488,0.333513,0.000066,  42.573
   153.0,0.026549,0.015610,0.336648,0.000079,  42.565
   153.2,0.026701,0.015718,0.339818,0.000066,  42.552
   153.4,0.026947,0.015878,0.342970,0.000066,  42.534
   153.6,0.027234,0.016044,0.346067,0.000066,  42.533
   153.8,0.027553,0.016226,0.349228,0.000053,  42.535
   154.0,0.027837,0.016371,0.352376,0.000053,  42.518
   154.2,0.028131,0.016502,0.355531,0.000066,  42.499
   154.4,0.028433,0.016629,0.358948,0.000066,  42.482
   154.6,0.028714,0.016737,0.362443,0.000066,  42.470
   154.8,0.028993,0.016891,0.366076,0.000066,  42.456
   155.0,0.029280,0.017058,0.370052,0.000053,  42.453
   155.2,0.029559,0.017234,0.374238,0.000053,  42.428
   155.4,0.029845,0.017409,0.378687,0.000053,  42.420
   155.6,0.030131,0.017582,0.382228,0.000053,  42.402
   155.8,0.030452,0.017762,0.385452,0.000053,  42.383
   156.0,0.030785,0.017949,0.388305,0.000066,  42.377
   156.2,0.031147,0.018139,0.392495,0.000066,  42.367
   156.4,0.031481,0.018342,0.397244,0.000066,  42.365
   156.6,0.031818,0.018545,0.402523,0.000066,  42.348
   156.8,0.032163,0.018749,0.406482,0.000053,  42.311
   157.0,0.032487,0.018954,0.409980,0.000066,  42.296
   157.2,0.032810,0.019152,0.413063,0.000066,  42.282
   157.4,0.033130,0.019350,0.417295,0.000079,  42.267
   157.6,0.033406,0.019550,0.421798,0.000092,  42.240
   157.8,0.033656,0.019747,0.426686,0.000079,  42.218
   158.0,0.033889,0.019942,0.430503,0.000079,  42.210
   158.2,0.034096,0.020137,0.433964,0.000092,  42.194
   158.4,0.034381,0.020311,0.437025,0.000079,  42.178
   158.6,0.034690,0.020478,0.441439,0.000079,  42.163
   158.8,0.035027,0.020636,0.446349,0.000079,  42.131
   159.0,0.035344,0.020821,0.451809,0.000066,  42.131
   159.2,0.035672,0.021033,0.456753,0.000040,  42.127
   159.4,0.036013,0.021255,0.461717,0.000040,  42.107
   159.6,0.036322,0.021460,0.466606,0.000053,  42.085
   159.8,0.036635,0.021659,0.471342,0.000040,  42.060
   160.0,0.036948,0.021867,0.475942,0.000040,  42.036
   160.2,0.037273,0.022075,0.480446,0.000053,  42.027
   160.4,0.037618,0.022279,0.484349,0.000040,  42.008
   160.6,0.037983,0.022486,0.487899,0.000040,  41.990
   160.8,0.038242,0.022661,0.490977,0.000004,  41.967
   161.0,0.038468,0.022818,0.493737,0.000040,  41.946
   161.2,0.038659,0.022960,0.497484,0.000026,  41.932
   161.4,0.038941,0.023150,0.501385,0.000026,  41.911
   161.6,0.039265,0.023351,0.505489,0.000000,  41.900
   161.8,0.039625,0.023574,0.509259,0.000000,  41.892
   162.0,0.039921,0.023762,0.512918,0.000000,  41.859
   162.2,0.040214,0.023948,0.516455,0.000000,  41.837
   162.4,0.040488,0.024117,0.519791,0.000000,  41.818
   162.6,0.040765,0.024280,0.522856,0.000013,  41.798
   162.8,0.041053,0.024450,0.525767,0.000000,  41.767
   163.0,0.041327,0.024610,0.529566,0.000009,  41.751
   163.2,0.041582,0.024751,0.533767,0.000009,  41.726
   163.4,0.041838,0.024880,0.538323,-0.000026,  41.710
   163.6,0.042078,0.024997,0.541738,-0.000017,  41.690
   163.8,0.042327,0.025108,0.544791,-0.000017,  41.652
   164.0,0.042580,0.025268,0.547478,-0.000053,  41.637
   164.2,0.042837,0.025435,0.550906,-0.000044,  41.612
   164.4,0.043064,0.025616,0.554421,-0.000044,  41.599
   164.6,0.043289,0.025766,0.558116,-0.000079,  41.589
   164.8,0.043498,0.025910,0.561177,-0.000092,  41.543
   165.0,0.043687,0.026049,0.564003,-0.000092,  41.532
   165.2,0.043873,0.026169,0.566569,-0.000092,  41.495
   165.4,0.044043,0.026287,0.569262,-0.000092,  41.469
   165.6,0.044223,0.026395,0.571838,-0.000106,  41.444
   165.8,0.044412,0.026510,0.574327,-0.000119,  41.415
   166.0,0.044609,0.026631,0.576105,-0.000132,  41.380
   166.2,0.044757,0.026759,0.577359,-0.000132,  41.360
   166.4,0.044892,0.026891,0.578187,-0.000145,  41.332
   166.6,0.045015,0.027028,0.580204,-0.000145,  41.295
   166.8,0.045140,0.027172,0.582513,-0.000132,  41.266
   167.0,0.045262,0.027288,0.585223,-0.000132,  41.254
   167.2,0.045389,0.027394,0.587343,-0.000145,  41.224
   167.4,0.045505,0.027489,0.589306,-0.000119,  41.192
   167.6,0.045636,0.027579,0.591144,-0.000106,  41.168
   167.8,0.045785,0.027655,0.593274,-0.000092,  41.123
   168.0,0.045937,0.027724,0.595400,-0.000092,  41.099
   168.2,0.046066,0.027802,0.597674,-0.000092,  41.068
   168.4,0.046199,0.027882,0.599600,-0.000119,  41.026
   168.6,0.046318,0.027965,0.601296,-0.000119,  41.001
   168.8,0.046454,0.028050,0.602868,-0.000145,  40.960
   169.0,0.046609,0.028140,0.604440,-0.000158,  40.922
   169.2,0.046764,0.028238,0.605965,-0.000158,  40.886
   169.4,0.046877,0.028318,0.607350,-0.000158,  40.834
   169.6,0.046978,0.028410,0.608592,-0.000172,  40.802
   169.8,0.047062,0.028500,0.609728,-0.000172,  40.765
   170.0,0.047149,0.028571,0.610727,-0.000181,  40.747
   170.2,0.047236,0.028630,0.611521,-0.000119,  40.693
   170.4,0.047321,0.028685,0.612702,-0.000092,  40.644
   170.6,0.047398,0.028745,0.614043,-0.000106,  40.595
   170.8,0.047482,0.028802,0.615373,-0.000141,  40.535
   171.0,0.047567,0.028851,0.616611,-0.000167,  40.495
   171.2,0.047651,0.028906,0.617799,-0.000181,  40.455
   171.4,0.047745,0.028960,0.618946,-0.000229,  40.397
   171.6,0.047849,0.029020,0.619720,-0.000207,  40.354
   171.8,0.047936,0.029091,0.620180,-0.000207,  40.290
   172.0,0.048030,0.029167,0.620475,-0.000243,  40.244
   172.2,0.048128,0.029252,0.621358,-0.000233,  40.199
   172.4,0.048182,0.029342,0.622482,-0.000220,  40.157
   172.6,0.048228,0.029384,0.623768,-0.000229,  40.121
   172.8,0.048261,0.029423,0.624757,-0.000167,  40.045
   173.0,0.048296,0.029447,0.625688,-0.000154,  40.013
   173.2,0.048335,0.029475,0.626614,-0.000203,  39.952
   173.4,0.048367,0.029496,0.627316,-0.000167,  39.893
   173.6,0.048406,0.029518,0.627880,-0.000167,  39.848
   173.8,0.048449,0.029546,0.628203,-0.000229,  39.770
   174.0,0.048487,0.029567,0.628733,-0.000220,  39.723
   174.2,0.048552,0.029603,0.629357,-0.000233,  39.675
   174.4,0.048627,0.029668,0.629928,-0.000282,  39.619
   174.6,0.048712,0.029739,0.630467,-0.000260,  39.558
   174.8,0.048751,0.029834,0.630852,-0.000273,  39.492
   175.0,0.048770,0.029874,0.631257,-0.000309,  39.449
   175.2,0.048767,0.029891,0.631689,-0.000260,  39.413
   175.4,0.048747,0.029893,0.632014,-0.000247,  39.371
   175.6,0.048754,0.029903,0.632285,-0.000282,  39.295
   175.8,0.048754,0.029903,0.632609,-0.000247,  39.223
   176.0,0.048761,0.029903,0.632880,-0.000247,  39.173
   176.2,0.048754,0.029912,0.633057,-0.000295,  39.116
   176.4,0.048751,0.029926,0.633267,-0.000286,  39.059
   176.6,0.048747,0.029948,0.633532,-0.000299,  38.990
   176.8,0.048757,0.029944,0.633633,-0.000348,  38.928
   177.0,0.048773,0.029918,0.633796,-0.000326,  38.875
   177.2,0.048800,0.029887,0.633973,-0.000339,  38.807
   177.4,0.048799,0.029913,0.634096,-0.000401,  38.743
   177.6,0.048799,0.029961,0.634150,-0.000405,  38.693
   177.8,0.048803,0.030032,0.634184,-0.000405,  38.635
   178.0,0.048773,0.030035,0.634170,-0.000414,  38.591
   178.2,0.048744,0.030026,0.634040,-0.000365,  38.512
   178.4,0.048699,0.029996,0.633917,-0.000326,  38.459
   178.6,0.048663,0.029981,0.633707,-0.000326,  38.389
   178.8,0.048641,0.029979,0.633443,-0.000330,  38.312
   179.0,0.048608,0.029976,0.633124,-0.000369,  38.259
   179.2,0.048559,0.029969,0.632799,-0.000382,  38.193
   179.4,0.048524,0.029959,0.632379,-0.000409,  38.128
   179.6,0.048472,0.029944,0.632014,-0.000435,  38.078
   179.8,0.048439,0.029958,0.631602,-0.000448,  38.009
   180.0,0.048420,0.029980,0.631191,-0.000448,  37.956
   180.2,0.048410,0.030006,0.630691,-0.000475,  37.901
   180.4,0.048351,0.029999,0.630131,-0.000462,  37.861
   180.6,0.048287,0.029977,0.629505,-0.000462,  37.832
   180.8,0.048203,0.029957,0.628645,-0.000448,  37.772
   181.0,0.048124,0.029917,0.627700,-0.000448,  37.715
   181.2,0.048053,0.029876,0.626672,-0.000448,  37.662
   181.4,0.047978,0.029836,0.625718,-0.000475,  37.605
   181.6,0.047894,0.029793,0.624653,-0.000488,  37.552
   181.8,0.047809,0.029750,0.623583,-0.000501,  37.482
   182.0,0.047732,0.029709,0.622247,-0.000527,  37.439
   182.2,0.047709,0.029669,0.620673,-0.000527,  37.373
   182.4,0.047722,0.029626,0.618864,-0.000541,  37.316
   182.6,0.047771,0.029590,0.617920,-0.000567,  37.261
   182.8,0.047706,0.029557,0.617310,-0.000580,  37.191
   183.0,0.047615,0.029543,0.616927,-0.000580,  37.152
   183.2,0.047489,0.029544,0.616019,-0.000593,  37.117
   183.4,0.047399,0.029562,0.614912,-0.000580,  37.068
   183.6,0.047315,0.029519,0.613711,-0.000554,  36.997
   183.8,0.047227,0.029459,0.612550,-0.000492,  36.932
   184.0,0.047146,0.029385,0.611341,-0.000479,  36.883
   184.2,0.047039,0.029327,0.610091,-0.000527,  36.824
   184.4,0.046942,0.029275,0.608756,-0.000531,  36.765
   184.6,0.046829,0.029225,0.607278,-0.000545,  36.701
   184.8,0.046735,0.029154,0.605667,-0.000580,  36.629
   185.0,0.046654,0.029073,0.604396,-0.000558,  36.577
   185.2,0.046577,0.028980,0.603230,-0.000558,  36.515
   185.4,0.046479,0.028941,0.602067,-0.000593,  36.449
   185.6,0.046382,0.028922,0.600692,-0.000558,  36.395
   185.8,0.046286,0.028925,0.599221,-0.000531,  36.350
   186.0,0.046172,0.028875,0.597661,-0.000554,  36.334
   186.2,0.046063,0.028802,0.596257,-0.000518,  36.265
   186.4,0.045947,0.028716,0.594807,-0.000518,  36.196
   186.6,0.045850,0.028652,0.593383,-0.000518,  36.138
   186.8,0.045770,0.028604,0.592240,-0.000518,  36.062
   187.0,0.045695,0.028564,0.591197,-0.000531,  36.011
   187.2,0.045611,0.028521,0.590255,-0.000531,  35.949
   187.4,0.045551,0.028476,0.589463,-0.000531,  35.885
   187.6,0.045480,0.028436,0.588483,-0.000545,  35.823
   187.8,0.045486,0.028513,0.587477,-0.000545,  35.745
   188.0,0.045544,0.028638,0.586425,-0.000567,  35.695
   188.2,0.045644,0.028813,0.585160,-0.000518,  35.625
   188.4,0.045566,0.028799,0.583789,-0.000479,  35.582
   188.6,0.045431,0.028714,0.582290,-0.000448,  35.552
   188.8,0.045238,0.028557,0.580838,-0.000373,  35.465
   189.0,0.045096,0.028474,0.579288,-0.000334,  35.415
   189.2,0.044967,0.028394,0.577648,-0.000317,  35.357
   189.4,0.044842,0.028318,0.576123,-0.000255,  35.291
   189.6,0.044716,0.028248,0.574603,-0.000255,  35.224
   189.8,0.044603,0.028167,0.572995,-0.000303,  35.148
   190.0,0.044497,0.028084,0.571479,-0.000307,  35.095
   190.2,0.044464,0.028001,0.569968,-0.000321,  35.017
   190.4,0.044484,0.027973,0.568510,-0.000369,  34.943
   190.6,0.044542,0.027977,0.567236,-0.000334,  34.864
   190.8,0.044452,0.028018,0.566011,-0.000321,  34.773
   191.0,0.044320,0.027975,0.564890,-0.000369,  34.709
   191.2,0.044131,0.027911,0.563449,-0.000334,  34.657
   191.4,0.043979,0.027828,0.561940,-0.000294,  34.606
   191.6,0.043838,0.027742,0.560254,-0.000317,  34.518
   191.8,0.043687,0.027648,0.558697,-0.000241,  34.420
   192.0,0.043582,0.027546,0.557159,-0.000228,  34.358
   192.2,0.043478,0.027459,0.555628,-0.000290,  34.280
   192.4,0.043412,0.027376,0.553833,-0.000294,  34.194
   192.6,0.043348,0.027304,0.551843,-0.000307,  34.116
   192.8,0.043277,0.027226,0.549673,-0.000343,  34.020
   193.0,0.043210,0.027160,0.549010,-0.000321,  33.960
   193.2,0.043142,0.027098,0.548982,-0.000321,  33.876
   193.4,0.043090,0.027114,0.549583,-0.000369,  33.801
   193.6,0.043055,0.027176,0.548445,-0.000334,  33.716
   193.8,0.043036,0.027282,0.546784,-0.000255,  33.645
   194.0,0.042920,0.027228,0.544611,-0.000211,  33.609
   194.2,0.042776,0.027122,0.542950,-0.000057,  33.523
   194.4,0.042601,0.026957,0.541302,-0.000030,  33.445
   194.6,0.042459,0.026846,0.539653,-0.000079,  33.360
   194.8,0.042321,0.026747,0.538235,-0.000110,  33.270
   195.0,0.042194,0.026641,0.536995,-0.000123,  33.209
   195.2,0.042062,0.026547,0.535845,-0.000149,  33.136
   195.4,0.041938,0.026452,0.534885,-0.000162,  33.065
   195.6,0.041820,0.026369,0.533639,-0.000202,  32.997
   195.8,0.041749,0.026352,0.532332,-0.000215,  32.909
   196.0,0.041714,0.026368,0.530999,-0.000241,  32.850
   196.2,0.041711,0.026422,0.529508,-0.000255,  32.773
   196.4,0.041595,0.026356,0.527838,-0.000241,  32.709
   196.6,0.041445,0.026258,0.526041,-0.000264,  32.660
   196.8,0.041267,0.026114,0.524335,-0.000228,  32.603
   197.0,0.041107,0.026003,0.522509,-0.000215,  32.537
   197.2,0.040947,0.025890,0.520705,-0.000251,  32.463
   197.4,0.040791,0.025777,0.518734,-0.000215,  32.395
   197.6,0.040609,0.025671,0.516565,-0.000215,  32.328
   197.8,0.040424,0.025570,0.514324,-0.000277,  32.251
   198.0,0.040240,0.025466,0.512266,-0.000268,  32.192
   198.2,0.040125,0.025371,0.510231,-0.000281,  32.127
   198.4,0.040042,0.025258,0.508206,-0.000343,  32.063
   198.6,0.040004,0.025133,0.506427,-0.000334,  31.996
   198.8,0.039870,0.025006,0.504669,-0.000347,  31.911
   199.0,0.039704,0.024926,0.503038,-0.000422,  31.864
   199.2,0.039520,0.024872,0.501099,-0.000413,  31.812
   199.4,0.039347,0.024839,0.498976,-0.000400,  31.772
   199.6,0.039179,0.024747,0.496724,-0.000409,  31.698
   199.8,0.039008,0.024635,0.494687,-0.000334,  31.624
   200.0,0.038842,0.024504,0.492706,-0.000321,  31.577
   200.2,0.038693,0.024395,0.490694,-0.000382,  31.528
   200.4,0.038554,0.024299,0.488384,-0.000360,  31.470
   200.6,0.038385,0.024203,0.486004,-0.000347,  31.412
   200.8,0.038220,0.024092,0.483467,-0.000396,  31.342
   201.0,0.038059,0.023985,0.481595,-0.000360,  31.306
   201.2,0.037929,0.023868,0.480054,-0.000347,  31.252
   201.4,0.037805,0.023783,0.478763,-0.000396,  31.204
   201.6,0.037717,0.023715,0.476512,-0.000360,  31.155
   201.8,0.037635,0.023661,0.473928,-0.000347,  31.108
   202.0,0.037469,0.023557,0.470924,-0.000369,  31.094
   202.2,0.037286,0.023433,0.468416,-0.000307,  31.060
   202.4,0.037093,0.023289,0.465936,-0.000294,  31.004
   202.6,0.036916,0.023170,0.463470,-0.000330,  30.969
   202.8,0.036761,0.023052,0.460784,-0.000294,  30.921
   203.0,0.036614,0.022941,0.457983,-0.000281,  30.881
   203.2,0.036430,0.022826,0.455077,-0.000317,  30.837
   203.4,0.036257,0.022710,0.452752,-0.000294,  30.790
   203.6,0.036074,0.022588,0.450702,-0.000294,  30.743
   203.8,0.035972,0.022509,0.448897,-0.000330,  30.695
   204.0,0.035925,0.022446,0.447148,-0.000294,  30.663
   204.2,0.035913,0.022394,0.445504,-0.000294,  30.622
   204.4,0.035764,0.022306,0.444042,-0.000281,  30.583
   204.6,0.035575,0.022205,0.442690,-0.000281,  30.548
   204.8,0.035339,0.022091,0.440617,-0.000281,  30.503
   205.0,0.035149,0.021976,0.438325,-0.000255,  30.462
   205.2,0.034970,0.021855,0.435811,-0.000241,  30.432
   205.4,0.034797,0.021729,0.433578,-0.000202,  30.392
   205.6,0.034608,0.021605,0.431323,-0.000189,  30.350
   205.8,0.034425,0.021476,0.429087,-0.000224,  30.296
   206.0,0.034247,0.021352,0.426814,-0.000202,  30.261
   206.2,0.034095,0.021240,0.424479,-0.000189,  30.219
   206.4,0.033964,0.021128,0.422123,-0.000224,  30.178
   206.6,0.033861,0.021038,0.420019,-0.000202,  30.142
   206.8,0.033694,0.020950,0.417958,-0.000189,  30.095
   207.0,0.033518,0.020859,0.415946,-0.000224,  30.061
   207.2,0.033327,0.020769,0.413865,-0.000189,  30.030
   207.4,0.033148,0.020682,0.411768,-0.000176,  30.008
   207.6,0.032982,0.020575,0.409583,-0.000198,  29.974
   207.8,0.032823,0.020468,0.407700,-0.000162,  29.921
   208.0,0.032675,0.020360,0.405928,-0.000149,  29.891
   208.2,0.032544,0.020257,0.404234,-0.000185,  29.858
   208.4,0.032435,0.020164,0.402451,-0.000176,  29.810
   208.6,0.032287,0.020079,0.400676,-0.000176,  29.772
   208.8,0.032140,0.019985,0.398820,-0.000211,  29.720
   209.0,0.031997,0.019902,0.397493,-0.000176,  29.688
   209.2,0.031906,0.019815,0.396461,-0.000176,  29.649
   209.4,0.031856,0.019794,0.395644,-0.000198,  29.612
   209.6,0.031841,0.019820,0.393882,-0.000162,  29.576
   209.8,0.031744,0.019878,0.391792,-0.000149,  29.537
   210.0,0.031624,0.019799,0.389396,-0.000172,  29.519
   210.2,0.031491,0.019678,0.387327,-0.000123,  29.486
   210.4,0.031332,0.019509,0.385177,-0.000110,  29.441
   210.6,0.031175,0.019383,0.383036,-0.000132,  29.406
   210.8,0.031013,0.019263,0.381082,-0.000070,  29.359
   211.0,0.030842,0.019147,0.379113,-0.000070,  29.328
   211.2,0.030688,0.019033,0.377243,-0.000119,  29.290
   211.4,0.030542,0.018924,0.375524,-0.000096,  29.241
   211.6,0.030412,0.018829,0.373835,-0.000083,  29.201
   211.8,0.030318,0.018756,0.372255,-0.000145,  29.146
   212.0,0.030255,0.018718,0.370622,-0.000123,  29.110
   212.2,0.030225,0.018695,0.369002,-0.000110,  29.073
   212.4,0.030094,0.018614,0.367394,-0.000158,  29.029
   212.6,0.029935,0.018516,0.365940,-0.000123,  28.991
   212.8,0.029752,0.018395,0.364548,-0.000123,  28.961
   213.0,0.029587,0.018290,0.363191,-0.000096,  28.923
   213.2,0.029428,0.018184,0.361932,-0.000096,  28.866
   213.4,0.029277,0.018070,0.360344,-0.000070,  28.830
   213.6,0.029127,0.017973,0.358697,-0.000070,  28.781
   213.8,0.028987,0.017878,0.356913,-0.000083,  28.728
   214.0,0.028861,0.017793,0.355222,-0.000083,  28.691
   214.2,0.028730,0.017706,0.353515,-0.000070,  28.648
   214.4,0.028615,0.017613,0.351766,-0.000119,  28.602
   214.6,0.028507,0.017516,0.350873,-0.000110,  28.557
   214.8,0.028404,0.017476,0.350427,-0.000096,  28.504
   215.0,0.028324,0.017462,0.350378,-0.000132,  28.471
   215.2,0.028260,0.017477,0.349051,-0.000110,  28.431
   215.4,0.028126,0.017424,0.347293,-0.000070,  28.406
   215.6,0.027978,0.017352,0.345046,-0.000079,  28.365
   215.8,0.027814,0.017265,0.343185,-0.000004,  28.306
   216.0,0.027662,0.017159,0.341263,0.000009,  28.276
   216.2,0.027517,0.017060,0.339307,-0.000040,  28.232
   216.4,0.027381,0.016956,0.337416,-0.000030,  28.192
   216.6,0.027232,0.016843,0.335519,-0.000044,  28.149
   216.8,0.027090,0.016743,0.333624,-0.000092,  28.096
   217.0,0.026958,0.016647,0.331949,-0.000070,  28.064
   217.2,0.026846,0.016562,0.330348,-0.000083,  28.025
   217.4,0.026759,0.016511,0.328835,-0.000132,  27.984
   217.6,0.026688,0.016479,0.327364,-0.000096,  27.936
   217.8,0.026552,0.016479,0.325976,-0.000083,  27.893
   218.0,0.026404,0.016398,0.324624,-0.000132,  27.874
   218.2,0.026228,0.016290,0.322754,-0.000096,  27.850
   218.4,0.026083,0.016163,0.320655,-0.000083,  27.806
   218.6,0.025945,0.016043,0.318279,-0.000119,  27.766
   218.8,0.025809,0.015911,0.316143,-0.000083,  27.716
   219.0,0.025680,0.015779,0.313958,-0.000070,  27.681
   219.2,0.025517,0.015650,0.311765,-0.000106,  27.643
   219.4,0.025359,0.015528,0.309847,-0.000083,  27.609
   219.6,0.025185,0.015410,0.308015,-0.000070,  27.566
   219.8,0.025083,0.015292,0.306292,-0.000132,  27.517
   220.0,0.025002,0.015188,0.304614,-0.000123,  27.485
   220.2,0.024968,0.015095,0.302960,-0.000123,  27.450
   220.4,0.024820,0.015012,0.301394,-0.000172,  27.411
   220.6,0.024634,0.014928,0.299453,-0.000149,  27.373
   220.8,0.024419,0.014863,0.297333,-0.000136,  27.347
   221.0,0.024234,0.014760,0.295039,-0.000158,  27.305
   221.2,0.024050,0.014644,0.293238,-0.000096,  27.265
   221.4,0.023869,0.014518,0.291675,-0.000083,  27.233
   221.6,0.023690,0.014410,0.290202,-0.000070,  27.191
   221.8,0.023532,0.014304,0.288919,-0.000083,  27.148
   222.0,0.023366,0.014207,0.287026,-0.000096,  27.120
   222.2,0.023191,0.014087,0.284946,-0.000096,  27.089
   222.4,0.023019,0.013970,0.282741,-0.000110,  27.055
   222.6,0.022848,0.013844,0.280833,-0.000123,  27.024
   222.8,0.022679,0.013748,0.278988,-0.000110,  26.984
   223.0,0.022520,0.013665,0.277230,-0.000158,  26.961
   223.2,0.022371,0.013595,0.275020,-0.000123,  26.927
   223.4,0.022196,0.013513,0.272632,-0.000110,  26.908
   223.6,0.022032,0.013421,0.270062,-0.000158,  26.894
   223.8,0.021861,0.013337,0.267937,-0.000123,  26.840
   224.0,0.021696,0.013247,0.265923,-0.000110,  26.824
   224.2,0.021550,0.013148,0.264011,-0.000158,  26.790
   224.4,0.021404,0.013048,0.261938,-0.000123,  26.759
   224.6,0.021239,0.012940,0.259837,-0.000123,  26.724
   224.8,0.021077,0.012839,0.257683,-0.000158,  26.685
   225.0,0.020916,0.012736,0.255966,-0.000136,  26.659
   225.2,0.020811,0.012639,0.254444,-0.000136,  26.628
   225.4,0.020745,0.012584,0.253085,-0.000158,  26.602
   225.6,0.020706,0.012552,0.251273,-0.000136,  26.569
   225.8,0.020568,0.012538,0.249274,-0.000136,  26.528
   226.0,0.020406,0.012458,0.247179,-0.000158,  26.513
   226.2,0.020212,0.012355,0.245115,-0.000136,  26.496
   226.4,0.020050,0.012227,0.242950,-0.000123,  26.456
   226.6,0.019901,0.012125,0.240750,-0.000145,  26.426
   226.8,0.019765,0.012020,0.238887,-0.000096,  26.389
   227.0,0.019637,0.011917,0.237126,-0.000083,  26.363
   227.2,0.019521,0.011814,0.235504,-0.000132,  26.330
   227.4,0.019424,0.011722,0.233800,-0.000110,  26.297
   227.6,0.019333,0.011638,0.232118,-0.000096,  26.262
   227.8,0.019238,0.011541,0.230420,-0.000145,  26.223
   228.0,0.019157,0.011447,0.228885,-0.000123,  26.197
   228.2,0.019091,0.011361,0.227441,-0.000110,  26.171
   228.4,0.018962,0.011284,0.226037,-0.000158,  26.135
   228.6,0.018825,0.011218,0.224517,-0.000123,  26.111
   228.8,0.018673,0.011160,0.223002,-0.000110,  26.090
   229.0,0.018549,0.011096,0.221437,-0.000145,  26.078
   229.2,0.018425,0.011026,0.220143,-0.000096,  26.028
   229.4,0.018314,0.010951,0.218964,-0.000083,  26.004
   229.6,0.018224,0.010889,0.217892,-0.000132,  25.969
   229.8,0.018136,0.010830,0.216864,-0.000110,  25.928
   230.0,0.018053,0.010768,0.215915,-0.000110,  25.902
   230.2,0.017956,0.010704,0.215024,-0.000096,  25.868
   230.4,0.017854,0.010634,0.214210,-0.000110,  25.834
   230.6,0.017752,0.010573,0.213542,-0.000110,  25.811
   230.8,0.017681,0.010561,0.212992,-0.000110,  25.770
   231.0,0.017636,0.010575,0.212532,-0.000096,  25.738
   231.2,0.017606,0.010620,0.211298,-0.000096,  25.714
   231.4,0.017512,0.010572,0.209699,-0.000070,  25.692
   231.6,0.017397,0.010488,0.207787,-0.000106,  25.672
   231.8,0.017255,0.010379,0.206275,-0.000057,  25.627
   232.0,0.017146,0.010307,0.204803,-0.000044,  25.603
   232.2,0.017040,0.010230,0.203349,-0.000066,  25.578
   232.4,0.016938,0.010150,0.202013,-0.000044,  25.537
   232.6,0.016841,0.010086,0.200701,-0.000044,  25.498
   232.8,0.016751,0.010031,0.199494,-0.000079,  25.442
   233.0,0.016663,0.009988,0.198396,-0.000057,  25.415
   233.2,0.016612,0.009953,0.197394,-0.000057,  25.374
   233.4,0.016579,0.009930,0.196461,-0.000092,  25.337
   233.6,0.016570,0.009928,0.195404,-0.000057,  25.298
   233.8,0.016491,0.009936,0.194336,-0.000070,  25.255
   234.0,0.016392,0.009893,0.193205,-0.000106,  25.228
   234.2,0.016281,0.009829,0.192116,-0.000070,  25.218
   234.4,0.016178,0.009743,0.191017,-0.000070,  25.186
   234.6,0.016078,0.009679,0.189901,-0.000092,  25.134
   234.8,0.015983,0.009608,0.188795,-0.000030,  25.088
   235.0,0.015888,0.009533,0.187680,-0.000017,  25.056
   235.2,0.015807,0.009469,0.186555,-0.000053,  25.021
   235.4,0.015739,0.009413,0.185598,-0.000044,  24.982
   235.6,0.015678,0.009355,0.184727,-0.000044,  24.943
   235.8,0.015626,0.009298,0.183901,-0.000066,  24.900
   236.0,0.015594,0.009244,0.183309,-0.000044,  24.874
   236.2,0.015570,0.009187,0.182886,-0.000044,  24.838
   236.4,0.015507,0.009165,0.182604,-0.000066,  24.800
   236.6,0.015439,0.009153,0.181637,-0.000044,  24.768
   236.8,0.015368,0.009156,0.180411,-0.000030,  24.740
   237.0,0.015280,0.009109,0.178910,-0.000040,  24.720
   237.2,0.015190,0.009053,0.177717,0.000022,  24.677
   237.4,0.015087,0.008976,0.176540,0.000036,  24.639
   237.6,0.014996,0.008907,0.175336,-0.000026,  24.599
   237.8,0.014911,0.008845,0.174271,-0.000004,  24.561
   238.0,0.014827,0.008784,0.173247,-0.000004,  24.533
   238.2,0.014736,0.008724,0.172275,-0.000053,  24.501
   238.4,0.014649,0.008667,0.171550,-0.000044,  24.466
   238.6,0.014566,0.008614,0.170934,-0.000057,  24.433
   238.8,0.014499,0.008593,0.170490,-0.000057,  24.393
   239.0,0.014448,0.008584,0.169749,-0.000070,  24.369
   239.2,0.014416,0.008597,0.168960,-0.000070,  24.332
   239.4,0.014331,0.008559,0.168066,-0.000070,  24.310
   239.6,0.014241,0.008499,0.167117,-0.000070,  24.295
   239.8,0.014140,0.008427,0.165844,-0.000070,  24.249
   240.0,0.014031,0.008361,0.164360,-0.000070,  24.224
   240.2,0.013926,0.008289,0.162715,-0.000106,  24.192
   240.4,0.013822,0.008212,0.161329,-0.000106,  24.159
   240.6,0.013728,0.008149,0.159990,-0.000106,  24.127
   240.8,0.013650,0.008085,0.158652,-0.000106,  24.084
   241.0,0.013575,0.008036,0.157573,-0.000106,  24.062
   241.2,0.013529,0.007993,0.156627,-0.000106,  24.033
   241.4,0.013511,0.007950,0.155811,-0.000106,  23.998
   241.6,0.013514,0.007928,0.154800,-0.000106,  23.968
   241.8,0.013440,0.007905,0.153755,-0.000106,  23.930
   242.0,0.013335,0.007863,0.152659,-0.000106,  23.911
   242.2,0.013210,0.007818,0.151552,-0.000106,  23.894
   242.4,0.013118,0.007780,0.150430,-0.000092,  23.869
   242.6,0.013016,0.007732,0.149275,-0.000079,  23.834
   242.8,0.012914,0.007673,0.148119,-0.000066,  23.797
   243.0,0.012817,0.007610,0.146941,-0.000053,  23.770
   243.2,0.012721,0.007558,0.145745,-0.000053,  23.746
   243.4,0.012632,0.007499,0.144581,-0.000066,  23.722
   243.6,0.012554,0.007443,0.143427,-0.000066,  23.700
   243.8,0.012476,0.007377,0.142263,-0.000066,  23.669
   244.0,0.012411,0.007312,0.141136,-0.000066,  23.652
   244.2,0.012343,0.007244,0.140044,-0.000066,  23.623
   244.4,0.012274,0.007197,0.138964,-0.000053,  23.601
   244.6,0.012211,0.007158,0.137777,-0.000053,  23.578
   244.8,0.012146,0.007129,0.136555,-0.000053,  23.559
   245.0,0.012068,0.007086,0.135294,-0.000040,  23.561
   245.2,0.011978,0.007034,0.134175,-0.000053,  23.532
   245.4,0.011886,0.006980,0.133083,-0.000040,  23.508
   245.6,0.011805,0.006930,0.132069,-0.000040,  23.484
   245.8,0.011725,0.006880,0.130993,-0.000040,  23.453
   246.0,0.011647,0.006832,0.129895,-0.000026,  23.434
   246.2,0.011567,0.006779,0.128789,-0.000040,  23.409
   246.4,0.011486,0.006730,0.128070,-0.000040,  23.388
   246.6,0.011407,0.006688,0.127514,-0.000026,  23.365
   246.8,0.011349,0.006668,0.127111,-0.000040,  23.339
   247.0,0.011313,0.006656,0.125882,-0.000040,  23.322
   247.2,0.011289,0.006658,0.124289,-0.000040,  23.296
   247.4,0.011227,0.006624,0.122375,-0.000075,  23.286
   247.6,0.011152,0.006577,0.121308,-0.000053,  23.273
   247.8,0.011063,0.006514,0.120488,-0.000066,  23.238
   248.0,0.010991,0.006464,0.119902,-0.000053,  23.219
   248.2,0.010927,0.006410,0.119561,-0.000040,  23.197
   248.4,0.010865,0.006356,0.118803,-0.000026,  23.175
   248.6,0.010790,0.006309,0.118006,-0.000013,  23.151
   248.8,0.010728,0.006262,0.117187,-0.000013,  23.120
   249.0,0.010660,0.006217,0.116406,-0.000026,  23.098
   249.2,0.010611,0.006176,0.115608,-0.000013,  23.082
   249.4,0.010579,0.006138,0.114785,-0.000013,  23.059
   249.6,0.010555,0.006107,0.114091,-0.000026,  23.031
   249.8,0.010497,0.006075,0.113454,-0.000013,  23.006
   250.0,0.010432,0.006045,0.112853,-0.000026,  22.993
   250.2,0.010365,0.006023,0.112185,-0.000040,  22.986
   250.4,0.010301,0.006003,0.111506,-0.000026,  22.976
   250.6,0.010242,0.005971,0.110811,-0.000026,  22.947
   250.8,0.010185,0.005940,0.110211,-0.000013,  22.914
   251.0,0.010138,0.005901,0.109668,0.000000,  22.896
   251.2,0.010099,0.005869,0.109158,-0.000013,  22.871
   251.4,0.010060,0.005849,0.108368,-0.000026,  22.847
   251.6,0.010013,0.005828,0.107480,-0.000013,  22.827
   251.8,0.009962,0.005795,0.106516,-0.000026,  22.800
   252.0,0.009909,0.005764,0.106120,-0.000040,  22.779
   252.2,0.009873,0.005731,0.105961,-0.000026,  22.759
   252.4,0.009840,0.005724,0.106053,-0.000026,  22.738
   252.6,0.009817,0.005726,0.105540,-0.000026,  22.713
   252.8,0.009781,0.005749,0.104811,-0.000013,  22.698
   253.0,0.009742,0.005726,0.103915,-0.000013,  22.690
   253.2,0.009704,0.005685,0.103237,-0.000013,  22.663
   253.4,0.009662,0.005639,0.102535,0.000000,  22.635
   253.6,0.009618,0.005605,0.101857,-0.000013,  22.610
   253.8,0.009567,0.005559,0.101237,-0.000013,  22.579
   254.0,0.009514,0.005523,0.100657,0.000000,  22.552
   254.2,0.009466,0.005494,0.100093,-0.000013,  22.531
   254.4,0.009422,0.005462,0.099673,-0.000026,  22.500
   254.6,0.009380,0.005441,0.099331,-0.000013,  22.474
   254.8,0.009357,0.005430,0.099046,-0.000026,  22.444
   255.0,0.009339,0.005430,0.098572,-0.000040,  22.424
   255.2,0.009330,0.005444,0.098058,-0.000040,  22.393
   255.4,0.009297,0.005426,0.097460,-0.000040,  22.373
   255.6,0.009259,0.005393,0.096875,-0.000053,  22.359
   255.8,0.009205,0.005357,0.096292,-0.000053,  22.339
   256.0,0.009161,0.005330,0.095660,-0.000088,  22.313
   256.2,0.009116,0.005297,0.095148,-0.000040,  22.283
   256.4,0.009066,0.005260,0.094682,-0.000040,  22.254
   256.6,0.009027,0.005234,0.094241,-0.000026,  22.227
   256.8,0.008995,0.005207,0.093845,-0.000026,  22.200
   257.0,0.008959,0.005180,0.093408,-0.000026,  22.174
   257.2,0.008938,0.005140,0.092988,-0.000013,  22.152
   257.4,0.008924,0.005107,0.092554,-0.000013,  22.126
   257.6,0.008915,0.005071,0.092212,-0.000026,  22.098
   257.8,0.008882,0.005052,0.091938,-0.000013,  22.068
   258.0,0.008838,0.005048,0.091718,-0.000013,  22.054
   258.2,0.008787,0.005057,0.091228,-0.000026,  22.036
   258.4,0.008746,0.005044,0.090659,-0.000013,  22.022
   258.6,0.008701,0.005021,0.089975,0.000000,  21.990
   258.8,0.008657,0.004998,0.089401,0.000013,  21.958
   259.0,0.008618,0.004966,0.088803,0.000013,  21.942
   259.2,0.008574,0.004942,0.088206,0.000013,  21.915
   259.4,0.008530,0.004915,0.087658,0.000000,  21.895
   259.6,0.008485,0.004888,0.087134,0.000013,  21.867
   259.8,0.008438,0.004861,0.086618,0.000000,  21.838
   260.0,0.008384,0.004833,0.086050,-0.000026,  21.818
   260.2,0.008355,0.004803,0.085435,-0.000013,  21.796
   260.4,0.008334,0.004790,0.084810,-0.000013,  21.775
   260.6,0.008322,0.004791,0.084267,-0.000026,  21.746
   260.8,0.008287,0.004793,0.083766,-0.000013,  21.730
   261.0,0.008242,0.004772,0.083285,-0.000026,  21.724
   261.2,0.008186,0.004745,0.082653,-0.000040,  21.706
   261.4,0.008145,0.004705,0.081968,-0.000026,  21.680
   261.6,0.008103,0.004676,0.081235,-0.000040,  21.654
   261.8,0.008062,0.004646,0.080410,-0.000004,  21.623
   262.0,0.008029,0.004617,0.079495,0.000009,  21.602
   262.2,0.008003,0.004588,0.078495,-0.000013,  21.583
   262.4,0.007976,0.004561,0.078073,0.000036,  21.559
   262.6,0.007955,0.004545,0.077852,0.000049,  21.539
   262.8,0.007944,0.004534,0.077897,0.000013,  21.515
   263.0,0.007932,0.004529,0.077576,0.000049,  21.497
   263.2,0.007929,0.004526,0.077164,0.000049,  21.479
   263.4,0.007889,0.004510,0.076691,0.000013,  21.462
   263.6,0.007845,0.004492,0.076204,0.000036,  21.450
   263.8,0.007786,0.004469,0.075649,0.000062,  21.430
   264.0,0.007735,0.004442,0.075070,0.000026,  21.413
   264.2,0.007690,0.004405,0.074500,0.000062,  21.392
   264.4,0.007647,0.004378,0.073915,0.000075,  21.376
   264.6,0.007603,0.004349,0.073307,0.000053,  21.357
   264.8,0.007564,0.004322,0.072829,0.000075,  21.339
   265.0,0.007520,0.004299,0.072398,0.000075,  21.324
   265.2,0.007487,0.004266,0.072026,0.000053,  21.307
   265.4,0.007458,0.004226,0.071678,0.000075,  21.292
   265.6,0.007431,0.004187,0.071165,0.000040,  21.276
   265.8,0.007400,0.004167,0.070622,0.000053,  21.258
   266.0,0.007358,0.004153,0.070027,0.000053,  21.244
   266.2,0.007308,0.004150,0.069449,0.000053,  21.236
   266.4,0.007274,0.004131,0.068863,0.000053,  21.234
   266.6,0.007238,0.004113,0.068264,0.000066,  21.220
   266.8,0.007193,0.004094,0.067755,0.000066,  21.189
   267.0,0.007158,0.004073,0.067269,0.000079,  21.177
   267.2,0.007122,0.004057,0.066819,0.000079,  21.162
   267.4,0.007090,0.004042,0.066312,0.000079,  21.148
   267.6,0.007051,0.004021,0.065775,0.000092,  21.129
   267.8,0.007010,0.004005,0.065238,0.000079,  21.111
   268.0,0.006973,0.003989,0.064775,0.000079,  21.103
   268.2,0.006939,0.003975,0.064303,0.000092,  21.084
   268.4,0.006916,0.003966,0.063867,0.000079,  21.066
   268.6,0.006905,0.003968,0.063444,0.000079,  21.051
   268.8,0.006868,0.003971,0.063044,0.000079,  21.038
   269.0,0.006833,0.003953,0.062647,0.000066,  21.038
   269.2,0.006798,0.003935,0.062042,0.000040,  21.025
   269.4,0.006765,0.003902,0.061341,0.000040,  21.005
   269.6,0.006736,0.003879,0.060539,0.000066,  20.986
   269.8,0.006703,0.003852,0.060054,0.000066,  20.964
   270.0,0.006671,0.003829,0.059678,0.000079,  20.950
   270.2,0.006638,0.003809,0.059383,0.000079,  20.935
   270.4,0.006604,0.003787,0.059080,0.000079,  20.921
   270.6,0.006580,0.003764,0.058842,0.000092,  20.901
   270.8,0.006562,0.003747,0.058619,0.000079,  20.887
   271.0,0.006560,0.003738,0.058346,0.000079,  20.872
   271.2,0.006560,0.003728,0.058065,0.000079,  20.861
   271.4,0.006529,0.003710,0.057777,0.000079,  20.843
   271.6,0.006503,0.003689,0.057489,0.000066,  20.836
   271.8,0.006464,0.003666,0.057179,0.000066,  20.836
   272.0,0.006435,0.003640,0.056855,0.000079,  20.822
   272.2,0.006406,0.003619,0.056582,0.000066,  20.798
   272.4,0.006373,0.003599,0.056316,0.000066,  20.780
   272.6,0.006347,0.003581,0.056058,0.000066,  20.765
   272.8,0.006326,0.003560,0.055735,0.000040,  20.748
   273.0,0.006305,0.003549,0.055347,0.000040,  20.737
   273.2,0.006276,0.003527,0.054952,0.000017,  20.720
   273.4,0.006243,0.003498,0.054744,0.000040,  20.707
   273.6,0.006199,0.003467,0.054608,0.000040,  20.694
   273.8,0.006179,0.003463,0.054557,0.000053,  20.673
   274.0,0.006164,0.003462,0.054572,0.000040,  20.661
   274.2,0.006152,0.003478,0.054300,0.000040,  20.654
   274.4,0.006132,0.003469,0.053943,0.000026,  20.651
   274.6,0.006105,0.003450,0.053529,0.000026,  20.633
   274.8,0.006076,0.003428,0.053187,0.000013,  20.609
   275.0,0.006055,0.003412,0.052837,0.000000,  20.594
   275.2,0.006029,0.003389,0.052474,0.000000,  20.576
   275.4,0.006005,0.003374,0.052146,0.000013,  20.555
   275.6,0.005981,0.003361,0.051797,0.000026,  20.535
   275.8,0.005955,0.003351,0.051456,0.000026,  20.513
   276.0,0.005932,0.003338,0.051321,0.000026,  20.502
   276.2,0.005908,0.003338,0.051258,0.000040,  20.486
   276.4,0.005899,0.003335,0.051301,0.000040,  20.468
   276.6,0.005896,0.003331,0.051045,0.000026,  20.450
   276.8,0.005878,0.003340,0.050690,0.000013,  20.433
   277.0,0.005858,0.003331,0.050228,-0.000013,  20.428
   277.2,0.005834,0.003315,0.049938,-0.000040,  20.422
   277.4,0.005819,0.003303,0.049676,-0.000040,  20.396
   277.6,0.005802,0.003287,0.049457,-0.000026,  20.378
   277.8,0.005781,0.003271,0.048727,0.000000,  20.355
   278.0,0.005767,0.003255,0.047752,0.000013,  20.339
   278.2,0.005749,0.003241,0.046519,0.000013,  20.320
   278.4,0.005731,0.003224,0.046266,0.000013,  20.308
   278.6,0.005725,0.003223,0.046372,0.000013,  20.292
   278.8,0.005719,0.003205,0.046845,0.000013,  20.274
   279.0,0.005717,0.003177,0.046887,0.000013,  20.262
   279.2,0.005712,0.003149,0.046888,0.000013,  20.242
   279.4,0.005691,0.003138,0.046853,0.000013,  20.225
   279.6,0.005677,0.003135,0.046698,0.000000,  20.217
   279.8,0.005652,0.003145,0.046467,0.000026,  20.206
   280.0,0.005624,0.003133,0.046130,0.000026,  20.189
   280.2,0.005604,0.003120,0.045905,0.000026,  20.173
   280.4,0.005583,0.003109,0.045681,0.000040,  20.158
   280.6,0.005559,0.003093,0.045471,0.000040,  20.138
   280.8,0.005538,0.003078,0.045233,0.000026,  20.124
   281.0,0.005515,0.003073,0.044995,0.000013,  20.110
   281.2,0.005481,0.003061,0.044729,0.000013,  20.096
   281.4,0.005446,0.003036,0.044610,0.000013,  20.082
   281.6,0.005408,0.003019,0.044568,0.000000,  20.067
   281.8,0.005393,0.003019,0.044541,0.000000,  20.048
   282.0,0.005381,0.003017,0.044282,0.000013,  20.038
   282.2,0.005381,0.003019,0.043947,0.000013,  20.028
   282.4,0.005363,0.003011,0.043493,0.000013,  20.026
   282.6,0.005345,0.003000,0.043186,0.000000,  20.017
   282.8,0.005327,0.002993,0.042872,0.000000,  19.988
   283.0,0.005309,0.002981,0.042601,-0.000009,  19.981
   283.2,0.005291,0.002967,0.042336,0.000013,  19.964
   283.4,0.005283,0.002966,0.042051,0.000040,  19.953
   283.6,0.005275,0.002964,0.041759,0.000066,  19.935
   283.8,0.005261,0.002952,0.041488,0.000066,  19.921
   284.0,0.005240,0.002949,0.041182,0.000066,  19.908
   284.2,0.005228,0.002949,0.040884,0.000079,  19.901
   284.4,0.005225,0.002944,0.040551,0.000092,  19.886
   284.6,0.005213,0.002949,0.040295,0.000092,  19.876
   284.8,0.005185,0.002943,0.040053,0.000092,  19.859
   285.0,0.005162,0.002934,0.039845,0.000092,  19.851
   285.2,0.005133,0.002920,0.039568,0.000066,  19.850
   285.4,0.005110,0.002907,0.039237,0.000079,  19.833
   285.6,0.005082,0.002896,0.038884,0.000092,  19.821
   285.8,0.005059,0.002878,0.038594,0.000106,  19.809
   286.0,0.005038,0.002864,0.038339,0.000119,  19.803
   286.2,0.005015,0.002848,0.038091,0.000119,  19.790
   286.4,0.004998,0.002835,0.037760,0.000119,  19.781
   286.6,0.004981,0.002819,0.037396,0.000132,  19.766
   286.8,0.004963,0.002798,0.037017,0.000132,  19.757
   287.0,0.004942,0.002779,0.036681,0.000119,  19.748
   287.2,0.004922,0.002752,0.036358,0.000145,  19.740
   287.4,0.004901,0.002739,0.036029,0.000145,  19.725
   287.6,0.004875,0.002730,0.035679,0.000145,  19.718
   287.8,0.004857,0.002726,0.035323,0.000158,  19.720
   288.0,0.004840,0.002720,0.034982,0.000158,  19.714
   288.2,0.004821,0.002708,0.034763,0.000145,  19.695
   288.4,0.004810,0.002706,0.034605,0.000145,  19.684
   288.6,0.004796,0.002697,0.034502,0.000145,  19.676
   288.8,0.004768,0.002686,0.034249,0.000181,  19.666
   289.0,0.004757,0.002682,0.033942,0.000181,  19.656
   289.2,0.004731,0.002671,0.033567,0.000145,  19.646
   289.4,0.004702,0.002650,0.033397,0.000181,  19.638
   289.6,0.004663,0.002634,0.033274,0.000181,  19.627
   289.8,0.004646,0.002628,0.033234,0.000158,  19.614
   290.0,0.004637,0.002625,0.032751,0.000194,  19.606
   290.2,0.004631,0.002630,0.032073,0.000181,  19.598
   290.4,0.004616,0.002619,0.031199,0.000132,  19.588
   290.6,0.004602,0.002611,0.030955,0.000128,  19.585
   290.8,0.004578,0.002600,0.030913,0.000128,  19.569
   291.0,0.004564,0.002591,0.031081,0.000106,  19.560
   291.2,0.004546,0.002580,0.030971,0.000154,  19.553
   291.4,0.004528,0.002568,0.030843,0.000168,  19.535
   291.6,0.004521,0.002561,0.030680,0.000181,  19.527
   291.8,0.004500,0.002550,0.030471,0.000181,  19.516
   292.0,0.004483,0.002539,0.029911,0.000168,  19.506
   292.2,0.004471,0.002536,0.029171,0.000168,  19.499
   292.4,0.004462,0.002527,0.028253,0.000181,  19.490
   292.6,0.004446,0.002523,0.028171,0.000181,  19.480
   292.8,0.004425,0.002509,0.028384,0.000181,  19.466
   293.0,0.004407,0.002498,0.028906,0.000145,  19.462
   293.2,0.004388,0.002484,0.028959,0.000154,  19.461
   293.4,0.004370,0.002469,0.028931,0.000154,  19.455
   293.6,0.004355,0.002454,0.028823,0.000119,  19.439
   293.8,0.004335,0.002448,0.028762,0.000154,  19.425
   294.0,0.004320,0.002441,0.028701,0.000168,  19.423
   294.2,0.004308,0.002429,0.028653,0.000119,  19.408
   294.4,0.004294,0.002418,0.028598,0.000141,  19.398
   294.6,0.004277,0.002414,0.028557,0.000154,  19.384
   294.8,0.004245,0.002394,0.028503,0.000106,  19.370
   295.0,0.004207,0.002370,0.028462,0.000128,  19.363
   295.2,0.004196,0.002347,0.028442,0.000141,  19.352
   295.4,0.004187,0.002340,0.028381,0.000092,  19.345
   295.6,0.004184,0.002345,0.028186,0.000115,  19.335
   295.8,0.004166,0.002359,0.027918,0.000115,  19.324
   296.0,0.004157,0.002357,0.027555,0.000066,  19.322
   296.2,0.004158,0.002347,0.027387,0.000088,  19.302
   296.4,0.004142,0.002339,0.027272,0.000088,  19.288
   296.6,0.004131,0.002331,0.027217,0.000066,  19.275
   296.8,0.004123,0.002324,0.027062,0.000102,  19.257
   297.0,0.004108,0.002314,0.026888,0.000115,  19.252
   297.2,0.004087,0.002305,0.026707,0.000079,  19.239
   297.4,0.004076,0.002299,0.026647,0.000079,  19.225
   297.6,0.004058,0.002290,0.026640,0.000092,  19.215
   297.8,0.004046,0.002290,0.026673,0.000079,  19.204
   298.0,0.004037,0.002292,0.026586,0.000079,  19.187
   298.2,0.004034,0.002302,0.026458,0.000066,  19.179
   298.4,0.004025,0.002294,0.026283,0.000040,  19.174
   298.6,0.004016,0.002288,0.026122,0.000013,  19.168
   298.8,0.004005,0.002276,0.025941,0.000013,  19.152
   299.0,0.003996,0.002267,0.025747,0.000026,  19.147
   299.2,0.003987,0.002255,0.025407,0.000040,  19.134
   299.4,0.003975,0.002238,0.024974,0.000053,  19.118
   299.6,0.003966,0.002232,0.024463,0.000066,  19.112
   299.8,0.003958,0.002226,0.024310,0.000053,  19.095
   300.0,0.003946,0.002225,0.024296,0.000053,  19.088
   300.2,0.003940,0.002206,0.024395,0.000053,  19.079
   300.4,0.003937,0.002188,0.024367,0.000053,  19.067
   300.6,0.003931,0.002173,0.024341,0.000053,  19.058
   300.8,0.003920,0.002161,0.024320,0.000017,  19.042
   301.0,0.003905,0.002164,0.024267,0.000040,  19.036
   301.2,0.003884,0.002172,0.024173,0.000040,  19.037
   301.4,0.003876,0.002165,0.024026,0.000053,  19.026
   301.6,0.003861,0.002159,0.023872,0.000040,  19.014
   301.8,0.003849,0.002149,0.023745,0.000040,  18.997
   302.0,0.003840,0.002145,0.023631,0.000040,  18.991
   302.2,0.003829,0.002135,0.023531,0.000066,  18.982
   302.4,0.003814,0.002130,0.023424,0.000066,  18.975
   302.6,0.003799,0.002119,0.023330,0.000066,  18.958
   302.8,0.003782,0.002105,0.023249,0.000079,  18.947
   303.0,0.003758,0.002088,0.022859,0.000066,  18.942
   303.2,0.003750,0.002082,0.022330,0.000066,  18.935
   303.4,0.003747,0.002080,0.021631,0.000079,  18.925
   303.6,0.003750,0.002090,0.021458,0.000066,  18.913
   303.8,0.003750,0.002100,0.021463,0.000066,  18.909
   304.0,0.003744,0.002097,0.021632,0.000044,  18.905
   304.2,0.003744,0.002096,0.021518,0.000030,  18.892
   304.4,0.003737,0.002103,0.021339,0.000044,  18.887
   304.6,0.003731,0.002100,0.021101,0.000034,  18.874
   304.8,0.003725,0.002102,0.021014,0.000083,  18.862
   305.0,0.003709,0.002105,0.020987,0.000110,  18.856
   305.2,0.003695,0.002105,0.020992,0.000074,  18.842
   305.4,0.003684,0.002098,0.020971,0.000110,  18.836
   305.6,0.003682,0.002094,0.020970,0.000123,  18.829
   305.8,0.003671,0.002094,0.020977,0.000100,  18.817
   306.0,0.003672,0.002096,0.020864,0.000123,  18.810
   306.2,0.003663,0.002106,0.020691,0.000110,  18.801
   306.4,0.003650,0.002106,0.020446,0.000074,  18.799
   306.6,0.003648,0.002096,0.020241,0.000083,  18.795
   306.8,0.003642,0.002087,0.019997,0.000096,  18.785
   307.0,0.003630,0.002081,0.019747,0.000074,  18.777
   307.2,0.003615,0.002072,0.019575,0.000123,  18.773
   307.4,0.003603,0.002063,0.019396,0.000136,  18.760
   307.6,0.003592,0.002059,0.019237,0.000149,  18.755
   307.8,0.003583,0.002055,0.019053,0.000172,  18.747
   308.0,0.003568,0.002055,0.018849,0.000172,  18.740
   308.2,0.003556,0.002043,0.018619,0.000185,  18.735
   308.4,0.003542,0.002033,0.018369,0.000185,  18.723
   308.6,0.003527,0.002018,0.018120,0.000185,  18.719
   308.8,0.003511,0.002009,0.017826,0.000198,  18.711
   309.0,0.003500,0.001999,0.017656,0.000185,  18.705
   309.2,0.003488,0.001997,0.017511,0.000185,  18.704
   309.4,0.003469,0.001990,0.017426,0.000149,  18.699
   309.6,0.003461,0.001978,0.017366,0.000185,  18.692
   309.8,0.003459,0.001966,0.017280,0.000185,  18.681
   310.0,0.003447,0.001961,0.017219,0.000198,  18.675
   310.2,0.003438,0.001958,0.017165,0.000185,  18.666
   310.4,0.003432,0.001964,0.016897,0.000185,  18.657
   310.6,0.003415,0.001954,0.016513,0.000185,  18.654
   310.8,0.003391,0.001950,0.016013,0.000198,  18.642
   311.0,0.003359,0.001942,0.015934,0.000185,  18.638
   311.2,0.003350,0.001935,0.015992,0.000185,  18.633
   311.4,0.003348,0.001936,0.016206,0.000198,  18.624
   311.6,0.003345,0.001934,0.016153,0.000185,  18.612
   311.8,0.003339,0.001932,0.016047,0.000172,  18.613
   312.0,0.003330,0.001930,0.015863,0.000158,  18.610
   312.2,0.003321,0.001930,0.015732,0.000119,  18.597
   312.4,0.003315,0.001927,0.015582,0.000132,  18.588
   312.6,0.003304,0.001925,0.015387,0.000145,  18.586
   312.8,0.003295,0.001921,0.015288,0.000158,  18.577
   313.0,0.003286,0.001914,0.015254,0.000172,  18.574
   313.2,0.003269,0.001907,0.015233,0.000185,  18.560
   313.4,0.003251,0.001900,0.015206,0.000172,  18.556
   313.6,0.003239,0.001888,0.015199,0.000172,  18.553
   313.8,0.003231,0.001881,0.015199,0.000172,  18.544
   314.0,0.003219,0.001877,0.015153,0.000172,  18.539
   314.2,0.003210,0.001869,0.015068,0.000158,  18.532
   314.4,0.003198,0.001858,0.014969,0.000145,  18.523
   314.6,0.003187,0.001854,0.014890,0.000119,  18.527
   314.8,0.003178,0.001840,0.014825,0.000119,  18.521
   315.0,0.003166,0.001829,0.014772,0.000106,  18.509
   315.2,0.003149,0.001827,0.014636,0.000106,  18.503
   315.4,0.003140,0.001820,0.014481,0.000119,  18.494
   315.6,0.003134,0.001808,0.014286,0.000106,  18.487
   315.8,0.003121,0.001803,0.014066,0.000106,  18.477
   316.0,0.003125,0.001794,0.013814,0.000119,  18.473
   316.2,0.003105,0.001776,0.013517,0.000106,  18.468
   316.4,0.003072,0.001752,0.013490,0.000092,  18.462
   316.6,0.003046,0.001721,0.013580,0.000106,  18.456
   316.8,0.003037,0.001719,0.013779,0.000106,  18.452
   317.0,0.003035,0.001727,0.013758,0.000092,  18.441
   317.2,0.003040,0.001743,0.013680,0.000092,  18.443
   317.4,0.003037,0.001738,0.013530,0.000092,  18.436
   317.6,0.003037,0.001736,0.013452,0.000066,  18.425
   317.8,0.003035,0.001736,0.013355,0.000079,  18.411
   318.0,0.003035,0.001729,0.013245,0.000079,  18.408
   318.2,0.003025,0.001727,0.013225,0.000079,  18.397
   318.4,0.003022,0.001725,0.013236,0.000079,  18.394
   318.6,0.003010,0.001718,0.013280,0.000057,  18.384
   318.8,0.002993,0.001709,0.013363,0.000079,  18.377
   319.0,0.002970,0.001708,0.012771,0.000079,  18.374
   319.2,0.002964,0.001707,0.011932,0.000079,  18.366
   319.4,0.002964,0.001705,0.010852,0.000079,  18.355
   319.6,0.002964,0.001711,0.010749,0.000079,  18.352
   319.8,0.002964,0.001706,0.011048,0.000079,  18.346
   320.0,0.002967,0.001706,0.011698,0.000053,  18.345
   320.2,0.002964,0.001702,0.011748,0.000026,  18.344
   320.4,0.002961,0.001697,0.011664,0.000026,  18.328
   320.6,0.002959,0.001692,0.011471,0.000040,  18.319
   320.8,0.002953,0.001694,0.011534,0.000053,  18.313
   321.0,0.002950,0.001692,0.011641,0.000053,  18.304
   321.2,0.002944,0.001689,0.011819,0.000066,  18.297
   321.4,0.002938,0.001683,0.011639,0.000066,  18.294
   321.6,0.002935,0.001686,0.011313,0.000079,  18.286
   321.8,0.002935,0.001678,0.010828,0.000079,  18.274
   322.0,0.002929,0.001665,0.010784,0.000079,  18.266
   322.2,0.002926,0.001653,0.010878,0.000079,  18.264
   322.4,0.002921,0.001653,0.011102,0.000066,  18.253
   322.6,0.002912,0.001651,0.010788,0.000040,  18.248
   322.8,0.002916,0.001653,0.010263,0.000040,  18.243
   323.0,0.002913,0.001652,0.009524,0.000053,  18.236
   323.2,0.002904,0.001654,0.009529,0.000053,  18.227
   323.4,0.002905,0.001659,0.009788,0.000053,  18.222
   323.6,0.002899,0.001656,0.010309,0.000066,  18.210
   323.8,0.002884,0.001655,0.010492,0.000066,  18.199
   324.0,0.002878,0.001661,0.010630,0.000066,  18.197
   324.2,0.002881,0.001656,0.010718,0.000079,  18.186
   324.4,0.002878,0.001637,0.010748,0.000066,  18.179
   324.6,0.002878,0.001624,0.010727,0.000079,  18.177
   324.8,0.002881,0.001624,0.010650,0.000092,  18.165
   325.0,0.002887,0.001625,0.010603,0.000092,  18.161
   325.2,0.002889,0.001642,0.010556,0.000106,  18.158
   325.4,0.002892,0.001644,0.010484,0.000119,  18.152
   325.6,0.002895,0.001653,0.010367,0.000132,  18.148
   325.8,0.002892,0.001666,0.010226,0.000145,  18.139
   326.0,0.002885,0.001669,0.010040,0.000158,  18.131
   326.2,0.002891,0.001673,0.009727,0.000172,  18.123
   326.4,0.002891,0.001670,0.009351,0.000185,  18.118
   326.6,0.002879,0.001668,0.008874,0.000162,  18.112
   326.8,0.002870,0.001671,0.008334,0.000198,  18.101
   327.0,0.002859,0.001666,0.008385,0.000198,  18.099
   327.2,0.002853,0.001666,0.008600,0.000224,  18.097
   327.4,0.002850,0.001665,0.009013,0.000224,  18.090
   327.6,0.002845,0.001667,0.009057,0.000211,  18.089
   327.8,0.002842,0.001664,0.008979,0.000211,  18.085
   328.0,0.002842,0.001666,0.008818,0.000185,  18.086
   328.2,0.002839,0.001663,0.008791,0.000145,  18.079
   328.4,0.002843,0.001663,0.008782,0.000145,  18.075
   328.6,0.002840,0.001657,0.008805,0.000172,  18.066
   328.8,0.002834,0.001653,0.008765,0.000185,  18.058
   329.0,0.002835,0.001648,0.008712,0.000198,  18.056
   329.2,0.002829,0.001646,0.008647,0.000198,  18.052
   329.4,0.002813,0.001649,0.008588,0.000198,  18.047
   329.6,0.002811,0.001649,0.008536,0.000211,  18.043
   329.8,0.002808,0.001647,0.008472,0.000211,  18.038
   330.0,0.002802,0.001643,0.008382,0.000211,  18.035
   330.2,0.002799,0.001639,0.008253,0.000224,  18.023
   330.4,0.002796,0.001642,0.008138,0.000211,  18.024
   330.6,0.002793,0.001632,0.008035,0.000198,  18.023
   330.8,0.002793,0.001624,0.007914,0.000211,  18.022
   331.0,0.002793,0.001619,0.007805,0.000211,  18.018
   331.2,0.002787,0.001616,0.007708,0.000211,  18.012
   331.4,0.002784,0.001627,0.007625,0.000224,  18.007
   331.6,0.002781,0.001629,0.007542,0.000224,  17.999
   331.8,0.002773,0.001619,0.007458,0.000224,  17.991
   332.0,0.002758,0.001624,0.007394,0.000238,  17.991
   332.2,0.002740,0.001617,0.007297,0.000238,  17.985
   332.4,0.002727,0.001603,0.007233,0.000238,  17.982
   332.6,0.002701,0.001590,0.007188,0.000251,  17.976
   332.8,0.002688,0.001584,0.007138,0.000251,  17.970
   333.0,0.002688,0.001579,0.007080,0.000238,  17.969
   333.2,0.002701,0.001585,0.007009,0.000238,  17.966
   333.4,0.002697,0.001587,0.006944,0.000224,  17.959
   333.6,0.002699,0.001581,0.006886,0.000185,  17.958
   333.8,0.002702,0.001586,0.006822,0.000198,  17.946
   334.0,0.002695,0.001583,0.006745,0.000211,  17.942
   334.2,0.002695,0.001585,0.006668,0.000211,  17.941
   334.4,0.002693,0.001583,0.006598,0.000224,  17.935
   334.6,0.002677,0.001573,0.006510,0.000224,  17.934
   334.8,0.002659,0.001572,0.006326,0.000211,  17.923
   335.0,0.002643,0.001563,0.006087,0.000224,  17.919
   335.2,0.002631,0.001553,0.005793,0.000211,  17.917
   335.4,0.002622,0.001551,0.005710,0.000198,  17.915
   335.6,0.002614,0.001544,0.005729,0.000185,  17.908
   335.8,0.002615,0.001532,0.005816,0.000149,  17.908
   336.0,0.002603,0.001528,0.005985,0.000145,  17.907
   336.2,0.002591,0.001520,0.005997,0.000119,  17.908
   336.4,0.002595,0.001510,0.005977,0.000119,  17.896
   336.6,0.002589,0.001503,0.005944,0.000106,  17.895
   336.8,0.002580,0.001499,0.005918,0.000141,  17.884
   337.0,0.002574,0.001491,0.005904,0.000154,  17.882
   337.2,0.002568,0.001489,0.005917,0.000119,  17.879
   337.4,0.002556,0.001490,0.005903,0.000154,  17.875
   337.6,0.002545,0.001465,0.005890,0.000168,  17.870
   337.8,0.002530,0.001446,0.005877,0.000132,  17.864
   338.0,0.002513,0.001416,0.005927,0.000119,  17.862
   338.2,0.002500,0.001410,0.005958,0.000132,  17.858
   338.4,0.002497,0.001405,0.006027,0.000119,  17.851
   338.6,0.002497,0.001414,0.005988,0.000092,  17.851
   338.8,0.002490,0.001424,0.005880,0.000106,  17.845
   339.0,0.002487,0.001424,0.005727,0.000106,  17.842
   339.2,0.002488,0.001428,0.005657,0.000092,  17.830
   339.4,0.002485,0.001435,0.005587,0.000106,  17.827
   339.6,0.002485,0.001435,0.005543,0.000106,  17.821
   339.8,0.002485,0.001435,0.005573,0.000092,  17.819
   340.0,0.002468,0.001441,0.005647,0.000106,  17.812
   340.2,0.002444,0.001428,0.005759,0.000106,  17.809
   340.4,0.002415,0.001415,0.005797,0.000092,  17.805
   340.6,0.002412,0.001403,0.005809,0.000106,  17.802
   340.8,0.002418,0.001401,0.005816,0.000106,  17.792
   341.0,0.002433,0.001400,0.005747,0.000092,  17.787
   341.2,0.002438,0.001409,0.005614,0.000092,  17.780
   341.4,0.002444,0.001410,0.005444,0.000092,  17.782
   341.6,0.002440,0.001407,0.005356,0.000066,  17.782
   341.8,0.002450,0.001406,0.005260,0.000066,  17.777
   342.0,0.002449,0.001403,0.005190,0.000079,  17.774
   342.2,0.002449,0.001408,0.005134,0.000066,  17.764
   342.4,0.002449,0.001411,0.005089,0.000079,  17.760
   342.6,0.002449,0.001409,0.005045,0.000079,  17.755
   342.8,0.002433,0.001409,0.005032,0.000079,  17.751
   343.0,0.002429,0.001415,0.005045,0.000092,  17.747
   343.2,0.002426,0.001415,0.005071,0.000079,  17.743
   343.4,0.002420,0.001408,0.005051,0.000079,  17.735
