Run Name,FADHLI-RUN 1
Run Date,02:34:40 PM   02-23-15
Method Name,50% CRL group 2 April 7 2014
Export Format Version, 1.00
Method ID, 2156
Points/Second, 5.00
Number of Records,   3060
Offset from Run Start Time,00:00:00
Run End Time,00:10:11
Time,Second
QuadTec 1, (280.0 nm), AU
QuadTec 2, (260.0 nm), AU
Gradient Pump,<Not Selected>
QuadTec 3, (214.0 nm), AU
QuadTec 4, (405.0 nm), AU
Conductivity,mS/cm
Trace 6,<Not Available>
GP Pressure,<Not Selected>
Volume,<Not Selected>
Fraction,<Not Available>
Time,QuadTec 1,QuadTec 2,QuadTec 3,QuadTec 4,Conductivity
     0.0,0.037499,0.000000,0.609316,0.001105,  39.277
     0.2,0.037249,0.000000,0.609485,0.001118,  39.269
     0.4,0.036606,0.000000,0.609645,0.001083,  39.261
     0.6,0.035693,0.000000,0.609718,0.001105,  39.256
     0.8,0.000000,0.000000,0.610354,0.001118,  39.259
     1.0,0.000000,0.000000,0.611203,0.001083,  39.265
     1.2,0.000000,0.000000,0.000000,0.000000,  39.263
     1.4,0.000000,0.000000,0.000000,0.000000,  39.248
     1.6,0.000000,0.000000,0.000000,0.000000,  39.216
     1.8,0.000000,0.000000,0.000000,0.000000,  39.185
     2.0,0.000000,0.000000,0.000000,0.000000,  39.168
     2.2,0.000000,0.000000,0.000000,0.000000,  39.159
     2.4,0.000000,0.000000,0.000000,0.000000,  39.154
     2.6,0.000000,0.000000,0.000000,0.000000,  39.141
     2.8,0.000000,0.000000,0.000000,0.000000,  39.127
     3.0,0.000000,0.000000,0.000000,0.000000,  39.127
     3.2,0.000000,0.000000,0.000000,0.000000,  39.130
     3.4,0.000000,0.000000,0.000000,0.000000,  39.136
     3.6,0.000000,0.000000,0.000000,0.000000,  39.138
     3.8,0.000000,0.000000,0.000000,0.000000,  39.142
     4.0,0.000000,0.000500,0.000000,0.000000,  39.146
     4.2,0.000570,0.000532,0.000000,0.000000,  39.154
     4.4,0.000622,0.000568,0.000000,0.000000,  39.158
     4.6,0.000674,0.000612,0.000000,0.000000,  39.172
     4.8,0.000721,0.000662,0.000000,0.000000,  39.178
     5.0,0.000770,0.000719,0.000000,0.000000,  39.177
     5.2,0.000807,0.000773,-0.001516,0.000175,  39.192
     5.4,0.000857,0.000830,-0.001551,0.000285,  39.193
     5.6,0.000891,0.000868,-0.001628,0.000390,  39.198
     5.8,0.000906,0.000900,-0.001783,0.000456,  39.206
     6.0,0.000928,0.000926,-0.001931,0.000482,  39.214
     6.2,0.000987,0.000983,-0.002121,0.000456,  39.227
     6.4,0.001055,0.001059,-0.002395,0.000482,  39.247
     6.6,0.001142,0.001145,-0.002563,0.000508,  39.276
     6.8,0.001195,0.001211,-0.002703,0.000521,  39.292
     7.0,0.001238,0.001275,-0.002828,0.000548,  39.309
     7.2,0.001259,0.001339,-0.002947,0.000552,  39.321
     7.4,0.001285,0.001368,-0.003087,0.000578,  39.337
     7.6,0.001285,0.001381,-0.003199,0.000618,  39.338
     7.8,0.001269,0.001391,-0.003226,0.000670,  39.337
     8.0,0.001238,0.001362,-0.003213,0.000758,  39.344
     8.2,0.001173,0.001298,-0.003193,0.000798,  39.348
     8.4,0.001077,0.001216,-0.003332,0.000837,  39.349
     8.6,0.000956,0.001147,-0.003528,0.000837,  39.357
     8.8,0.000866,0.001076,-0.003807,0.000837,  39.358
     9.0,0.000776,0.001003,-0.004072,0.000798,  39.358
     9.2,0.000686,0.000931,-0.004393,0.000745,  39.362
     9.4,0.000615,0.000863,-0.004728,0.000679,  39.365
     9.6,0.000547,0.000801,-0.004763,0.000600,  39.351
     9.8,0.000488,0.000751,-0.004665,0.000495,  39.347
    10.0,0.000432,0.000701,-0.004490,0.000429,  39.337
    10.2,0.000376,0.000659,-0.004504,0.000364,  39.325
    10.4,0.000327,0.000621,-0.004524,0.000324,  39.314
    10.6,0.000284,0.000575,-0.004593,0.000285,  39.305
    10.8,0.000240,0.000543,-0.004991,0.000232,  39.306
    11.0,0.000203,0.000529,-0.005522,0.000180,  39.298
    11.2,0.000194,0.000526,-0.006267,0.000114,  39.298
    11.4,0.000197,0.000537,-0.007164,0.000074,  39.302
    11.6,0.000212,0.000551,-0.007129,0.000022,  39.305
    11.8,0.000243,0.000574,-0.006892,-0.000004,  39.308
    12.0,0.000284,0.000611,-0.006377,-0.000017,  39.311
    12.2,0.000333,0.000653,-0.006320,-0.000079,  39.307
    12.4,0.000361,0.000678,-0.006353,-0.000105,  39.320
    12.6,0.000383,0.000706,-0.006491,-0.000066,  39.321
    12.8,0.000392,0.000726,-0.006907,-0.000035,  39.322
    13.0,0.000404,0.000749,-0.007482,0.000079,  39.324
    13.2,0.000414,0.000758,-0.008250,0.000145,  39.327
    13.4,0.000417,0.000778,-0.008871,0.000210,  39.331
    13.6,0.000426,0.000792,-0.009498,0.000311,  39.341
    13.8,0.000438,0.000796,-0.010151,0.000390,  39.348
    14.0,0.000448,0.000808,-0.009437,0.000434,  39.354
    14.2,0.000467,0.000822,-0.008092,0.000486,  39.356
    14.4,0.000485,0.000840,-0.006109,0.000539,  39.359
    14.6,0.000498,0.000863,-0.006425,0.000556,  39.376
    14.8,0.000516,0.000874,-0.007625,0.000605,  39.390
    15.0,0.000523,0.000879,-0.009679,0.000631,  39.409
    15.2,0.000513,0.000883,-0.010332,0.000622,  39.435
    15.4,0.000510,0.000876,-0.010742,0.000670,  39.453
    15.6,0.000485,0.000853,-0.010908,0.000697,  39.468
    15.8,0.000441,0.000831,-0.011224,0.000662,  39.477
    16.0,0.000396,0.000788,-0.011474,0.000710,  39.474
    16.2,0.000324,0.000736,-0.011649,0.000723,  39.479
    16.4,0.000234,0.000673,-0.011975,0.000701,  39.482
    16.6,0.000139,0.000596,-0.012301,0.000736,  39.487
    16.8,0.000033,0.000504,-0.012675,0.000736,  39.486
    17.0,-0.000088,0.000413,-0.013233,0.000714,  39.487
    17.2,-0.000205,0.000331,-0.013921,0.000749,  39.492
    17.4,-0.000307,0.000242,-0.014757,0.000723,  39.496
    17.6,-0.000412,0.000167,-0.015164,0.000697,  39.499
    17.8,-0.000505,0.000100,-0.015490,0.000609,  39.497
    18.0,-0.000585,0.000031,-0.015659,0.000578,  39.488
    18.2,-0.000669,-0.000022,-0.015829,0.000513,  39.476
    18.4,-0.000730,-0.000074,-0.015903,0.000386,  39.467
    18.6,-0.000789,-0.000120,-0.015978,0.000315,  39.458
    18.8,-0.000854,-0.000160,-0.015950,0.000228,  39.450
    19.0,-0.000897,-0.000189,-0.016167,0.000162,  39.448
    19.2,-0.000931,-0.000217,-0.016432,0.000110,  39.448
    19.4,-0.000968,-0.000235,-0.016763,0.000070,  39.438
    19.6,-0.000983,-0.000246,-0.016932,0.000031,  39.429
    19.8,-0.000996,-0.000258,-0.017054,0.000013,  39.431
    20.0,-0.001009,-0.000263,-0.017122,-0.000013,  39.438
    20.2,-0.001002,-0.000256,-0.017304,-0.000061,  39.439
    20.4,-0.001002,-0.000252,-0.017527,-0.000039,  39.446
    20.6,-0.001005,-0.000238,-0.017777,-0.000039,  39.449
    20.8,-0.000992,-0.000215,-0.018202,-0.000074,  39.450
    21.0,-0.000992,-0.000213,-0.018742,-0.000026,  39.456
    21.2,-0.000996,-0.000207,-0.019448,0.000026,  39.456
    21.4,-0.000996,-0.000199,-0.020120,0.000057,  39.465
    21.6,-0.000999,-0.000200,-0.020818,0.000158,  39.468
    21.8,-0.001011,-0.000197,-0.021615,0.000223,  39.470
    22.0,-0.001033,-0.000195,-0.022384,0.000254,  39.474
    22.2,-0.001054,-0.000188,-0.023145,0.000342,  39.478
    22.4,-0.001054,-0.000174,-0.023938,0.000394,  39.483
    22.6,-0.001049,-0.000159,-0.024650,0.000425,  39.488
    22.8,-0.001023,-0.000153,-0.025321,0.000513,  39.489
    23.0,-0.001017,-0.000144,-0.025958,0.000565,  39.501
    23.2,-0.001011,-0.000132,-0.026362,0.000570,  39.513
    23.4,-0.001004,-0.000132,-0.026667,0.000618,  39.546
    23.6,-0.001020,-0.000140,-0.026872,0.000644,  39.567
    23.8,-0.001044,-0.000145,-0.027089,0.000622,  39.585
    24.0,-0.001081,-0.000177,-0.027267,0.000657,  39.606
    24.2,-0.001140,-0.000213,-0.027398,0.000670,  39.613
    24.4,-0.001220,-0.000262,-0.027471,0.000697,  39.621
    24.6,-0.001319,-0.000328,-0.027530,0.000662,  39.620
    24.8,-0.001418,-0.000397,-0.027517,0.000710,  39.623
    25.0,-0.001532,-0.000474,-0.027906,0.000723,  39.621
    25.2,-0.001658,-0.000561,-0.028478,0.000714,  39.628
    25.4,-0.001772,-0.000645,-0.029279,0.000749,  39.637
    25.6,-0.001889,-0.000731,-0.030249,0.000736,  39.634
    25.8,-0.002006,-0.000804,-0.030715,0.000688,  39.641
    26.0,-0.002105,-0.000865,-0.031096,0.000697,  39.639
    26.2,-0.002197,-0.000925,-0.031379,0.000644,  39.638
    26.4,-0.002277,-0.000965,-0.031582,0.000565,  39.626
    26.6,-0.002347,-0.001024,-0.031720,0.000508,  39.614
    26.8,-0.002424,-0.001083,-0.031792,0.000442,  39.613
    27.0,-0.002495,-0.001144,-0.031916,0.000377,  39.612
    27.2,-0.002553,-0.001194,-0.032002,0.000298,  39.607
    27.4,-0.002609,-0.001249,-0.032120,0.000245,  39.602
    27.6,-0.002668,-0.001290,-0.032342,0.000206,  39.606
    27.8,-0.002698,-0.001315,-0.032577,0.000180,  39.597
    28.0,-0.002727,-0.001331,-0.032831,0.000140,  39.595
    28.2,-0.002732,-0.001331,-0.034219,0.000101,  39.595
    28.4,-0.002732,-0.001343,-0.036231,0.000061,  39.603
    28.6,-0.002751,-0.001345,-0.038820,0.000035,  39.603
    28.8,-0.002772,-0.001350,-0.039160,0.000022,  39.609
    29.0,-0.002794,-0.001357,-0.038748,0.000009,  39.611
    29.2,-0.002815,-0.001354,-0.037509,0.000035,  39.622
    29.4,-0.002840,-0.001355,-0.037520,0.000039,  39.628
    29.6,-0.002864,-0.001365,-0.037774,0.000105,  39.631
    29.8,-0.002892,-0.001367,-0.038247,0.000158,  39.634
    30.0,-0.002923,-0.001374,-0.038674,0.000175,  39.640
    30.2,-0.002957,-0.001386,-0.039231,0.000250,  39.644
    30.4,-0.002984,-0.001390,-0.039866,0.000315,  39.649
    30.6,-0.003012,-0.001401,-0.040584,0.000359,  39.656
    30.8,-0.003043,-0.001404,-0.041437,0.000460,  39.657
    31.0,-0.003052,-0.001392,-0.042365,0.000499,  39.665
    31.2,-0.003052,-0.001383,-0.043127,0.000552,  39.668
    31.4,-0.003043,-0.001379,-0.043835,0.000530,  39.680
    31.6,-0.003052,-0.001368,-0.044505,0.000592,  39.708
    31.8,-0.003064,-0.001361,-0.045348,0.000631,  39.720
    32.0,-0.003079,-0.001380,-0.046219,0.000609,  39.736
    32.2,-0.003119,-0.001404,-0.047155,0.000670,  39.752
    32.4,-0.003178,-0.001445,-0.048169,0.000697,  39.761
    32.6,-0.003248,-0.001477,-0.048057,0.000675,  39.771
    32.8,-0.003328,-0.001518,-0.047552,0.000736,  39.783
    33.0,-0.003420,-0.001559,-0.046602,0.000763,  39.786
    33.2,-0.003531,-0.001606,-0.046378,0.000763,  39.788
    33.4,-0.003647,-0.001677,-0.046361,0.000798,  39.788
    33.6,-0.003779,-0.001761,-0.046508,0.000811,  39.794
    33.8,-0.003926,-0.001853,-0.046881,0.000789,  39.798
    34.0,-0.004040,-0.001930,-0.047532,0.000802,  39.804
    34.2,-0.004141,-0.002005,-0.048396,0.000802,  39.803
    34.4,-0.004233,-0.002073,-0.048931,0.000728,  39.810
    34.6,-0.004312,-0.002148,-0.049458,0.000710,  39.804
    34.8,-0.004387,-0.002223,-0.049928,0.000657,  39.807
    35.0,-0.004435,-0.002291,-0.051392,0.000556,  39.795
    35.2,-0.004481,-0.002353,-0.053369,0.000499,  39.781
    35.4,-0.004548,-0.002405,-0.055847,0.000434,  39.781
    35.6,-0.004622,-0.002445,-0.056102,0.000333,  39.784
    35.8,-0.004701,-0.002500,-0.055490,0.000315,  39.782
    36.0,-0.004756,-0.002547,-0.054060,0.000276,  39.784
    36.2,-0.004805,-0.002588,-0.053715,0.000188,  39.784
    36.4,-0.004848,-0.002616,-0.053479,0.000197,  39.775
    36.6,-0.004882,-0.002629,-0.053382,0.000184,  39.778
    36.8,-0.004922,-0.002631,-0.053293,0.000123,  39.781
    37.0,-0.004953,-0.002643,-0.053283,0.000131,  39.785
    37.2,-0.004980,-0.002648,-0.053359,0.000131,  39.791
    37.4,-0.005008,-0.002656,-0.053726,0.000110,  39.798
    37.6,-0.005029,-0.002663,-0.054268,0.000131,  39.805
    37.8,-0.005065,-0.002664,-0.054984,0.000158,  39.810
    38.0,-0.005102,-0.002666,-0.055939,0.000197,  39.815
    38.2,-0.005142,-0.002675,-0.057090,0.000188,  39.820
    38.4,-0.005184,-0.002694,-0.058464,0.000263,  39.824
    38.6,-0.005224,-0.002710,-0.059390,0.000315,  39.837
    38.8,-0.005267,-0.002719,-0.060194,0.000333,  39.836
    39.0,-0.005285,-0.002730,-0.060894,0.000421,  39.844
    39.2,-0.005298,-0.002732,-0.061498,0.000486,  39.856
    39.4,-0.005304,-0.002733,-0.062219,0.000517,  39.862
    39.6,-0.005310,-0.002726,-0.062928,0.000605,  39.872
    39.8,-0.005313,-0.002722,-0.063601,0.000657,  39.877
    40.0,-0.005316,-0.002704,-0.064173,0.000662,  39.888
    40.2,-0.005337,-0.002707,-0.064696,0.000710,  39.895
    40.4,-0.005365,-0.002702,-0.065163,0.000736,  39.904
    40.6,-0.005404,-0.002709,-0.065304,0.000741,  39.920
    40.8,-0.005462,-0.002734,-0.065252,0.000802,  39.923
    41.0,-0.005536,-0.002762,-0.065012,0.000793,  39.930
    41.2,-0.005627,-0.002802,-0.065463,0.000806,  39.949
    41.4,-0.005698,-0.002850,-0.066127,0.000820,  39.950
    41.6,-0.005775,-0.002898,-0.067046,0.000811,  39.950
    41.8,-0.005838,-0.002955,-0.067408,0.000872,  39.957
    42.0,-0.005905,-0.003023,-0.067603,0.000885,  39.955
    42.2,-0.006003,-0.003098,-0.067671,0.000877,  39.958
    42.4,-0.006119,-0.003179,-0.068138,0.000912,  39.967
    42.6,-0.006238,-0.003254,-0.068728,0.000912,  39.964
    42.8,-0.006336,-0.003321,-0.069485,0.000864,  39.964
    43.0,-0.006424,-0.003383,-0.069930,0.000859,  39.969
    43.2,-0.006503,-0.003442,-0.070283,0.000793,  39.968
    43.4,-0.006579,-0.003498,-0.070563,0.000706,  39.963
    43.6,-0.006656,-0.003544,-0.070785,0.000675,  39.951
    43.8,-0.006720,-0.003578,-0.070928,0.000609,  39.953
    44.0,-0.006778,-0.003617,-0.071007,0.000522,  39.958
    44.2,-0.006842,-0.003637,-0.071228,0.000517,  39.962
    44.4,-0.006884,-0.003665,-0.071484,0.000478,  39.961
    44.6,-0.006924,-0.003692,-0.071788,0.000416,  39.961
    44.8,-0.006970,-0.003713,-0.072057,0.000425,  39.959
    45.0,-0.006997,-0.003727,-0.072366,0.000386,  39.963
    45.2,-0.007027,-0.003729,-0.072676,0.000372,  39.964
    45.4,-0.007061,-0.003722,-0.072921,0.000324,  39.967
    45.6,-0.007088,-0.003731,-0.073141,0.000346,  39.971
    45.8,-0.007127,-0.003745,-0.073345,0.000333,  39.973
    46.0,-0.007173,-0.003761,-0.073542,0.000337,  39.980
    46.2,-0.007225,-0.003780,-0.074196,0.000399,  39.979
    46.4,-0.007273,-0.003798,-0.075009,0.000451,  39.983
    46.6,-0.007322,-0.003818,-0.075985,0.000456,  39.990
    46.8,-0.007374,-0.003836,-0.077383,0.000543,  39.990
    47.0,-0.007434,-0.003862,-0.079051,0.000570,  39.991
    47.2,-0.007498,-0.003898,-0.081043,0.000574,  39.999
    47.4,-0.007571,-0.003941,-0.082022,0.000675,  40.004
    47.6,-0.007614,-0.003973,-0.082654,0.000714,  40.007
    47.8,-0.007647,-0.004002,-0.082952,0.000732,  40.019
    48.0,-0.007675,-0.004023,-0.083640,0.000820,  40.025
    48.2,-0.007714,-0.004052,-0.084343,0.000872,  40.028
    48.4,-0.007757,-0.004079,-0.085078,0.000877,  40.036
    48.6,-0.007802,-0.004098,-0.086748,0.000925,  40.045
    48.8,-0.007854,-0.004141,-0.088909,0.000938,  40.046
    49.0,-0.007915,-0.004186,-0.091593,0.000916,  40.059
    49.2,-0.007980,-0.004236,-0.091885,0.000951,  40.065
    49.4,-0.008044,-0.004315,-0.091220,0.000938,  40.072
    49.6,-0.008153,-0.004407,-0.089662,0.000903,  40.076
    49.8,-0.008287,-0.004517,-0.089370,0.000938,  40.079
    50.0,-0.008434,-0.004614,-0.089249,0.000925,  40.080
    50.2,-0.008577,-0.004716,-0.089335,0.000890,  40.086
    50.4,-0.008729,-0.004813,-0.089670,0.000925,  40.082
    50.6,-0.008874,-0.004915,-0.090257,0.000912,  40.085
    50.8,-0.009014,-0.005016,-0.091108,0.000899,  40.088
    51.0,-0.009151,-0.005120,-0.091667,0.000872,  40.085
    51.2,-0.009271,-0.005224,-0.092236,0.000881,  40.089
    51.4,-0.009386,-0.005325,-0.092822,0.000815,  40.094
    51.6,-0.009495,-0.005424,-0.093166,0.000701,  40.101
    51.8,-0.009594,-0.005508,-0.093426,0.000631,  40.103
    52.0,-0.009691,-0.005585,-0.093592,0.000565,  40.092
    52.2,-0.009779,-0.005645,-0.093840,0.000513,  40.081
    52.4,-0.009863,-0.005716,-0.094139,0.000425,  40.080
    52.6,-0.009942,-0.005776,-0.094429,0.000407,  40.082
    52.8,-0.010015,-0.005831,-0.094704,0.000355,  40.086
    53.0,-0.010087,-0.005871,-0.094939,0.000267,  40.085
    53.2,-0.010145,-0.005900,-0.095190,0.000250,  40.087
    53.4,-0.010190,-0.005920,-0.095409,0.000210,  40.082
    53.6,-0.010232,-0.005927,-0.095757,0.000162,  40.085
    53.8,-0.010290,-0.005953,-0.096156,0.000158,  40.092
    54.0,-0.010356,-0.005987,-0.096571,0.000131,  40.101
    54.2,-0.010426,-0.006024,-0.096992,0.000070,  40.098
    54.4,-0.010480,-0.006053,-0.097429,0.000079,  40.104
    54.6,-0.010541,-0.006083,-0.097916,0.000118,  40.110
    54.8,-0.010592,-0.006113,-0.098746,0.000123,  40.108
    55.0,-0.010650,-0.006142,-0.099738,0.000237,  40.116
    55.2,-0.010720,-0.006162,-0.100922,0.000276,  40.116
    55.4,-0.010779,-0.006191,-0.101820,0.000267,  40.118
    55.6,-0.010825,-0.006225,-0.102678,0.000302,  40.121
    55.8,-0.010864,-0.006256,-0.103513,0.000355,  40.125
    56.0,-0.010891,-0.006286,-0.104517,0.000372,  40.127
    56.2,-0.010918,-0.006305,-0.105599,0.000473,  40.126
    56.4,-0.010945,-0.006317,-0.106767,0.000513,  40.132
    56.6,-0.010973,-0.006320,-0.107750,0.000517,  40.135
    56.8,-0.010997,-0.006338,-0.108716,0.000578,  40.142
    57.0,-0.011033,-0.006360,-0.109630,0.000605,  40.145
    57.2,-0.011082,-0.006391,-0.110104,0.000583,  40.146
    57.4,-0.011126,-0.006433,-0.110388,0.000644,  40.160
    57.6,-0.011196,-0.006478,-0.110410,0.000670,  40.169
    57.8,-0.011287,-0.006528,-0.110613,0.000649,  40.183
    58.0,-0.011386,-0.006589,-0.110787,0.000684,  40.187
    58.2,-0.011482,-0.006659,-0.110933,0.000710,  40.184
    58.4,-0.011588,-0.006729,-0.111208,0.000675,  40.189
    58.6,-0.011690,-0.006817,-0.111570,0.000710,  40.193
    58.8,-0.011813,-0.006918,-0.111968,0.000723,  40.193
    59.0,-0.011959,-0.007024,-0.112750,0.000723,  40.193
    59.2,-0.012105,-0.007112,-0.113777,0.000688,  40.197
    59.4,-0.012222,-0.007188,-0.114998,0.000710,  40.197
    59.6,-0.012335,-0.007261,-0.115675,0.000684,  40.200
    59.8,-0.012424,-0.007345,-0.116192,0.000622,  40.199
    60.0,-0.012520,-0.007411,-0.116566,0.000618,  40.199
    60.2,-0.012610,-0.007480,-0.116781,0.000565,  40.195
    60.4,-0.012691,-0.007527,-0.117024,0.000451,  40.193
    60.6,-0.012775,-0.007570,-0.117188,0.000407,  40.183
    60.8,-0.012856,-0.007597,-0.117266,0.000355,  40.181
    61.0,-0.012937,-0.007615,-0.117472,0.000254,  40.183
    61.2,-0.013003,-0.007665,-0.117715,0.000237,  40.191
    61.4,-0.013057,-0.007716,-0.117986,0.000197,  40.187
    61.6,-0.013102,-0.007772,-0.118257,0.000123,  40.185
    61.8,-0.013147,-0.007808,-0.118557,0.000118,  40.181
    62.0,-0.013183,-0.007829,-0.118857,0.000092,  40.184
    62.2,-0.013213,-0.007842,-0.119155,0.000031,  40.182
    62.4,-0.013258,-0.007872,-0.119453,0.000053,  40.181
    62.6,-0.013310,-0.007900,-0.119758,0.000053,  40.184
    62.8,-0.013357,-0.007935,-0.120298,0.000018,  40.187
    63.0,-0.013411,-0.007970,-0.120952,0.000066,  40.189
    63.2,-0.013465,-0.007996,-0.121713,0.000118,  40.190
    63.4,-0.013522,-0.008027,-0.122670,0.000136,  40.192
    63.6,-0.013579,-0.008061,-0.123836,0.000237,  40.195
    63.8,-0.013639,-0.008089,-0.125175,0.000276,  40.195
    64.0,-0.013699,-0.008114,-0.126159,0.000280,  40.196
    64.2,-0.013765,-0.008139,-0.127048,0.000329,  40.199
    64.4,-0.013807,-0.008166,-0.127880,0.000368,  40.201
    64.6,-0.013837,-0.008180,-0.128850,0.000372,  40.199
    64.8,-0.013858,-0.008191,-0.129874,0.000460,  40.200
    65.0,-0.013888,-0.008202,-0.130923,0.000499,  40.200
    65.2,-0.013921,-0.008209,-0.131616,0.000491,  40.207
    65.4,-0.013945,-0.008229,-0.132218,0.000539,  40.210
    65.6,-0.013987,-0.008253,-0.132681,0.000552,  40.222
    65.8,-0.014042,-0.008287,-0.132991,0.000565,  40.226
    66.0,-0.014095,-0.008330,-0.133178,0.000543,  40.237
    66.2,-0.014176,-0.008387,-0.133261,0.000578,  40.241
    66.4,-0.014279,-0.008450,-0.133689,0.000592,  40.248
    66.6,-0.014392,-0.008513,-0.134249,0.000556,  40.252
    66.8,-0.014490,-0.008573,-0.134897,0.000605,  40.262
    67.0,-0.014599,-0.008633,-0.135695,0.000618,  40.264
    67.2,-0.014697,-0.008695,-0.136168,0.000609,  40.264
    67.4,-0.014810,-0.008767,-0.136606,0.000631,  40.267
    67.6,-0.014940,-0.008834,-0.136989,0.000631,  40.267
    67.8,-0.015061,-0.008905,-0.137535,0.000609,  40.270
    68.0,-0.015166,-0.008976,-0.138149,0.000631,  40.273
    68.2,-0.015271,-0.009052,-0.138810,0.000605,  40.273
    68.4,-0.015351,-0.009130,-0.139205,0.000530,  40.273
    68.6,-0.015431,-0.009200,-0.139511,0.000499,  40.264
    68.8,-0.015518,-0.009258,-0.139714,0.000447,  40.263
    69.0,-0.015588,-0.009311,-0.139966,0.000346,  40.256
    69.2,-0.015662,-0.009369,-0.140177,0.000302,  40.253
    69.4,-0.015734,-0.009423,-0.140421,0.000263,  40.253
    69.6,-0.015812,-0.009466,-0.140557,0.000175,  40.260
    69.8,-0.015863,-0.009513,-0.140617,0.000171,  40.261
    70.0,-0.015908,-0.009555,-0.140631,0.000145,  40.263
    70.2,-0.015931,-0.009584,-0.140956,0.000070,  40.259
    70.4,-0.015956,-0.009608,-0.141444,0.000066,  40.258
    70.6,-0.015995,-0.009631,-0.142040,0.000039,  40.259
    70.8,-0.016037,-0.009642,-0.142439,-0.000022,  40.261
    71.0,-0.016084,-0.009675,-0.142824,-0.000013,  40.264
    71.2,-0.016135,-0.009711,-0.143188,0.000000,  40.268
    71.4,-0.016198,-0.009755,-0.143876,-0.000009,  40.272
    71.6,-0.016264,-0.009779,-0.144730,0.000066,  40.273
    71.8,-0.016321,-0.009808,-0.145737,0.000118,  40.275
    72.0,-0.016377,-0.009832,-0.146682,0.000136,  40.280
    72.2,-0.016427,-0.009857,-0.147684,0.000223,  40.281
    72.4,-0.016478,-0.009883,-0.148711,0.000263,  40.288
    72.6,-0.016538,-0.009915,-0.149636,0.000267,  40.287
    72.8,-0.016592,-0.009931,-0.150559,0.000329,  40.291
    73.0,-0.016621,-0.009943,-0.151420,0.000368,  40.291
    73.2,-0.016649,-0.009945,-0.152267,0.000394,  40.294
    73.4,-0.016654,-0.009954,-0.153105,0.000399,  40.292
    73.6,-0.016684,-0.009967,-0.153909,0.000460,  40.296
    73.8,-0.016717,-0.009985,-0.154429,0.000486,  40.300
    74.0,-0.016751,-0.010008,-0.154791,0.000513,  40.313
    74.2,-0.016802,-0.010037,-0.155001,0.000561,  40.315
    74.4,-0.016862,-0.010071,-0.155060,0.000587,  40.327
    74.6,-0.016927,-0.010107,-0.155277,0.000600,  40.333
    74.8,-0.017013,-0.010151,-0.155493,0.000613,  40.333
    75.0,-0.017117,-0.010200,-0.155689,0.000613,  40.336
    75.2,-0.017236,-0.010248,-0.155918,0.000613,  40.353
    75.4,-0.017334,-0.010306,-0.156161,0.000613,  40.350
    75.6,-0.017438,-0.010371,-0.156436,0.000627,  40.356
    75.8,-0.017551,-0.010440,-0.157045,0.000605,  40.355
    76.0,-0.017648,-0.010513,-0.157873,0.000605,  40.356
    76.2,-0.017746,-0.010594,-0.158882,0.000605,  40.356
    76.4,-0.017853,-0.010676,-0.159558,0.000570,  40.353
    76.6,-0.017949,-0.010752,-0.160194,0.000565,  40.358
    76.8,-0.018038,-0.010819,-0.160764,0.000491,  40.363
    77.0,-0.018121,-0.010881,-0.161133,0.000438,  40.360
    77.2,-0.018183,-0.010944,-0.161417,0.000359,  40.350
    77.4,-0.018245,-0.011002,-0.161578,0.000285,  40.346
    77.6,-0.018292,-0.011051,-0.161804,0.000267,  40.343
    77.8,-0.018326,-0.011102,-0.162017,0.000202,  40.342
    78.0,-0.018395,-0.011149,-0.162230,0.000149,  40.345
    78.2,-0.018467,-0.011193,-0.162507,0.000110,  40.347
    78.4,-0.018542,-0.011229,-0.162810,0.000105,  40.348
    78.6,-0.018586,-0.011253,-0.163145,0.000066,  40.345
    78.8,-0.018619,-0.011270,-0.163505,0.000004,  40.345
    79.0,-0.018642,-0.011297,-0.163923,0.000026,  40.347
    79.2,-0.018681,-0.011314,-0.164353,0.000013,  40.343
    79.4,-0.018725,-0.011329,-0.164750,-0.000035,  40.346
    79.6,-0.018770,-0.011353,-0.165205,-0.000026,  40.348
    79.8,-0.018814,-0.011377,-0.165660,0.000013,  40.346
    80.0,-0.018859,-0.011402,-0.166352,0.000031,  40.345
    80.2,-0.018906,-0.011429,-0.167165,0.000131,  40.347
    80.4,-0.018963,-0.011460,-0.168116,0.000171,  40.350
    80.6,-0.019014,-0.011487,-0.168963,0.000210,  40.353
    80.8,-0.019073,-0.011517,-0.169820,0.000202,  40.351
    81.0,-0.019124,-0.011546,-0.170700,0.000250,  40.357
    81.2,-0.019165,-0.011561,-0.171428,0.000302,  40.359
    81.4,-0.019200,-0.011575,-0.172079,0.000307,  40.358
    81.6,-0.019227,-0.011587,-0.172672,0.000381,  40.358
    81.8,-0.019247,-0.011593,-0.173215,0.000407,  40.361
    82.0,-0.019265,-0.011607,-0.173920,0.000399,  40.362
    82.2,-0.019298,-0.011618,-0.174655,0.000460,  40.363
    82.4,-0.019346,-0.011640,-0.175400,0.000486,  40.370
    82.6,-0.019396,-0.011653,-0.175825,0.000464,  40.382
    82.8,-0.019458,-0.011681,-0.176149,0.000526,  40.384
    83.0,-0.019539,-0.011718,-0.176317,0.000517,  40.390
    83.2,-0.019615,-0.011762,-0.176542,0.000530,  40.395
    83.4,-0.019698,-0.011816,-0.176729,0.000530,  40.395
    83.6,-0.019796,-0.011871,-0.176892,0.000543,  40.396
    83.8,-0.019887,-0.011928,-0.177187,0.000530,  40.398
    84.0,-0.019973,-0.011998,-0.177549,0.000552,  40.396
    84.2,-0.020053,-0.012071,-0.177955,0.000565,  40.400
    84.4,-0.020129,-0.012149,-0.178591,0.000530,  40.401
    84.6,-0.020206,-0.012225,-0.179362,0.000565,  40.403
    84.8,-0.020295,-0.012295,-0.180280,0.000565,  40.405
    85.0,-0.020376,-0.012363,-0.180867,0.000504,  40.415
    85.2,-0.020471,-0.012431,-0.181355,0.000486,  40.411
    85.4,-0.020553,-0.012493,-0.181754,0.000447,  40.413
    85.6,-0.020636,-0.012547,-0.181988,0.000359,  40.408
    85.8,-0.020716,-0.012599,-0.182154,0.000302,  40.403
    86.0,-0.020784,-0.012650,-0.182216,0.000250,  40.389
    86.2,-0.020848,-0.012696,-0.182371,0.000162,  40.386
    86.4,-0.020913,-0.012740,-0.182526,0.000145,  40.386
    86.6,-0.020972,-0.012784,-0.182699,0.000105,  40.395
    86.8,-0.021028,-0.012836,-0.182927,0.000031,  40.393
    87.0,-0.021087,-0.012863,-0.183204,0.000026,  40.395
    87.2,-0.021126,-0.012881,-0.183492,0.000000,  40.399
    87.4,-0.021155,-0.012883,-0.183843,-0.000013,  40.397
    87.6,-0.021176,-0.012899,-0.184241,-0.000061,  40.400
    87.8,-0.021211,-0.012924,-0.184681,-0.000039,  40.403
    88.0,-0.021252,-0.012933,-0.185055,-0.000039,  40.418
    88.2,-0.021299,-0.012948,-0.185430,-0.000087,  40.421
    88.4,-0.021341,-0.012971,-0.185798,-0.000039,  40.424
    88.6,-0.021385,-0.012984,-0.186160,0.000013,  40.424
    88.8,-0.021429,-0.012997,-0.186941,0.000031,  40.424
    89.0,-0.021470,-0.013008,-0.187903,0.000145,  40.432
    89.2,-0.021514,-0.013024,-0.189002,0.000197,  40.432
    89.4,-0.021555,-0.013028,-0.189809,0.000188,  40.432
    89.6,-0.021582,-0.013039,-0.190529,0.000237,  40.440
    89.8,-0.021606,-0.013053,-0.191200,0.000276,  40.440
    90.0,-0.021618,-0.013069,-0.191919,0.000280,  40.441
    90.2,-0.021633,-0.013079,-0.192649,0.000355,  40.445
    90.4,-0.021656,-0.013082,-0.193366,0.000346,  40.446
    90.6,-0.021673,-0.013087,-0.193891,0.000386,  40.451
    90.8,-0.021700,-0.013107,-0.194332,0.000425,  40.451
    91.0,-0.021726,-0.013128,-0.194658,0.000438,  40.454
    91.2,-0.021765,-0.013156,-0.194910,0.000451,  40.459
    91.4,-0.021801,-0.013191,-0.195071,0.000499,  40.464
    91.6,-0.021859,-0.013228,-0.195148,0.000526,  40.467
    91.8,-0.021933,-0.013273,-0.195392,0.000504,  40.472
    92.0,-0.022018,-0.013319,-0.195702,0.000539,  40.476
    92.2,-0.022098,-0.013365,-0.196071,0.000552,  40.468
    92.4,-0.022193,-0.013423,-0.196537,0.000517,  40.474
    92.6,-0.022280,-0.013490,-0.197078,0.000552,  40.472
    92.8,-0.022368,-0.013555,-0.197690,0.000565,  40.469
    93.0,-0.022469,-0.013631,-0.198289,0.000517,  40.475
    93.2,-0.022559,-0.013697,-0.198960,0.000552,  40.474
    93.4,-0.022641,-0.013757,-0.199682,0.000539,  40.476
    93.6,-0.022718,-0.013814,-0.200084,0.000451,  40.475
    93.8,-0.022787,-0.013874,-0.200354,0.000421,  40.478
    94.0,-0.022860,-0.013929,-0.200542,0.000381,  40.473
    94.2,-0.022931,-0.013979,-0.200899,0.000294,  40.470
    94.4,-0.023001,-0.014030,-0.201287,0.000250,  40.462
    94.6,-0.023063,-0.014078,-0.201715,0.000210,  40.463
    94.8,-0.023131,-0.014124,-0.201931,0.000184,  40.463
    95.0,-0.023187,-0.014158,-0.202073,0.000110,  40.467
    95.2,-0.023231,-0.014190,-0.202128,0.000118,  40.467
    95.4,-0.023273,-0.014210,-0.202265,0.000092,  40.464
    95.6,-0.023296,-0.014228,-0.202385,0.000018,  40.467
    95.8,-0.023325,-0.014239,-0.202511,0.000013,  40.464
    96.0,-0.023351,-0.014247,-0.202637,-0.000013,  40.466
    96.2,-0.023374,-0.014246,-0.202919,-0.000061,  40.467
    96.4,-0.023409,-0.014257,-0.203265,-0.000039,  40.463
    96.6,-0.023447,-0.014268,-0.203674,-0.000013,  40.469
    96.8,-0.023494,-0.014277,-0.204215,-0.000035,  40.473
    97.0,-0.023529,-0.014290,-0.204872,0.000053,  40.472
    97.2,-0.023564,-0.014313,-0.205633,0.000105,  40.476
    97.4,-0.023599,-0.014333,-0.206357,0.000110,  40.474
    97.6,-0.023629,-0.014346,-0.207116,0.000197,  40.471
    97.8,-0.023659,-0.014364,-0.207912,0.000237,  40.474
    98.0,-0.023676,-0.014373,-0.208528,0.000228,  40.475
    98.2,-0.023699,-0.014384,-0.209074,0.000276,  40.480
    98.4,-0.023714,-0.014391,-0.209567,0.000315,  40.477
    98.6,-0.023728,-0.014394,-0.210143,0.000333,  40.476
    98.8,-0.023743,-0.014405,-0.210711,0.000394,  40.473
    99.0,-0.023763,-0.014413,-0.211344,0.000421,  40.480
    99.2,-0.023787,-0.014423,-0.211783,0.000412,  40.482
    99.4,-0.023822,-0.014445,-0.212139,0.000460,  40.496
    99.6,-0.023863,-0.014465,-0.212429,0.000473,  40.499
    99.8,-0.023914,-0.014492,-0.212671,0.000464,  40.507
   100.0,-0.023966,-0.014530,-0.212850,0.000513,  40.509
   100.2,-0.024031,-0.014572,-0.212946,0.000539,  40.510
   100.4,-0.024111,-0.014620,-0.213160,0.000504,  40.507
   100.6,-0.024183,-0.014676,-0.213415,0.000526,  40.516
   100.8,-0.024262,-0.014733,-0.213679,0.000539,  40.514
   101.0,-0.024362,-0.014790,-0.214188,0.000539,  40.512
   101.2,-0.024452,-0.014852,-0.214810,0.000517,  40.516
   101.4,-0.024531,-0.014914,-0.215606,0.000539,  40.513
   101.6,-0.024614,-0.014972,-0.216356,0.000526,  40.512
   101.8,-0.024680,-0.015032,-0.217163,0.000478,  40.512
   102.0,-0.024753,-0.015084,-0.218051,0.000499,  40.517
   102.2,-0.024833,-0.015136,-0.218983,0.000460,  40.514
   102.4,-0.024902,-0.015180,-0.219044,0.000372,  40.510
   102.6,-0.024969,-0.015226,-0.218813,0.000342,  40.503
   102.8,-0.025040,-0.015258,-0.218257,0.000289,  40.495
   103.0,-0.025098,-0.015291,-0.218186,0.000202,  40.494
   103.2,-0.025159,-0.015330,-0.218155,0.000197,  40.490
   103.4,-0.025221,-0.015375,-0.218206,0.000171,  40.492
   103.6,-0.025270,-0.015420,-0.218267,0.000083,  40.488
   103.8,-0.025299,-0.015446,-0.218345,0.000079,  40.490
   104.0,-0.025326,-0.015462,-0.218440,0.000053,  40.492
   104.2,-0.025331,-0.015471,-0.218579,-0.000022,  40.491
   104.4,-0.025352,-0.015484,-0.218763,-0.000026,  40.477
   104.6,-0.025369,-0.015486,-0.218984,-0.000026,  40.460
   104.8,-0.025387,-0.015493,-0.219521,-0.000087,  40.465
   105.0,-0.025404,-0.015511,-0.220284,-0.000066,  40.457
   105.2,-0.025434,-0.015521,-0.221225,-0.000026,  40.458
   105.4,-0.025469,-0.015534,-0.222123,-0.000009,  40.458
   105.6,-0.025509,-0.015556,-0.223087,0.000092,  40.457
   105.8,-0.025541,-0.015574,-0.224145,0.000110,  40.459
   106.0,-0.025577,-0.015587,-0.224742,0.000149,  40.457
   106.2,-0.025597,-0.015605,-0.225135,0.000188,  40.455
   106.4,-0.025623,-0.015616,-0.225376,0.000180,  40.451
   106.6,-0.025653,-0.015624,-0.225805,0.000228,  40.448
   106.8,-0.025667,-0.015636,-0.226226,0.000228,  40.449
   107.0,-0.025681,-0.015638,-0.226660,0.000232,  40.440
   107.2,-0.025700,-0.015635,-0.227124,0.000294,  40.446
   107.4,-0.025702,-0.015642,-0.227588,0.000320,  40.445
   107.6,-0.025725,-0.015653,-0.228044,0.000333,  40.452
   107.8,-0.025758,-0.015658,-0.228297,0.000337,  40.453
   108.0,-0.025781,-0.015681,-0.228467,0.000372,  40.462
   108.2,-0.025821,-0.015703,-0.228524,0.000386,  40.469
   108.4,-0.025875,-0.015733,-0.228653,0.000364,  40.472
   108.6,-0.025926,-0.015773,-0.228760,0.000425,  40.478
   108.8,-0.025985,-0.015817,-0.228873,0.000438,  40.478
   109.0,-0.026058,-0.015868,-0.228956,0.000416,  40.493
   109.2,-0.026127,-0.015914,-0.229169,0.000464,  40.492
   109.4,-0.026206,-0.015961,-0.229471,0.000464,  40.486
   109.6,-0.026303,-0.016009,-0.229800,0.000429,  40.491
   109.8,-0.026389,-0.016050,-0.230287,0.000464,  40.491
   110.0,-0.026462,-0.016105,-0.230866,0.000464,  40.490
   110.2,-0.026539,-0.016164,-0.231547,0.000416,  40.492
   110.4,-0.026596,-0.016221,-0.231976,0.000425,  40.490
   110.6,-0.026660,-0.016276,-0.232299,0.000399,  40.487
   110.8,-0.026734,-0.016325,-0.232549,0.000359,  40.486
   111.0,-0.026797,-0.016376,-0.232707,0.000280,  40.472
   111.2,-0.026852,-0.016427,-0.232782,0.000237,  40.454
   111.4,-0.026901,-0.016472,-0.232785,0.000184,  40.445
   111.6,-0.026942,-0.016525,-0.231615,0.000096,  40.438
   111.8,-0.026980,-0.016567,-0.229828,0.000079,  40.438
   112.0,-0.027018,-0.016594,-0.227437,0.000039,  40.441
   112.2,-0.027056,-0.016621,-0.227532,-0.000035,  40.432
   112.4,-0.027093,-0.016638,-0.228566,-0.000026,  40.435
   112.6,-0.027111,-0.016640,-0.230553,-0.000039,  40.440
   112.8,-0.027129,-0.016626,-0.231346,-0.000066,  40.432
   113.0,-0.027129,-0.016626,-0.232070,-0.000070,  40.428
   113.2,-0.027141,-0.016632,-0.232665,-0.000057,  40.420
   113.4,-0.027158,-0.016629,-0.233390,-0.000031,  40.419
   113.6,-0.027176,-0.016635,-0.234130,-0.000017,  40.412
   113.8,-0.027205,-0.016639,-0.234867,0.000022,  40.414
   114.0,-0.027242,-0.016652,-0.235627,0.000039,  40.414
   114.2,-0.027286,-0.016666,-0.236400,0.000105,  40.414
   114.4,-0.027306,-0.016667,-0.237172,0.000145,  40.414
   114.6,-0.027327,-0.016676,-0.237771,0.000171,  40.411
   114.8,-0.027332,-0.016686,-0.238337,0.000175,  40.408
   115.0,-0.027340,-0.016685,-0.238833,0.000210,  40.407
   115.2,-0.027352,-0.016692,-0.239302,0.000250,  40.406
   115.4,-0.027351,-0.016697,-0.239711,0.000228,  40.405
   115.6,-0.027357,-0.016689,-0.240100,0.000276,  40.409
   115.8,-0.027365,-0.016687,-0.240429,0.000302,  40.412
   116.0,-0.027371,-0.016687,-0.241013,0.000294,  40.414
   116.2,-0.027386,-0.016698,-0.241696,0.000342,  40.422
   116.4,-0.027403,-0.016699,-0.242422,0.000368,  40.433
   116.6,-0.027426,-0.016712,-0.242593,0.000346,  40.443
   116.8,-0.027455,-0.016733,-0.242525,0.000407,  40.448
   117.0,-0.027496,-0.016755,-0.242220,0.000434,  40.458
   117.2,-0.027548,-0.016786,-0.242263,0.000412,  40.454
   117.4,-0.027601,-0.016822,-0.242405,0.000447,  40.462
   117.6,-0.027668,-0.016854,-0.242576,0.000460,  40.463
   117.8,-0.027741,-0.016898,-0.242817,0.000425,  40.461
   118.0,-0.027799,-0.016953,-0.243148,0.000460,  40.461
   118.2,-0.027861,-0.017003,-0.243543,0.000460,  40.463
   118.4,-0.027909,-0.017066,-0.242800,0.000425,  40.463
   118.6,-0.027961,-0.017118,-0.241561,0.000447,  40.466
   118.8,-0.028019,-0.017164,-0.239789,0.000434,  40.470
   119.0,-0.028080,-0.017197,-0.239893,0.000346,  40.464
   119.2,-0.028147,-0.017244,-0.240657,0.000315,  40.453
   119.4,-0.028202,-0.017299,-0.242120,0.000276,  40.441
   119.6,-0.028257,-0.017342,-0.242618,0.000175,  40.430
   119.8,-0.028303,-0.017380,-0.242980,0.000145,  40.425
   120.0,-0.028349,-0.017422,-0.243211,0.000105,  40.424
   120.2,-0.028390,-0.017452,-0.243459,0.000031,  40.425
   120.4,-0.028430,-0.017469,-0.243663,0.000013,  40.425
   120.6,-0.028447,-0.017479,-0.243845,-0.000026,  40.417
   120.8,-0.028456,-0.017478,-0.244052,-0.000074,  40.424
   121.0,-0.028453,-0.017474,-0.244237,-0.000079,  40.424
   121.2,-0.028447,-0.017456,-0.244437,-0.000105,  40.435
   121.4,-0.028436,-0.017434,-0.244621,-0.000153,  40.422
   121.6,-0.028419,-0.017424,-0.244823,-0.000144,  40.420
   121.8,-0.028407,-0.017411,-0.244991,-0.000131,  40.414
   122.0,-0.028411,-0.017398,-0.245329,-0.000105,  40.412
   122.2,-0.028408,-0.017400,-0.245755,-0.000079,  40.415
   122.4,-0.028411,-0.017402,-0.246250,0.000009,  40.415
   122.6,-0.028429,-0.017412,-0.246548,0.000061,  40.409
   122.8,-0.028443,-0.017417,-0.246775,0.000079,  40.414
   123.0,-0.028440,-0.017406,-0.246962,0.000131,  40.412
   123.2,-0.028438,-0.017395,-0.247078,0.000184,  40.414
   123.4,-0.028426,-0.017388,-0.247280,0.000202,  40.416
   123.6,-0.028418,-0.017382,-0.247500,0.000250,  40.416
   123.8,-0.028406,-0.017371,-0.247704,0.000276,  40.422
   124.0,-0.028388,-0.017367,-0.247811,0.000267,  40.422
   124.2,-0.028382,-0.017363,-0.247872,0.000302,  40.425
   124.4,-0.028386,-0.017357,-0.247902,0.000329,  40.431
   124.6,-0.028376,-0.017345,-0.247931,0.000320,  40.441
   124.8,-0.028373,-0.017344,-0.247979,0.000368,  40.445
   125.0,-0.028380,-0.017335,-0.248026,0.000381,  40.453
   125.2,-0.028370,-0.017324,-0.247976,0.000407,  40.458
   125.4,-0.028370,-0.017323,-0.247872,0.000429,  40.463
   125.6,-0.028373,-0.017328,-0.247742,0.000442,  40.468
   125.8,-0.028373,-0.017330,-0.247685,0.000456,  40.467
   126.0,-0.028379,-0.017354,-0.247640,0.000469,  40.470
   126.2,-0.028411,-0.017396,-0.247604,0.000482,  40.472
   126.4,-0.028451,-0.017444,-0.247454,0.000469,  40.475
   126.6,-0.028506,-0.017488,-0.247247,0.000469,  40.473
   126.8,-0.028550,-0.017529,-0.246992,0.000469,  40.474
   127.0,-0.028609,-0.017570,-0.246753,0.000442,  40.473
   127.2,-0.028654,-0.017602,-0.246489,0.000416,  40.475
   127.4,-0.028695,-0.017639,-0.246208,0.000390,  40.474
   127.6,-0.028742,-0.017671,-0.245985,0.000337,  40.466
   127.8,-0.028773,-0.017702,-0.245809,0.000272,  40.454
   128.0,-0.028805,-0.017728,-0.245645,0.000219,  40.444
   128.2,-0.028840,-0.017757,-0.245478,0.000166,  40.434
   128.4,-0.028857,-0.017783,-0.245344,0.000114,  40.431
   128.6,-0.028880,-0.017800,-0.245234,0.000074,  40.428
   128.8,-0.028907,-0.017815,-0.245049,0.000035,  40.427
   129.0,-0.028924,-0.017806,-0.244825,0.000022,  40.430
   129.2,-0.028901,-0.017782,-0.244568,-0.000004,  40.428
   129.4,-0.028852,-0.017741,-0.244360,-0.000017,  40.430
   129.6,-0.028783,-0.017713,-0.244165,-0.000057,  40.435
   129.8,-0.028722,-0.017676,-0.243995,-0.000083,  40.439
   130.0,-0.028658,-0.017646,-0.243810,-0.000096,  40.430
   130.2,-0.028585,-0.017605,-0.243626,-0.000131,  40.427
   130.4,-0.028521,-0.017566,-0.243429,-0.000144,  40.423
   130.6,-0.028467,-0.017518,-0.243235,-0.000105,  40.419
   130.8,-0.028396,-0.017474,-0.242814,-0.000087,  40.418
   131.0,-0.028344,-0.017448,-0.242271,0.000026,  40.421
   131.2,-0.028298,-0.017421,-0.241612,0.000079,  40.417
   131.4,-0.028250,-0.017399,-0.241003,0.000096,  40.414
   131.6,-0.028207,-0.017366,-0.240402,0.000158,  40.417
   131.8,-0.028166,-0.017332,-0.239777,0.000184,  40.412
   132.0,-0.028126,-0.017288,-0.240430,0.000175,  40.409
   132.2,-0.028094,-0.017258,-0.241728,0.000223,  40.407
   132.4,-0.028050,-0.017227,-0.243668,0.000250,  40.406
   132.6,-0.028010,-0.017196,-0.243164,0.000228,  40.405
   132.8,-0.027969,-0.017168,-0.241740,0.000289,  40.407
   133.0,-0.027920,-0.017132,-0.239397,0.000329,  40.411
   133.2,-0.027865,-0.017095,-0.238317,0.000320,  40.426
   133.4,-0.027807,-0.017058,-0.237450,0.000368,  40.432
   133.6,-0.027728,-0.017007,-0.236747,0.000381,  40.438
   133.8,-0.027641,-0.016951,-0.235913,0.000407,  40.446
   134.0,-0.027540,-0.016908,-0.235125,0.000429,  40.453
   134.2,-0.027464,-0.016861,-0.234372,0.000442,  40.449
   134.4,-0.027397,-0.016813,-0.233318,0.000456,  40.454
   134.6,-0.027339,-0.016800,-0.232135,0.000456,  40.455
   134.8,-0.027313,-0.016814,-0.230824,0.000456,  40.457
   135.0,-0.027307,-0.016843,-0.229324,0.000469,  40.453
   135.2,-0.027328,-0.016862,-0.227669,0.000469,  40.456
   135.4,-0.027333,-0.016879,-0.225851,0.000456,  40.453
   135.6,-0.027342,-0.016908,-0.224671,0.000442,  40.454
   135.8,-0.027360,-0.016930,-0.223737,0.000403,  40.458
   136.0,-0.027359,-0.016940,-0.223044,0.000364,  40.446
   136.2,-0.027362,-0.016958,-0.222592,0.000324,  40.434
   136.4,-0.027364,-0.016967,-0.221819,0.000272,  40.419
   136.6,-0.027346,-0.016969,-0.221072,0.000193,  40.412
   136.8,-0.027326,-0.016966,-0.220355,0.000153,  40.408
   137.0,-0.027306,-0.016957,-0.219738,0.000114,  40.411
   137.2,-0.027263,-0.016946,-0.219198,0.000048,  40.419
   137.4,-0.027205,-0.016926,-0.218702,0.000009,  40.412
   137.6,-0.027144,-0.016904,-0.217936,-0.000017,  40.409
   137.8,-0.027016,-0.016831,-0.217083,-0.000057,  40.411
   138.0,-0.026847,-0.016740,-0.216157,-0.000083,  40.413
   138.2,-0.026646,-0.016615,-0.215245,-0.000109,  40.415
   138.4,-0.026501,-0.016512,-0.214284,-0.000123,  40.423
   138.6,-0.026377,-0.016400,-0.213311,-0.000109,  40.413
   138.8,-0.026245,-0.016291,-0.211872,-0.000083,  40.409
   139.0,-0.026144,-0.016184,-0.210221,-0.000044,  40.405
   139.2,-0.025987,-0.016072,-0.208299,0.000009,  40.404
   139.4,-0.025820,-0.015967,-0.206320,0.000061,  40.407
   139.6,-0.025640,-0.015884,-0.204215,0.000114,  40.410
   139.8,-0.025500,-0.015805,-0.201952,0.000166,  40.410
   140.0,-0.025371,-0.015741,-0.199830,0.000193,  40.407
   140.2,-0.025263,-0.015671,-0.197745,0.000232,  40.407
   140.4,-0.025144,-0.015596,-0.195636,0.000272,  40.410
   140.6,-0.025027,-0.015518,-0.193634,0.000285,  40.407
   140.8,-0.024913,-0.015449,-0.191734,0.000285,  40.406
   141.0,-0.024790,-0.015381,-0.189880,0.000311,  40.404
   141.2,-0.024673,-0.015305,-0.188151,0.000350,  40.411
   141.4,-0.024551,-0.015227,-0.186542,0.000364,  40.416
   141.6,-0.024401,-0.015138,-0.185025,0.000377,  40.427
   141.8,-0.024247,-0.015039,-0.183663,0.000403,  40.428
   142.0,-0.024072,-0.014925,-0.182470,0.000416,  40.434
   142.2,-0.023858,-0.014788,-0.181390,0.000429,  40.440
   142.4,-0.023625,-0.014635,-0.180165,0.000456,  40.443
   142.6,-0.023351,-0.014530,-0.178912,0.000469,  40.447
   142.8,-0.023175,-0.014433,-0.177655,0.000469,  40.449
   143.0,-0.023032,-0.014357,-0.176406,0.000482,  40.450
   143.2,-0.022919,-0.014311,-0.173724,0.000482,  40.446
   143.4,-0.022831,-0.014287,-0.170456,0.000495,  40.445
   143.6,-0.022767,-0.014275,-0.166622,0.000495,  40.445
   143.8,-0.022734,-0.014293,-0.163396,0.000495,  40.449
   144.0,-0.022679,-0.014280,-0.160197,0.000495,  40.447
   144.2,-0.022629,-0.014266,-0.156988,0.000469,  40.445
   144.4,-0.022585,-0.014255,-0.154670,0.000403,  40.438
   144.6,-0.022535,-0.014246,-0.152801,0.000324,  40.424
   144.8,-0.022485,-0.014231,-0.151387,0.000285,  40.413
   145.0,-0.022435,-0.014211,-0.149796,0.000197,  40.402
   145.2,-0.022355,-0.014183,-0.148358,0.000131,  40.398
   145.4,-0.022271,-0.014141,-0.147076,0.000092,  40.396
   145.6,-0.022165,-0.014097,-0.147260,0.000066,  40.391
   145.8,-0.022042,-0.014027,-0.148289,0.000048,  40.377
   146.0,-0.021907,-0.013931,-0.150170,0.000022,  40.374
   146.2,-0.021751,-0.013824,-0.148766,-0.000039,  40.374
   146.4,-0.021580,-0.013670,-0.146155,-0.000066,  40.367
   146.6,-0.021309,-0.013468,-0.142307,-0.000092,  40.374
   146.8,-0.020991,-0.013232,-0.139897,-0.000153,  40.379
   147.0,-0.020625,-0.013044,-0.137651,-0.000131,  40.379
   147.2,-0.020321,-0.012859,-0.135465,-0.000105,  40.369
   147.4,-0.020036,-0.012675,-0.131523,-0.000087,  40.361
   147.6,-0.019742,-0.012494,-0.126790,0.000026,  40.355
   147.8,-0.019452,-0.012315,-0.121145,0.000092,  40.358
   148.0,-0.019172,-0.012131,-0.116459,0.000110,  40.355
   148.2,-0.018878,-0.011994,-0.111838,0.000197,  40.357
   148.4,-0.018644,-0.011874,-0.107277,0.000250,  40.355
   148.6,-0.018443,-0.011771,-0.102699,0.000241,  40.354
   148.8,-0.018259,-0.011658,-0.098155,0.000315,  40.356
   149.0,-0.018060,-0.011536,-0.093668,0.000342,  40.352
   149.2,-0.017874,-0.011416,-0.089897,0.000368,  40.351
   149.4,-0.017683,-0.011296,-0.086523,0.000333,  40.350
   149.6,-0.017472,-0.011170,-0.083577,0.000368,  40.356
   149.8,-0.017255,-0.011039,-0.080995,0.000407,  40.361
   150.0,-0.017019,-0.010890,-0.078804,0.000386,  40.372
   150.2,-0.016737,-0.010723,-0.077067,0.000434,  40.378
   150.4,-0.016421,-0.010546,-0.075725,0.000460,  40.389
   150.6,-0.016078,-0.010379,-0.073236,0.000438,  40.396
   150.8,-0.015732,-0.010219,-0.070565,0.000486,  40.406
   151.0,-0.015368,-0.010044,-0.067723,0.000513,  40.411
   151.2,-0.014989,-0.009879,-0.064460,0.000491,  40.413
   151.4,-0.014735,-0.009748,-0.060922,0.000526,  40.413
   151.6,-0.014537,-0.009626,-0.057107,0.000539,  40.413
   151.8,-0.014394,-0.009517,-0.051926,0.000504,  40.410
   152.0,-0.014250,-0.009448,-0.045885,0.000552,  40.415
   152.2,-0.014136,-0.009399,-0.038988,0.000552,  40.414
   152.4,-0.014053,-0.009386,-0.033975,0.000491,  40.413
   152.6,-0.013957,-0.009339,-0.029470,0.000499,  40.412
   152.8,-0.013877,-0.009290,-0.025527,0.000460,  40.405
   153.0,-0.013795,-0.009243,-0.022885,0.000359,  40.391
   153.2,-0.013729,-0.009197,-0.021160,0.000315,  40.361
   153.4,-0.013627,-0.009150,-0.020415,0.000263,  40.356
   153.6,-0.013519,-0.009100,-0.018115,0.000175,  40.337
   153.8,-0.013402,-0.009043,-0.015531,0.000158,  40.340
   154.0,-0.013261,-0.008966,-0.012645,0.000131,  40.337
   154.2,-0.013111,-0.008880,-0.010131,0.000057,  40.338
   154.4,-0.012946,-0.008726,-0.007657,0.000053,  40.332
   154.6,-0.012637,-0.008530,-0.005224,0.000026,  40.325
   154.8,-0.012262,-0.008281,-0.002616,-0.000035,  40.324
   155.0,-0.011804,-0.008033,0.000013,-0.000026,  40.327
   155.2,-0.011383,-0.007764,0.002715,-0.000013,  40.329
   155.4,-0.010952,-0.007462,0.006496,-0.000048,  40.335
   155.6,-0.010493,-0.007202,0.010851,0.000000,  40.328
   155.8,-0.010070,-0.006958,0.015818,0.000053,  40.324
   156.0,-0.009665,-0.006715,0.021926,0.000070,  40.314
   156.2,-0.009253,-0.006480,0.028948,0.000171,  40.304
   156.4,-0.008874,-0.006251,0.036962,0.000210,  40.300
   156.6,-0.008517,-0.006024,0.042686,0.000250,  40.301
   156.8,-0.008174,-0.005847,0.047713,0.000241,  40.299
   157.0,-0.007883,-0.005699,0.051995,0.000289,  40.295
   157.2,-0.007630,-0.005573,0.055506,0.000329,  40.298
   157.4,-0.007412,-0.005448,0.061184,0.000355,  40.294
   157.6,-0.007138,-0.005326,0.067271,0.000429,  40.293
   157.8,-0.006861,-0.005218,0.073812,0.000442,  40.293
   158.0,-0.006577,-0.005109,0.078438,0.000421,  40.295
   158.2,-0.006270,-0.004952,0.082222,0.000394,  40.303
   158.4,-0.005946,-0.004769,0.085156,0.000421,  40.313
   158.6,-0.005610,-0.004571,0.088910,0.000412,  40.324
   158.8,-0.005197,-0.004348,0.092620,0.000473,  40.336
   159.0,-0.004742,-0.004097,0.096235,0.000499,  40.356
   159.2,-0.004237,-0.003829,0.100214,0.000478,  40.357
   159.4,-0.003872,-0.003580,0.104380,0.000526,  40.359
   159.6,-0.003550,-0.003329,0.108652,0.000539,  40.357
   159.8,-0.003287,-0.003073,0.114175,0.000552,  40.358
   160.0,-0.003056,-0.002917,0.120394,0.000600,  40.364
   160.2,-0.002829,-0.002804,0.127332,0.000627,  40.364
   160.4,-0.002638,-0.002734,0.134408,0.000627,  40.368
   160.6,-0.002465,-0.002657,0.141939,0.000627,  40.369
   160.8,-0.002299,-0.002595,0.149901,0.000613,  40.369
   161.0,-0.002152,-0.002549,0.155702,0.000587,  40.367
   161.2,-0.002007,-0.002481,0.160596,0.000521,  40.368
   161.4,-0.001856,-0.002411,0.164510,0.000456,  40.351
   161.6,-0.001715,-0.002327,0.168017,0.000368,  40.331
   161.8,-0.001557,-0.002255,0.170774,0.000276,  40.321
   162.0,-0.001403,-0.002180,0.172800,0.000210,  40.301
   162.2,-0.001252,-0.002105,0.175876,0.000123,  40.294
   162.4,-0.001085,-0.002010,0.179107,0.000105,  40.303
   162.6,-0.000869,-0.001899,0.182448,0.000066,  40.305
   162.8,-0.000635,-0.001779,0.185672,0.000053,  40.302
   163.0,-0.000359,-0.001541,0.188833,-0.000009,  40.295
   163.2,0.000077,-0.001232,0.191916,0.000013,  40.293
   163.4,0.000602,-0.000856,0.194727,0.000000,  40.294
   163.6,0.001232,-0.000545,0.197416,-0.000074,  40.292
   163.8,0.001738,-0.000224,0.199854,-0.000066,  40.301
   164.0,0.002229,0.000102,0.202178,-0.000039,  40.312
   164.2,0.002715,0.000359,0.207856,-0.000035,  40.307
   164.4,0.003201,0.000596,0.214912,0.000066,  40.304
   164.6,0.003674,0.000799,0.223401,0.000131,  40.298
   164.8,0.004155,0.000983,0.231230,0.000162,  40.298
   165.0,0.004561,0.001217,0.239461,0.000263,  40.297
   165.2,0.004921,0.001462,0.248105,0.000329,  40.297
   165.4,0.005256,0.001711,0.255487,0.000333,  40.302
   165.6,0.005572,0.001899,0.262404,0.000407,  40.301
   165.8,0.005854,0.002059,0.268837,0.000447,  40.305
   166.0,0.006118,0.002194,0.275885,0.000451,  40.307
   166.2,0.006441,0.002368,0.283077,0.000513,  40.306
   166.4,0.006777,0.002565,0.290406,0.000526,  40.304
   166.6,0.007139,0.002776,0.295550,0.000504,  40.315
   166.8,0.007460,0.002980,0.299647,0.000513,  40.329
   167.0,0.007766,0.003193,0.302533,0.000539,  40.344
   167.2,0.008056,0.003420,0.306933,0.000543,  40.356
   167.4,0.008334,0.003690,0.311456,0.000618,  40.369
   167.6,0.008788,0.003975,0.316034,0.000644,  40.372
   167.8,0.009306,0.004286,0.320955,0.000635,  40.375
   168.0,0.009878,0.004525,0.326059,0.000684,  40.373
   168.2,0.010270,0.004740,0.331290,0.000710,  40.375
   168.4,0.010609,0.004927,0.337978,0.000688,  40.372
   168.6,0.010889,0.005049,0.345581,0.000723,  40.380
   168.8,0.011097,0.005130,0.353947,0.000736,  40.378
   169.0,0.011250,0.005164,0.361327,0.000749,  40.384
   169.2,0.011342,0.005233,0.368446,0.000758,  40.378
   169.4,0.011491,0.005302,0.375496,0.000719,  40.379
   169.6,0.011643,0.005360,0.380818,0.000666,  40.377
   169.8,0.011799,0.005431,0.385044,0.000574,  40.372
   170.0,0.011965,0.005510,0.388134,0.000508,  40.355
   170.2,0.012123,0.005588,0.391780,0.000456,  40.340
   170.4,0.012292,0.005668,0.395171,0.000403,  40.326
   170.6,0.012461,0.005749,0.398153,0.000350,  40.309
   170.8,0.012619,0.005834,0.401183,0.000298,  40.310
   171.0,0.012792,0.005943,0.404099,0.000258,  40.308
   171.2,0.013085,0.006058,0.406818,0.000206,  40.308
   171.4,0.013432,0.006187,0.409280,0.000180,  40.301
   171.6,0.013857,0.006331,0.412607,0.000140,  40.298
   171.8,0.014337,0.006600,0.416180,0.000114,  40.295
   172.0,0.014864,0.006931,0.420012,0.000101,  40.298
   172.2,0.015467,0.007325,0.423803,0.000074,  40.303
   172.4,0.015961,0.007634,0.427778,0.000061,  40.309
   172.6,0.016416,0.007933,0.431797,0.000101,  40.321
   172.8,0.016863,0.008214,0.438464,0.000166,  40.316
   173.0,0.017311,0.008490,0.446576,0.000245,  40.305
   173.2,0.017742,0.008771,0.456062,0.000311,  40.304
   173.4,0.018174,0.009041,0.464014,0.000377,  40.303
   173.6,0.018494,0.009269,0.471705,0.000429,  40.297
   173.8,0.018749,0.009471,0.479286,0.000495,  40.305
   174.0,0.018949,0.009651,0.486809,0.000548,  40.307
   174.2,0.019082,0.009826,0.494282,0.000587,  40.311
   174.4,0.019353,0.009982,0.501440,0.000640,  40.310
   174.6,0.019644,0.010115,0.507915,0.000666,  40.315
   174.8,0.019958,0.010290,0.513950,0.000692,  40.313
   175.0,0.020279,0.010484,0.519332,0.000719,  40.325
   175.2,0.020603,0.010690,0.523719,0.000697,  40.333
   175.4,0.020954,0.010891,0.527379,0.000684,  40.347
   175.6,0.021334,0.011111,0.530020,0.000710,  40.377
   175.8,0.021721,0.011335,0.534222,0.000701,  40.384
   176.0,0.022147,0.011576,0.538764,0.000749,  40.388
   176.2,0.022561,0.011838,0.543558,0.000776,  40.392
   176.4,0.022968,0.012105,0.548604,0.000767,  40.396
   176.6,0.023396,0.012278,0.553810,0.000802,  40.395
   176.8,0.023683,0.012421,0.559092,0.000815,  40.395
   177.0,0.023898,0.012515,0.565570,0.000828,  40.406
   177.2,0.024059,0.012574,0.572671,0.000806,  40.401
   177.4,0.024193,0.012604,0.580418,0.000841,  40.405
   177.6,0.024278,0.012590,0.586001,0.000841,  40.411
   177.8,0.024330,0.012623,0.590780,0.000780,  40.424
   178.0,0.024445,0.012672,0.594699,0.000789,  40.419
   178.2,0.024559,0.012717,0.597768,0.000723,  40.411
   178.4,0.024697,0.012762,0.601231,0.000596,  40.399
   178.6,0.024834,0.012804,0.604070,0.000513,  40.370
   178.8,0.024972,0.012855,0.606706,0.000447,  40.368
   179.0,0.025126,0.012900,0.609573,0.000359,  40.359
   179.2,0.025274,0.012961,0.612229,0.000329,  40.361
   179.4,0.025411,0.013029,0.614921,0.000289,  40.365
   179.6,0.025562,0.013109,0.618083,0.000202,  40.365
   179.8,0.025884,0.013273,0.621261,0.000184,  40.368
   180.0,0.026284,0.013494,0.624587,0.000158,  40.364
   180.2,0.026784,0.013767,0.627919,0.000096,  40.370
   180.4,0.027212,0.014021,0.631156,0.000092,  40.366
   180.6,0.027654,0.014311,0.634403,0.000105,  40.372
   180.8,0.028109,0.014622,0.639862,0.000096,  40.377
   181.0,0.028463,0.014870,0.646401,0.000158,  40.386
   181.2,0.028773,0.015110,0.653901,0.000237,  40.401
   181.4,0.029034,0.015339,0.660010,0.000280,  40.395
   181.6,0.029256,0.015551,0.665952,0.000407,  40.394
   181.8,0.029567,0.015762,0.671358,0.000473,  40.394
   182.0,0.029889,0.015961,0.676786,0.000491,  40.398
   182.2,0.030220,0.016119,0.682141,0.000565,  40.403
   182.4,0.030459,0.016261,0.687141,0.000618,  40.410
   182.6,0.030655,0.016374,0.692199,0.000622,  40.414
   182.8,0.030804,0.016506,0.697244,0.000697,  40.430
   183.0,0.031040,0.016644,0.702132,0.000736,  40.438
   183.2,0.031293,0.016769,0.706378,0.000728,  40.444
   183.4,0.031562,0.016911,0.709844,0.000789,  40.453
   183.6,0.031832,0.017068,0.712952,0.000815,  40.469
   183.8,0.032101,0.017224,0.716222,0.000780,  40.474
   184.0,0.032368,0.017388,0.718943,0.000815,  40.491
   184.2,0.032665,0.017561,0.721413,0.000828,  40.507
   184.4,0.032962,0.017742,0.724642,0.000841,  40.525
   184.6,0.033265,0.017893,0.728210,0.000833,  40.533
   184.8,0.033526,0.018045,0.731816,0.000868,  40.537
   185.0,0.033756,0.018186,0.735146,0.000894,  40.541
   185.2,0.033967,0.018255,0.738187,0.000872,  40.535
   185.4,0.034091,0.018288,0.741270,0.000920,  40.545
   185.6,0.034171,0.018289,0.743900,0.000947,  40.547
   185.8,0.034195,0.018301,0.747373,0.000912,  40.552
   186.0,0.034231,0.018296,0.751058,0.000947,  40.555
   186.2,0.034251,0.018272,0.754955,0.000920,  40.565
   186.4,0.034265,0.018243,0.758032,0.000846,  40.565
   186.6,0.034322,0.018251,0.760799,0.000802,  40.560
   186.8,0.034389,0.018257,0.763251,0.000736,  40.551
   187.0,0.034472,0.018272,0.765683,0.000609,  40.543
   187.2,0.034549,0.018293,0.767937,0.000552,  40.538
   187.4,0.034637,0.018324,0.770025,0.000486,  40.541
   187.6,0.034724,0.018359,0.772476,0.000407,  40.549
   187.8,0.034818,0.018405,0.774780,0.000377,  40.551
   188.0,0.034911,0.018457,0.776936,0.000337,  40.556
   188.2,0.035022,0.018524,0.778657,0.000298,  40.562
   188.4,0.035133,0.018674,0.780078,0.000272,  40.567
   188.6,0.035388,0.018864,0.781198,0.000245,  40.574
   188.8,0.035703,0.019109,0.783235,0.000219,  40.576
   189.0,0.036076,0.019297,0.785769,0.000180,  40.585
   189.2,0.036355,0.019483,0.788617,0.000206,  40.593
   189.4,0.036618,0.019667,0.792042,0.000272,  40.609
   189.6,0.036857,0.019826,0.795677,0.000364,  40.626
   189.8,0.037089,0.019976,0.799520,0.000456,  40.636
   190.0,0.037312,0.020115,0.803233,0.000534,  40.633
   190.2,0.037524,0.020239,0.806825,0.000627,  40.636
   190.4,0.037710,0.020349,0.810097,0.000705,  40.642
   190.6,0.037878,0.020452,0.812527,0.000723,  40.655
   190.8,0.038023,0.020528,0.814445,0.000763,  40.660
   191.0,0.038138,0.020581,0.815315,0.000815,  40.668
   191.2,0.038226,0.020623,0.817704,0.000855,  40.688
   191.4,0.038280,0.020690,0.820431,0.000846,  40.691
   191.6,0.038402,0.020769,0.823129,0.000894,  40.708
   191.8,0.038540,0.020851,0.824978,0.000920,  40.717
   192.0,0.038693,0.020913,0.826660,0.000899,  40.727
   192.2,0.038824,0.020978,0.827415,0.000947,  40.741
   192.4,0.038946,0.021028,0.828186,0.000960,  40.752
   192.6,0.039061,0.021075,0.829887,0.000938,  40.768
   192.8,0.039173,0.021135,0.831411,0.000960,  40.786
   193.0,0.039275,0.021202,0.833131,0.000973,  40.792
   193.2,0.039369,0.021265,0.834846,0.000964,  40.798
   193.4,0.039417,0.021293,0.836567,0.001026,  40.806
   193.6,0.039434,0.021310,0.838301,0.001052,  40.815
   193.8,0.039417,0.021315,0.839647,0.001030,  40.814
   194.0,0.039376,0.021272,0.840997,0.001078,  40.818
   194.2,0.039308,0.021203,0.842169,0.001078,  40.822
   194.4,0.039203,0.021110,0.843142,0.001065,  40.826
   194.6,0.039149,0.021035,0.844123,0.001061,  40.832
   194.8,0.039095,0.020961,0.844910,0.001008,  40.835
   195.0,0.039061,0.020887,0.846079,0.000916,  40.834
   195.2,0.039024,0.020837,0.847061,0.000824,  40.829
   195.4,0.038990,0.020798,0.848044,0.000758,  40.816
   195.6,0.038963,0.020765,0.848832,0.000653,  40.815
   195.8,0.038939,0.020734,0.849222,0.000561,  40.821
   196.0,0.038919,0.020706,0.849037,0.000508,  40.822
   196.2,0.038899,0.020682,0.849435,0.000456,  40.831
   196.4,0.038885,0.020703,0.850019,0.000403,  40.842
   196.6,0.038939,0.020741,0.850218,0.000364,  40.849
   196.8,0.039024,0.020808,0.850816,0.000337,  40.866
   197.0,0.039146,0.020884,0.851222,0.000298,  40.876
   197.2,0.039258,0.020980,0.851636,0.000272,  40.884
   197.4,0.039366,0.021104,0.852042,0.000258,  40.896
   197.6,0.039481,0.021174,0.852049,0.000245,  40.910
   197.8,0.039552,0.021231,0.851856,0.000272,  40.917
   198.0,0.039607,0.021281,0.852249,0.000337,  40.929
   198.2,0.039634,0.021317,0.852449,0.000416,  40.946
   198.4,0.039657,0.021351,0.852636,0.000508,  40.967
   198.6,0.039678,0.021375,0.852636,0.000574,  40.973
   198.8,0.039691,0.021387,0.852630,0.000653,  40.980
   199.0,0.039688,0.021387,0.852236,0.000732,  40.992
   199.2,0.039678,0.021380,0.851636,0.000784,  41.001
   199.4,0.039654,0.021370,0.851216,0.000850,  41.015
   199.6,0.039623,0.021356,0.850596,0.000903,  41.031
   199.8,0.039579,0.021337,0.850177,0.000955,  41.049
   200.0,0.039535,0.021317,0.849779,0.000995,  41.063
   200.2,0.039495,0.021298,0.848798,0.001008,  41.076
   200.4,0.039437,0.021272,0.847826,0.001021,  41.092
   200.6,0.039390,0.021241,0.847436,0.000986,  41.107
   200.8,0.039322,0.021202,0.847047,0.000973,  41.131
   201.0,0.039230,0.021162,0.846652,0.000986,  41.148
   201.2,0.039146,0.021116,0.846263,0.000951,  41.161
   201.4,0.039048,0.021061,0.845494,0.000999,  41.175
   201.6,0.038929,0.021004,0.844727,0.001013,  41.179
   201.8,0.038818,0.020939,0.844123,0.000991,  41.187
   202.0,0.038706,0.020850,0.843115,0.001039,  41.202
   202.2,0.038594,0.020750,0.841899,0.001052,  41.202
   202.4,0.038483,0.020642,0.840324,0.001017,  41.209
   202.6,0.038365,0.020535,0.838581,0.001039,  41.214
   202.8,0.038236,0.020430,0.836086,0.001026,  41.219
   203.0,0.038101,0.020325,0.834731,0.000951,  41.227
   203.2,0.037956,0.020227,0.833195,0.000920,  41.235
   203.4,0.037834,0.020143,0.832046,0.000881,  41.235
   203.6,0.037713,0.020062,0.831276,0.000767,  41.230
   203.8,0.037605,0.019976,0.830520,0.000710,  41.230
   204.0,0.037494,0.019902,0.829759,0.000657,  41.228
   204.2,0.037376,0.019826,0.828985,0.000556,  41.231
   204.4,0.037271,0.019750,0.828220,0.000526,  41.239
   204.6,0.037180,0.019685,0.827267,0.000486,  41.250
   204.8,0.037086,0.019621,0.826322,0.000412,  41.258
   205.0,0.037001,0.019576,0.824823,0.000421,  41.268
   205.2,0.036924,0.019547,0.823529,0.000394,  41.274
   205.4,0.036850,0.019535,0.822586,0.000381,  41.298
   205.6,0.036783,0.019494,0.821272,0.000320,  41.310
   205.8,0.036692,0.019454,0.820134,0.000342,  41.319
   206.0,0.036581,0.019409,0.818999,0.000355,  41.329
   206.2,0.036476,0.019363,0.818046,0.000333,  41.339
   206.4,0.036375,0.019313,0.816903,0.000394,  41.351
   206.6,0.036264,0.019258,0.815585,0.000447,  41.367
   206.8,0.036160,0.019211,0.813212,0.000478,  41.389
   207.0,0.036049,0.019168,0.810137,0.000578,  41.396
   207.2,0.035932,0.019121,0.806571,0.000618,  41.403
   207.4,0.035817,0.019080,0.803895,0.000609,  41.410
   207.6,0.035693,0.019016,0.801236,0.000670,  41.423
   207.8,0.035555,0.018945,0.798403,0.000723,  41.428
   208.0,0.035425,0.018861,0.795765,0.000701,  41.437
   208.2,0.035297,0.018790,0.793323,0.000763,  41.447
   208.4,0.035166,0.018725,0.790716,0.000789,  41.468
   208.6,0.035039,0.018666,0.788469,0.000767,  41.479
   208.8,0.034891,0.018571,0.786241,0.000815,  41.491
   209.0,0.034717,0.018468,0.784202,0.000815,  41.501
   209.2,0.034529,0.018357,0.783906,0.000780,  41.513
   209.4,0.034375,0.018242,0.784489,0.000802,  41.527
   209.6,0.034225,0.018133,0.785936,0.000828,  41.537
   209.8,0.034094,0.018024,0.783941,0.000806,  41.560
   210.0,0.033960,0.017908,0.780838,0.000841,  41.560
   210.2,0.033793,0.017796,0.776473,0.000855,  41.565
   210.4,0.033616,0.017682,0.773124,0.000833,  41.574
   210.6,0.033429,0.017580,0.769742,0.000841,  41.571
   210.8,0.033278,0.017488,0.766166,0.000841,  41.572
   211.0,0.033142,0.017410,0.762628,0.000806,  41.575
   211.2,0.033018,0.017348,0.759350,0.000828,  41.577
   211.4,0.032908,0.017301,0.755688,0.000815,  41.580
   211.6,0.032808,0.017279,0.753139,0.000789,  41.582
   211.8,0.032724,0.017227,0.751271,0.000798,  41.582
   212.0,0.032618,0.017182,0.749594,0.000784,  41.571
   212.2,0.032508,0.017130,0.748081,0.000771,  41.569
   212.4,0.032391,0.017061,0.746906,0.000758,  41.558
   212.6,0.032274,0.016983,0.745911,0.000745,  41.553
   212.8,0.032148,0.016903,0.744592,0.000745,  41.553
   213.0,0.032011,0.016834,0.743290,0.000732,  41.555
   213.2,0.031891,0.016767,0.741857,0.000732,  41.560
   213.4,0.031771,0.016708,0.740011,0.000719,  41.560
   213.6,0.031652,0.016596,0.738053,0.000692,  41.559
   213.8,0.031469,0.016464,0.735672,0.000679,  41.560
   214.0,0.031246,0.016300,0.733041,0.000679,  41.563
   214.2,0.031000,0.016189,0.731358,0.000666,  41.563
   214.4,0.030807,0.016092,0.729949,0.000640,  41.564
   214.6,0.030618,0.016002,0.728826,0.000640,  41.566
   214.8,0.030449,0.015924,0.726539,0.000666,  41.566
   215.0,0.030276,0.015823,0.723511,0.000666,  41.565
   215.2,0.030107,0.015716,0.719927,0.000666,  41.570
   215.4,0.029948,0.015603,0.716664,0.000679,  41.577
   215.6,0.029792,0.015504,0.713142,0.000666,  41.567
   215.8,0.029640,0.015412,0.709359,0.000679,  41.560
   216.0,0.029501,0.015333,0.706037,0.000670,  41.556
   216.2,0.029372,0.015238,0.702747,0.000684,  41.554
   216.4,0.029249,0.015142,0.699629,0.000710,  41.550
   216.6,0.029140,0.015062,0.696673,0.000675,  41.543
   216.8,0.029034,0.014984,0.693890,0.000710,  41.540
   217.0,0.028892,0.014901,0.691282,0.000723,  41.531
   217.2,0.028733,0.014835,0.688946,0.000688,  41.518
   217.4,0.028568,0.014738,0.686622,0.000710,  41.518
   217.6,0.028396,0.014625,0.684459,0.000710,  41.522
   217.8,0.028208,0.014505,0.682816,0.000675,  41.526
   218.0,0.028020,0.014397,0.681449,0.000710,  41.524
   218.2,0.027835,0.014286,0.680208,0.000710,  41.528
   218.4,0.027641,0.014180,0.677910,0.000688,  41.522
   218.6,0.027456,0.014083,0.674978,0.000736,  41.515
   218.8,0.027298,0.013984,0.671537,0.000736,  41.517
   219.0,0.027140,0.013892,0.668247,0.000701,  41.511
   219.2,0.027001,0.013830,0.664722,0.000736,  41.503
   219.4,0.026899,0.013788,0.660716,0.000736,  41.499
   219.6,0.026820,0.013757,0.657635,0.000749,  41.494
   219.8,0.026768,0.013727,0.654823,0.000701,  41.494
   220.0,0.026696,0.013701,0.652169,0.000736,  41.490
   220.2,0.026623,0.013687,0.649704,0.000723,  41.486
   220.4,0.026558,0.013640,0.647405,0.000675,  41.472
   220.6,0.026462,0.013591,0.645271,0.000697,  41.454
   220.8,0.026357,0.013539,0.643305,0.000697,  41.444
   221.0,0.026236,0.013488,0.642420,0.000662,  41.416
   221.2,0.026121,0.013434,0.641873,0.000710,  41.403
   221.4,0.026006,0.013375,0.641888,0.000710,  41.394
   221.6,0.025881,0.013321,0.641115,0.000675,  41.383
   221.8,0.025736,0.013246,0.639982,0.000697,  41.377
   222.0,0.025579,0.013161,0.638620,0.000684,  41.362
   222.2,0.025405,0.013067,0.637140,0.000635,  41.346
   222.4,0.025221,0.012952,0.635314,0.000657,  41.326
   222.6,0.025025,0.012816,0.633374,0.000657,  41.308
   222.8,0.024815,0.012673,0.631430,0.000657,  41.297
   223.0,0.024668,0.012565,0.629501,0.000666,  41.281
   223.2,0.024540,0.012471,0.627335,0.000679,  41.271
   223.4,0.024442,0.012391,0.623032,0.000679,  41.259
   223.6,0.024367,0.012302,0.617613,0.000679,  41.229
   223.8,0.024246,0.012220,0.610751,0.000692,  41.224
   224.0,0.024111,0.012139,0.607119,0.000692,  41.214
   224.2,0.023971,0.012067,0.604549,0.000692,  41.202
   224.4,0.023840,0.011991,0.602691,0.000705,  41.183
   224.6,0.023709,0.011928,0.599917,0.000719,  41.161
   224.8,0.023575,0.011850,0.597170,0.000732,  41.133
   225.0,0.023442,0.011766,0.594324,0.000745,  41.123
   225.2,0.023308,0.011680,0.591817,0.000736,  41.106
   225.4,0.023171,0.011605,0.589505,0.000749,  41.094
   225.6,0.023037,0.011531,0.587359,0.000776,  41.082
   225.8,0.022906,0.011466,0.585434,0.000741,  41.062
   226.0,0.022766,0.011384,0.583709,0.000763,  41.061
   226.2,0.022616,0.011304,0.581964,0.000763,  41.059
   226.4,0.022460,0.011215,0.580421,0.000763,  41.054
   226.6,0.022291,0.011122,0.578877,0.000784,  41.047
   226.8,0.022138,0.011040,0.577425,0.000784,  41.041
   227.0,0.021991,0.010952,0.575031,0.000811,  41.036
   227.2,0.021845,0.010858,0.572014,0.000763,  41.035
   227.4,0.021702,0.010771,0.568601,0.000776,  41.026
   227.6,0.021562,0.010685,0.565926,0.000776,  41.018
   227.8,0.021425,0.010622,0.563254,0.000754,  41.012
   228.0,0.021331,0.010580,0.560592,0.000802,  40.993
   228.2,0.021244,0.010549,0.558041,0.000815,  40.990
   228.4,0.021169,0.010538,0.555714,0.000767,  40.980
   228.6,0.021084,0.010489,0.553521,0.000776,  40.977
   228.8,0.020993,0.010447,0.551439,0.000763,  40.967
   229.0,0.020899,0.010395,0.550038,0.000701,  40.952
   229.2,0.020795,0.010335,0.548935,0.000684,  40.939
   229.4,0.020684,0.010279,0.548224,0.000670,  40.924
   229.6,0.020581,0.010211,0.547046,0.000622,  40.894
   229.8,0.020494,0.010148,0.545687,0.000631,  40.887
   230.0,0.020402,0.010090,0.544339,0.000618,  40.876
   230.2,0.020328,0.010034,0.543060,0.000570,  40.872
   230.4,0.020231,0.009963,0.541582,0.000578,  40.866
   230.6,0.020127,0.009901,0.540095,0.000552,  40.860
   230.8,0.020027,0.009829,0.537993,0.000504,  40.860
   231.0,0.019913,0.009751,0.535453,0.000513,  40.861
   231.2,0.019787,0.009682,0.532662,0.000526,  40.857
   231.4,0.019651,0.009602,0.530182,0.000526,  40.847
   231.6,0.019502,0.009527,0.527501,0.000561,  40.842
   231.8,0.019366,0.009455,0.524808,0.000587,  40.839
   232.0,0.019227,0.009385,0.521791,0.000627,  40.833
   232.2,0.019104,0.009322,0.518430,0.000666,  40.818
   232.4,0.019004,0.009259,0.514726,0.000692,  40.818
   232.6,0.018907,0.009210,0.511869,0.000705,  40.818
   232.8,0.018836,0.009166,0.509128,0.000692,  40.802
   233.0,0.018758,0.009122,0.506578,0.000679,  40.783
   233.2,0.018684,0.009091,0.504755,0.000618,  40.765
   233.4,0.018629,0.009049,0.503291,0.000578,  40.749
   233.6,0.018555,0.009005,0.502196,0.000552,  40.730
   233.8,0.018477,0.008958,0.501124,0.000539,  40.708
   234.0,0.018410,0.008927,0.500062,0.000491,  40.697
   234.2,0.018345,0.008906,0.499104,0.000499,  40.694
   234.4,0.018277,0.008885,0.497897,0.000486,  40.688
   234.6,0.018219,0.008834,0.496700,0.000438,  40.683
   234.8,0.018126,0.008771,0.495357,0.000447,  40.677
   235.0,0.018006,0.008693,0.493937,0.000434,  40.678
   235.2,0.017881,0.008637,0.493398,0.000386,  40.680
   235.4,0.017774,0.008593,0.492920,0.000394,  40.670
   235.6,0.017661,0.008551,0.492778,0.000434,  40.669
   235.8,0.017559,0.008518,0.491179,0.000438,  40.666
   236.0,0.017439,0.008453,0.488798,0.000526,  40.663
   236.2,0.017310,0.008386,0.485761,0.000578,  40.657
   236.4,0.017188,0.008307,0.483501,0.000570,  40.649
   236.6,0.017095,0.008249,0.481160,0.000644,  40.629
   236.8,0.017008,0.008205,0.478924,0.000670,  40.629
   237.0,0.016950,0.008163,0.476803,0.000635,  40.625
   237.2,0.016886,0.008116,0.474712,0.000657,  40.619
   237.4,0.016831,0.008077,0.472652,0.000644,  40.607
   237.6,0.016780,0.008035,0.469820,0.000570,  40.590
   237.8,0.016738,0.007986,0.466526,0.000552,  40.581
   238.0,0.016664,0.007950,0.462775,0.000539,  40.575
   238.2,0.016584,0.007908,0.461408,0.000464,  40.556
   238.4,0.016487,0.007866,0.460918,0.000473,  40.551
   238.6,0.016423,0.007834,0.461464,0.000460,  40.543
   238.8,0.016358,0.007807,0.460385,0.000412,  40.542
   239.0,0.016314,0.007761,0.458972,0.000421,  40.537
   239.2,0.016227,0.007705,0.457237,0.000407,  40.540
   239.4,0.016121,0.007652,0.456303,0.000359,  40.542
   239.6,0.016015,0.007598,0.455452,0.000368,  40.536
   239.8,0.015913,0.007544,0.454763,0.000394,  40.534
   240.0,0.015800,0.007495,0.453062,0.000399,  40.536
   240.2,0.015704,0.007434,0.450943,0.000473,  40.529
   240.4,0.015592,0.007370,0.448414,0.000513,  40.528
   240.6,0.015466,0.007295,0.446266,0.000530,  40.525
   240.8,0.015351,0.007235,0.443953,0.000605,  40.524
   241.0,0.015268,0.007191,0.441709,0.000618,  40.525
   241.2,0.015184,0.007150,0.439492,0.000644,  40.532
   241.4,0.015130,0.007105,0.437292,0.000631,  40.524
   241.6,0.015063,0.007066,0.435027,0.000640,  40.515
   241.8,0.014995,0.007039,0.433511,0.000627,  40.511
   242.0,0.014938,0.006999,0.432291,0.000587,  40.507
   242.2,0.014880,0.006969,0.431454,0.000548,  40.504
   242.4,0.014829,0.006937,0.430833,0.000521,  40.495
   242.6,0.014785,0.006905,0.429634,0.000460,  40.481
   242.8,0.014724,0.006869,0.428287,0.000434,  40.470
   243.0,0.014644,0.006847,0.426958,0.000421,  40.465
   243.2,0.014567,0.006819,0.425688,0.000359,  40.459
   243.4,0.014506,0.006791,0.424415,0.000381,  40.456
   243.6,0.014448,0.006764,0.423152,0.000368,  40.455
   243.8,0.014398,0.006734,0.422110,0.000320,  40.457
   244.0,0.014315,0.006692,0.421009,0.000342,  40.455
   244.2,0.014215,0.006638,0.420052,0.000315,  40.452
   244.4,0.014100,0.006585,0.418957,0.000302,  40.453
   244.6,0.013995,0.006523,0.417878,0.000311,  40.445
   244.8,0.013890,0.006454,0.416661,0.000337,  40.448
   245.0,0.013778,0.006382,0.414975,0.000377,  40.441
   245.2,0.013701,0.006326,0.412932,0.000403,  40.437
   245.4,0.013634,0.006280,0.410667,0.000429,  40.439
   245.6,0.013593,0.006243,0.408782,0.000456,  40.428
   245.8,0.013558,0.006201,0.406839,0.000456,  40.425
   246.0,0.013497,0.006168,0.404898,0.000456,  40.413
   246.2,0.013436,0.006141,0.403528,0.000407,  40.404
   246.4,0.013376,0.006104,0.402241,0.000381,  40.392
   246.6,0.013312,0.006071,0.401163,0.000368,  40.374
   246.8,0.013245,0.006037,0.399882,0.000342,  40.373
   247.0,0.013178,0.006015,0.398549,0.000350,  40.368
   247.2,0.013130,0.006009,0.397156,0.000350,  40.370
   247.4,0.013092,0.006004,0.395754,0.000324,  40.372
   247.6,0.013060,0.005985,0.394140,0.000324,  40.381
   247.8,0.013009,0.005967,0.392602,0.000337,  40.379
   248.0,0.012945,0.005941,0.391138,0.000324,  40.381
   248.2,0.012869,0.005909,0.389611,0.000324,  40.384
   248.4,0.012795,0.005879,0.388088,0.000350,  40.385
   248.6,0.012719,0.005843,0.385900,0.000390,  40.378
   248.8,0.012633,0.005790,0.383266,0.000442,  40.378
   249.0,0.012550,0.005727,0.380318,0.000495,  40.375
   249.2,0.012461,0.005657,0.378371,0.000548,  40.374
   249.4,0.012375,0.005613,0.376693,0.000587,  40.377
   249.6,0.012308,0.005576,0.375349,0.000627,  40.379
   249.8,0.012241,0.005546,0.374275,0.000640,  40.386
   250.0,0.012187,0.005516,0.372878,0.000627,  40.379
   250.2,0.012123,0.005486,0.371427,0.000587,  40.370
   250.4,0.012050,0.005463,0.370046,0.000561,  40.368
   250.6,0.011990,0.005438,0.369110,0.000521,  40.360
   250.8,0.011932,0.005412,0.368366,0.000482,  40.354
   251.0,0.011868,0.005387,0.367821,0.000469,  40.351
   251.2,0.011824,0.005369,0.366962,0.000442,  40.343
   251.4,0.011767,0.005329,0.365980,0.000416,  40.342
   251.6,0.011707,0.005295,0.364949,0.000403,  40.340
   251.8,0.011650,0.005257,0.364082,0.000390,  40.337
   252.0,0.011602,0.005220,0.363132,0.000364,  40.340
   252.2,0.011555,0.005187,0.362111,0.000364,  40.341
   252.4,0.011520,0.005152,0.361134,0.000302,  40.338
   252.6,0.011482,0.005111,0.360114,0.000289,  40.341
   252.8,0.011412,0.005076,0.358911,0.000289,  40.340
   253.0,0.011326,0.005035,0.357697,0.000241,  40.340
   253.2,0.011231,0.004987,0.356444,0.000250,  40.334
   253.4,0.011151,0.004943,0.355066,0.000250,  40.331
   253.6,0.011075,0.004898,0.353666,0.000241,  40.323
   253.8,0.010999,0.004854,0.352024,0.000276,  40.326
   254.0,0.010936,0.004817,0.350312,0.000276,  40.326
   254.2,0.010875,0.004782,0.348676,0.000254,  40.324
   254.4,0.010815,0.004749,0.346928,0.000276,  40.320
   254.6,0.010764,0.004724,0.345069,0.000276,  40.320
   254.8,0.010717,0.004697,0.343583,0.000241,  40.313
   255.0,0.010666,0.004666,0.342220,0.000250,  40.288
   255.2,0.010609,0.004644,0.340929,0.000237,  40.272
   255.4,0.010552,0.004614,0.339629,0.000202,  40.268
   255.6,0.010485,0.004588,0.338203,0.000223,  40.265
   255.8,0.010447,0.004570,0.336897,0.000210,  40.271
   256.0,0.010409,0.004546,0.335359,0.000223,  40.277
   256.2,0.010387,0.004528,0.333717,0.000175,  40.289
   256.4,0.010342,0.004521,0.331914,0.000223,  40.289
   256.6,0.010282,0.004510,0.330526,0.000223,  40.290
   256.8,0.010225,0.004492,0.329270,0.000188,  40.291
   257.0,0.010156,0.004471,0.328197,0.000223,  40.293
   257.2,0.010066,0.004443,0.327193,0.000250,  40.290
   257.4,0.009985,0.004413,0.325596,0.000241,  40.286
   257.6,0.009918,0.004373,0.323833,0.000302,  40.283
   257.8,0.009845,0.004337,0.321908,0.000355,  40.287
   258.0,0.009792,0.004293,0.320244,0.000359,  40.288
   258.2,0.009738,0.004254,0.318508,0.000421,  40.299
   258.4,0.009677,0.004227,0.316765,0.000434,  40.302
   258.6,0.009636,0.004197,0.315154,0.000386,  40.292
   258.8,0.009586,0.004162,0.313519,0.000381,  40.290
   259.0,0.009529,0.004137,0.311917,0.000368,  40.284
   259.2,0.009479,0.004110,0.310988,0.000307,  40.281
   259.4,0.009438,0.004086,0.310393,0.000315,  40.273
   259.6,0.009406,0.004068,0.310122,0.000302,  40.270
   259.8,0.009375,0.004051,0.309534,0.000241,  40.269
   260.0,0.009356,0.004024,0.308897,0.000263,  40.263
   260.2,0.009318,0.003999,0.308210,0.000263,  40.267
   260.4,0.009270,0.003972,0.307144,0.000215,  40.274
   260.6,0.009220,0.003939,0.305831,0.000237,  40.271
   260.8,0.009172,0.003908,0.304365,0.000223,  40.267
   261.0,0.009125,0.003887,0.303466,0.000175,  40.267
   261.2,0.009074,0.003855,0.302724,0.000197,  40.268
   261.4,0.009014,0.003818,0.302133,0.000197,  40.269
   261.6,0.008941,0.003787,0.301274,0.000136,  40.264
   261.8,0.008865,0.003755,0.300354,0.000171,  40.265
   262.0,0.008809,0.003725,0.299268,0.000184,  40.268
   262.2,0.008751,0.003691,0.298177,0.000149,  40.264
   262.4,0.008708,0.003658,0.296985,0.000197,  40.263
   262.6,0.008657,0.003633,0.295740,0.000210,  40.262
   262.8,0.008610,0.003608,0.294463,0.000162,  40.265
   263.0,0.008566,0.003578,0.293100,0.000184,  40.266
   263.2,0.008525,0.003557,0.291699,0.000184,  40.266
   263.4,0.008484,0.003534,0.290544,0.000184,  40.268
   263.6,0.008446,0.003504,0.289283,0.000149,  40.263
   263.8,0.008398,0.003481,0.288134,0.000171,  40.260
   264.0,0.008341,0.003451,0.286852,0.000171,  40.251
   264.2,0.008288,0.003433,0.285649,0.000123,  40.247
   264.4,0.008238,0.003414,0.284293,0.000158,  40.254
   264.6,0.008180,0.003398,0.282969,0.000158,  40.260
   264.8,0.008127,0.003384,0.281878,0.000136,  40.262
   265.0,0.008089,0.003373,0.280816,0.000158,  40.263
   265.2,0.008057,0.003361,0.279884,0.000158,  40.265
   265.4,0.008026,0.003352,0.278773,0.000136,  40.263
   265.6,0.007976,0.003322,0.277678,0.000158,  40.263
   265.8,0.007909,0.003285,0.276434,0.000171,  40.269
   266.0,0.007841,0.003244,0.275298,0.000136,  40.268
   266.2,0.007790,0.003211,0.274232,0.000171,  40.266
   266.4,0.007739,0.003184,0.273076,0.000184,  40.270
   266.6,0.007705,0.003166,0.271654,0.000162,  40.273
   266.8,0.007667,0.003143,0.270086,0.000223,  40.280
   267.0,0.007633,0.003120,0.268269,0.000223,  40.287
   267.2,0.007594,0.003095,0.267026,0.000175,  40.280
   267.4,0.007566,0.003072,0.265934,0.000197,  40.271
   267.6,0.007525,0.003049,0.264956,0.000210,  40.264
   267.8,0.007478,0.003024,0.263922,0.000149,  40.261
   268.0,0.007431,0.003006,0.262993,0.000171,  40.262
   268.2,0.007396,0.002985,0.262111,0.000171,  40.261
   268.4,0.007365,0.002967,0.261223,0.000123,  40.259
   268.6,0.007333,0.002948,0.260441,0.000145,  40.255
   268.8,0.007295,0.002927,0.259761,0.000145,  40.261
   269.0,0.007251,0.002904,0.258892,0.000110,  40.262
   269.2,0.007198,0.002878,0.257994,0.000145,  40.264
   269.4,0.007157,0.002850,0.256996,0.000145,  40.259
   269.6,0.007116,0.002830,0.256323,0.000096,  40.262
   269.8,0.007082,0.002810,0.255585,0.000118,  40.262
   270.0,0.007038,0.002783,0.254951,0.000118,  40.263
   270.2,0.006981,0.002758,0.254121,0.000118,  40.261
   270.4,0.006934,0.002740,0.253186,0.000118,  40.265
   270.6,0.006890,0.002715,0.252108,0.000140,  40.261
   270.8,0.006843,0.002689,0.251154,0.000153,  40.255
   271.0,0.006809,0.002663,0.250245,0.000153,  40.257
   271.2,0.006768,0.002650,0.249258,0.000153,  40.261
   271.4,0.006720,0.002636,0.248330,0.000153,  40.255
   271.6,0.006686,0.002622,0.247271,0.000153,  40.259
   271.8,0.006655,0.002613,0.246228,0.000140,  40.258
   272.0,0.006620,0.002594,0.245181,0.000127,  40.259
   272.2,0.006601,0.002588,0.244093,0.000092,  40.257
   272.4,0.006567,0.002569,0.242966,0.000105,  40.254
   272.6,0.006519,0.002546,0.241806,0.000105,  40.250
   272.8,0.006475,0.002529,0.240776,0.000070,  40.253
   273.0,0.006434,0.002511,0.239762,0.000105,  40.259
   273.2,0.006394,0.002492,0.238688,0.000118,  40.258
   273.4,0.006353,0.002476,0.237575,0.000083,  40.258
   273.6,0.006318,0.002455,0.236423,0.000118,  40.257
   273.8,0.006293,0.002449,0.235177,0.000131,  40.259
   274.0,0.006268,0.002443,0.232793,0.000096,  40.262
   274.2,0.006256,0.002422,0.229866,0.000118,  40.259
   274.4,0.006221,0.002396,0.226289,0.000118,  40.259
   274.6,0.006181,0.002368,0.225182,0.000096,  40.259
   274.8,0.006130,0.002346,0.224964,0.000145,  40.260
   275.0,0.006090,0.002323,0.225643,0.000158,  40.258
   275.2,0.006039,0.002308,0.225099,0.000123,  40.262
   275.4,0.005995,0.002289,0.224402,0.000171,  40.274
   275.6,0.005961,0.002268,0.223402,0.000184,  40.270
   275.8,0.005926,0.002254,0.222723,0.000136,  40.266
   276.0,0.005895,0.002233,0.222126,0.000171,  40.264
   276.2,0.005860,0.002215,0.221529,0.000171,  40.253
   276.4,0.005823,0.002194,0.220827,0.000123,  40.252
   276.6,0.005785,0.002173,0.220099,0.000145,  40.244
   276.8,0.005760,0.002167,0.219306,0.000145,  40.241
   277.0,0.005735,0.002160,0.218620,0.000110,  40.241
   277.2,0.005713,0.002139,0.217969,0.000131,  40.244
   277.4,0.005681,0.002124,0.217292,0.000131,  40.243
   277.6,0.005640,0.002101,0.216418,0.000145,  40.244
   277.8,0.005596,0.002080,0.215474,0.000145,  40.248
   278.0,0.005559,0.002069,0.214447,0.000180,  40.246
   278.2,0.005524,0.002055,0.213710,0.000180,  40.242
   278.4,0.005490,0.002042,0.213093,0.000166,  40.243
   278.6,0.005450,0.002023,0.212556,0.000153,  40.244
   278.8,0.005412,0.002008,0.212143,0.000153,  40.246
   279.0,0.005375,0.001990,0.211279,0.000118,  40.246
   279.2,0.005340,0.001974,0.210286,0.000118,  40.242
   279.4,0.005296,0.001950,0.209198,0.000118,  40.235
   279.6,0.005268,0.001937,0.208120,0.000096,  40.236
   279.8,0.005234,0.001916,0.206863,0.000131,  40.235
   280.0,0.005193,0.001897,0.205532,0.000131,  40.238
   280.2,0.005159,0.001878,0.204508,0.000131,  40.240
   280.4,0.005128,0.001860,0.203525,0.000153,  40.236
   280.6,0.005096,0.001846,0.202582,0.000153,  40.234
   280.8,0.005074,0.001839,0.201686,0.000153,  40.238
   281.0,0.005046,0.001819,0.200778,0.000153,  40.230
   281.2,0.005018,0.001803,0.199916,0.000153,  40.228
   281.4,0.004990,0.001780,0.198981,0.000153,  40.230
   281.6,0.004962,0.001759,0.198010,0.000153,  40.236
   281.8,0.004930,0.001742,0.197010,0.000153,  40.231
   282.0,0.004896,0.001724,0.196037,0.000166,  40.230
   282.2,0.004858,0.001705,0.195008,0.000166,  40.229
   282.4,0.004824,0.001689,0.193938,0.000166,  40.232
   282.6,0.004777,0.001676,0.192580,0.000145,  40.228
   282.8,0.004746,0.001660,0.190992,0.000131,  40.230
   283.0,0.004715,0.001639,0.189283,0.000131,  40.227
   283.2,0.004677,0.001623,0.188364,0.000110,  40.228
   283.4,0.004652,0.001602,0.187753,0.000145,  40.232
   283.6,0.004618,0.001577,0.187412,0.000145,  40.231
   283.8,0.004577,0.001557,0.186693,0.000110,  40.235
   284.0,0.004540,0.001536,0.185858,0.000131,  40.251
   284.2,0.004505,0.001524,0.184953,0.000131,  40.253
   284.4,0.004467,0.001508,0.184237,0.000145,  40.243
   284.6,0.004436,0.001487,0.183480,0.000096,  40.229
   284.8,0.004405,0.001470,0.182724,0.000118,  40.224
   285.0,0.004370,0.001448,0.182025,0.000131,  40.225
   285.2,0.004339,0.001434,0.181383,0.000083,  40.215
   285.4,0.004314,0.001425,0.180792,0.000105,  40.206
   285.6,0.004292,0.001422,0.180180,0.000092,  40.206
   285.8,0.004270,0.001411,0.179449,0.000092,  40.207
   286.0,0.004245,0.001400,0.178664,0.000127,  40.212
   286.2,0.004217,0.001381,0.177838,0.000153,  40.209
   286.4,0.004186,0.001368,0.177118,0.000166,  40.204
   286.6,0.004158,0.001349,0.176357,0.000166,  40.205
   286.8,0.004120,0.001335,0.175604,0.000166,  40.210
   287.0,0.004080,0.001321,0.174711,0.000166,  40.210
   287.2,0.004052,0.001310,0.173659,0.000140,  40.207
   287.4,0.004023,0.001289,0.172533,0.000127,  40.208
   287.6,0.003995,0.001278,0.171256,0.000127,  40.205
   287.8,0.003970,0.001267,0.169872,0.000140,  40.206
   288.0,0.003945,0.001248,0.168341,0.000140,  40.200
   288.2,0.003920,0.001237,0.167459,0.000140,  40.204
   288.4,0.003905,0.001227,0.166874,0.000140,  40.203
   288.6,0.003880,0.001216,0.166539,0.000140,  40.203
   288.8,0.003852,0.001205,0.165852,0.000140,  40.206
   289.0,0.003827,0.001198,0.165022,0.000140,  40.201
   289.2,0.003802,0.001191,0.164165,0.000153,  40.206
   289.4,0.003777,0.001182,0.163455,0.000153,  40.208
   289.6,0.003749,0.001168,0.162697,0.000153,  40.204
   289.8,0.003721,0.001150,0.161955,0.000166,  40.203
   290.0,0.003693,0.001134,0.161213,0.000131,  40.210
   290.2,0.003661,0.001121,0.160439,0.000118,  40.209
   290.4,0.003637,0.001105,0.159585,0.000118,  40.209
   290.6,0.003612,0.001094,0.158794,0.000083,  40.205
   290.8,0.003593,0.001078,0.158004,0.000118,  40.206
   291.0,0.003565,0.001065,0.157127,0.000118,  40.208
   291.2,0.003527,0.001044,0.156340,0.000131,  40.212
   291.4,0.003496,0.001027,0.155561,0.000096,  40.213
   291.6,0.003471,0.001016,0.154750,0.000131,  40.208
   291.8,0.003446,0.001007,0.153987,0.000145,  40.212
   292.0,0.003424,0.000984,0.153319,0.000110,  40.208
   292.2,0.003396,0.000970,0.152619,0.000131,  40.212
   292.4,0.003358,0.000952,0.151933,0.000131,  40.221
   292.6,0.003324,0.000940,0.151222,0.000096,  40.239
   292.8,0.003299,0.000926,0.150465,0.000118,  40.248
   293.0,0.003267,0.000922,0.149704,0.000118,  40.234
   293.2,0.003249,0.000915,0.148903,0.000096,  40.226
   293.4,0.003228,0.000901,0.148111,0.000131,  40.214
   293.6,0.003203,0.000887,0.147281,0.000131,  40.212
   293.8,0.003184,0.000873,0.146596,0.000110,  40.212
   294.0,0.003163,0.000865,0.145913,0.000131,  40.210
   294.2,0.003141,0.000856,0.145231,0.000118,  40.209
   294.4,0.003116,0.000850,0.144549,0.000118,  40.208
   294.6,0.003094,0.000841,0.143797,0.000140,  40.211
   294.8,0.003069,0.000830,0.143099,0.000140,  40.212
   295.0,0.003044,0.000817,0.142467,0.000153,  40.211
   295.2,0.003022,0.000803,0.141797,0.000180,  40.213
   295.4,0.003001,0.000785,0.141173,0.000193,  40.214
   295.6,0.002972,0.000764,0.140537,0.000193,  40.216
   295.8,0.002957,0.000745,0.139954,0.000166,  40.215
   296.0,0.002932,0.000727,0.139333,0.000166,  40.217
   296.2,0.002901,0.000714,0.138526,0.000180,  40.216
   296.4,0.002873,0.000698,0.137527,0.000166,  40.218
   296.6,0.002842,0.000679,0.136474,0.000166,  40.213
   296.8,0.002814,0.000666,0.135666,0.000180,  40.209
   297.0,0.002786,0.000652,0.134821,0.000166,  40.209
   297.2,0.002755,0.000634,0.134047,0.000166,  40.216
   297.4,0.002727,0.000622,0.133211,0.000180,  40.218
   297.6,0.002702,0.000611,0.132322,0.000166,  40.219
   297.8,0.002677,0.000602,0.131434,0.000166,  40.219
   298.0,0.002649,0.000593,0.130704,0.000145,  40.218
   298.2,0.002621,0.000585,0.130000,0.000131,  40.220
   298.4,0.002596,0.000569,0.129404,0.000131,  40.224
   298.6,0.002561,0.000550,0.128709,0.000145,  40.222
   298.8,0.002530,0.000542,0.128015,0.000096,  40.228
   299.0,0.002502,0.000528,0.127335,0.000118,  40.224
   299.2,0.002480,0.000513,0.126687,0.000131,  40.219
   299.4,0.002462,0.000499,0.126116,0.000083,  40.220
   299.6,0.002434,0.000485,0.125477,0.000118,  40.223
   299.8,0.002403,0.000476,0.124920,0.000118,  40.225
   300.0,0.002369,0.000464,0.124184,0.000083,  40.229
   300.2,0.002341,0.000452,0.123306,0.000118,  40.239
   300.4,0.002319,0.000436,0.122325,0.000105,  40.235
   300.6,0.002294,0.000422,0.121550,0.000070,  40.239
   300.8,0.002266,0.000401,0.120775,0.000105,  40.244
   301.0,0.002241,0.000381,0.120033,0.000092,  40.245
   301.2,0.002217,0.000363,0.119292,0.000057,  40.263
   301.4,0.002192,0.000351,0.118535,0.000092,  40.260
   301.6,0.002163,0.000333,0.117743,0.000105,  40.248
   301.8,0.002145,0.000319,0.117012,0.000092,  40.240
   302.0,0.002127,0.000307,0.116276,0.000101,  40.240
   302.2,0.002117,0.000298,0.115578,0.000114,  40.230
   302.4,0.002105,0.000285,0.114948,0.000114,  40.235
   302.6,0.002099,0.000271,0.114311,0.000101,  40.239
   302.8,0.002077,0.000257,0.113742,0.000114,  40.237
   303.0,0.002046,0.000244,0.113138,0.000114,  40.241
   303.2,0.002008,0.000233,0.112534,0.000101,  40.239
   303.4,0.001977,0.000219,0.111907,0.000114,  40.237
   303.6,0.001949,0.000208,0.111355,0.000114,  40.239
   303.8,0.001918,0.000192,0.110773,0.000101,  40.234
   304.0,0.001887,0.000179,0.110243,0.000101,  40.236
   304.2,0.001859,0.000162,0.109633,0.000101,  40.239
   304.4,0.001831,0.000146,0.108988,0.000074,  40.238
   304.6,0.001806,0.000122,0.108273,0.000074,  40.237
   304.8,0.001778,0.000109,0.107558,0.000088,  40.239
   305.0,0.001757,0.000098,0.106766,0.000074,  40.237
   305.2,0.001732,0.000082,0.105903,0.000074,  40.235
   305.4,0.001697,0.000067,0.105172,0.000074,  40.234
   305.6,0.001676,0.000056,0.104514,0.000074,  40.232
   305.8,0.001654,0.000042,0.103863,0.000061,  40.236
   306.0,0.001623,0.000026,0.103220,0.000061,  40.232
   306.2,0.001605,0.000017,0.102685,0.000061,  40.237
   306.4,0.001580,0.000005,0.102129,0.000061,  40.235
   306.6,0.001548,-0.000004,0.101615,0.000061,  40.235
   306.8,0.001530,-0.000013,0.100940,0.000061,  40.233
   307.0,0.001512,-0.000025,0.100273,0.000048,  40.232
   307.2,0.001480,-0.000046,0.099558,0.000048,  40.234
   307.4,0.001465,-0.000054,0.098880,0.000061,  40.239
   307.6,0.001443,-0.000063,0.098180,0.000048,  40.239
   307.8,0.001409,-0.000073,0.097489,0.000048,  40.239
   308.0,0.001388,-0.000085,0.096807,0.000061,  40.237
   308.2,0.001366,-0.000096,0.096132,0.000048,  40.240
   308.4,0.001334,-0.000107,0.095459,0.000048,  40.242
   308.6,0.001319,-0.000126,0.094702,0.000061,  40.243
   308.8,0.001301,-0.000137,0.093897,0.000048,  40.241
   309.0,0.001288,-0.000144,0.092967,0.000048,  40.242
   309.2,0.001276,-0.000152,0.091817,0.000061,  40.241
   309.4,0.001266,-0.000166,0.090517,0.000048,  40.244
   309.6,0.001248,-0.000180,0.089000,0.000048,  40.255
   309.8,0.001223,-0.000198,0.088351,0.000061,  40.262
   310.0,0.001195,-0.000209,0.088007,0.000048,  40.256
   310.2,0.001173,-0.000215,0.087974,0.000048,  40.249
   310.4,0.001152,-0.000223,0.087680,0.000061,  40.238
   310.6,0.001134,-0.000232,0.087378,0.000048,  40.236
   310.8,0.001121,-0.000238,0.087063,0.000048,  40.234
   311.0,0.001109,-0.000248,0.086651,0.000061,  40.237
   311.2,0.001096,-0.000259,0.086171,0.000048,  40.236
   311.4,0.001078,-0.000270,0.085608,0.000048,  40.239
   311.6,0.001059,-0.000286,0.085143,0.000048,  40.233
   311.8,0.001038,-0.000300,0.084643,0.000035,  40.234
   312.0,0.001010,-0.000310,0.084145,0.000035,  40.233
   312.2,0.000982,-0.000327,0.083694,0.000022,  40.231
   312.4,0.000954,-0.000341,0.083285,0.000035,  40.222
   312.6,0.000932,-0.000347,0.082849,0.000022,  40.223
   312.8,0.000904,-0.000358,0.082406,0.000022,  40.226
   313.0,0.000885,-0.000372,0.081971,0.000022,  40.224
   313.2,0.000866,-0.000382,0.081462,0.000022,  40.219
   313.4,0.000838,-0.000389,0.081000,0.000022,  40.221
   313.6,0.000820,-0.000403,0.080451,0.000022,  40.217
   313.8,0.000798,-0.000412,0.079829,0.000022,  40.217
   314.0,0.000770,-0.000429,0.079146,0.000035,  40.214
   314.2,0.000749,-0.000432,0.078532,0.000035,  40.216
   314.4,0.000730,-0.000446,0.077852,0.000035,  40.210
   314.6,0.000699,-0.000458,0.077159,0.000048,  40.212
   314.8,0.000684,-0.000465,0.076172,0.000048,  40.212
   315.0,0.000662,-0.000472,0.075041,0.000035,  40.210
   315.2,0.000630,-0.000486,0.073720,0.000035,  40.211
   315.4,0.000612,-0.000497,0.073234,0.000013,  40.211
   315.6,0.000597,-0.000503,0.073053,0.000013,  40.209
   315.8,0.000584,-0.000517,0.073231,0.000013,  40.213
   316.0,0.000572,-0.000528,0.072811,-0.000009,  40.212
   316.2,0.000563,-0.000536,0.072253,0.000013,  40.210
   316.4,0.000544,-0.000548,0.071497,0.000013,  40.202
   316.6,0.000516,-0.000566,0.070484,0.000026,  40.203
   316.8,0.000488,-0.000585,0.069335,0.000061,  40.206
   317.0,0.000467,-0.000595,0.067928,0.000061,  40.207
   317.2,0.000438,-0.000610,0.067356,0.000061,  40.204
   317.4,0.000427,-0.000627,0.067098,0.000061,  40.205
   317.6,0.000408,-0.000636,0.067135,0.000061,  40.203
   317.8,0.000379,-0.000641,0.066773,0.000061,  40.204
   318.0,0.000365,-0.000655,0.066359,0.000061,  40.206
   318.2,0.000343,-0.000666,0.065908,0.000061,  40.216
   318.4,0.000318,-0.000680,0.065527,0.000061,  40.227
   318.6,0.000303,-0.000689,0.065108,0.000048,  40.215
   318.8,0.000281,-0.000701,0.064735,0.000048,  40.212
   319.0,0.000253,-0.000712,0.064213,0.000048,  40.203
   319.2,0.000235,-0.000724,0.063626,0.000035,  40.199
   319.4,0.000219,-0.000731,0.062962,0.000035,  40.201
   319.6,0.000194,-0.000737,0.062507,0.000022,  40.195
   319.8,0.000175,-0.000754,0.062143,0.000035,  40.196
   320.0,0.000157,-0.000763,0.061819,0.000022,  40.198
   320.2,0.000135,-0.000771,0.061578,0.000009,  40.196
   320.4,0.000110,-0.000783,0.061143,0.000009,  40.194
   320.6,0.000085,-0.000794,0.060625,0.000009,  40.191
   320.8,0.000064,-0.000805,0.060115,0.000022,  40.194
   321.0,0.000033,-0.000814,0.059721,-0.000026,  40.191
   321.2,0.000008,-0.000832,0.059326,-0.000039,  40.188
   321.4,-0.000014,-0.000846,0.058997,-0.000026,  40.195
   321.6,-0.000035,-0.000857,0.058565,-0.000074,  40.189
   321.8,-0.000057,-0.000873,0.058094,-0.000039,  40.192
   322.0,-0.000082,-0.000887,0.057598,-0.000026,  40.187
   322.2,-0.000096,-0.000896,0.056995,-0.000039,  40.190
   322.4,-0.000115,-0.000910,0.056284,-0.000017,  40.182
   322.6,-0.000143,-0.000919,0.055500,-0.000004,  40.183
   322.8,-0.000161,-0.000930,0.055865,-0.000004,  40.185
   323.0,-0.000180,-0.000942,0.056715,-0.000017,  40.185
   323.2,-0.000192,-0.000955,0.058083,-0.000004,  40.182
   323.4,-0.000211,-0.000971,0.057621,-0.000004,  40.183
   323.6,-0.000226,-0.000992,0.056505,-0.000017,  40.184
   323.8,-0.000248,-0.001001,0.054639,-0.000004,  40.185
   324.0,-0.000270,-0.001010,0.053659,-0.000004,  40.185
   324.2,-0.000294,-0.001019,0.052774,-0.000017,  40.184
   324.4,-0.000313,-0.001031,0.051948,-0.000004,  40.187
   324.6,-0.000338,-0.001030,0.051090,-0.000004,  40.185
   324.8,-0.000360,-0.001044,0.050300,-0.000004,  40.184
   325.0,-0.000382,-0.001058,0.049547,0.000009,  40.180
   325.2,-0.000403,-0.001077,0.048850,-0.000004,  40.179
   325.4,-0.000425,-0.001096,0.048213,-0.000017,  40.177
   325.6,-0.000446,-0.001109,0.047641,-0.000004,  40.182
   325.8,-0.000468,-0.001118,0.047045,-0.000004,  40.181
   326.0,-0.000487,-0.001132,0.046452,-0.000017,  40.178
   326.2,-0.000505,-0.001140,0.045817,-0.000017,  40.174
   326.4,-0.000530,-0.001149,0.045301,-0.000017,  40.175
   326.6,-0.000555,-0.001158,0.044762,-0.000017,  40.184
   326.8,-0.000573,-0.001172,0.044243,-0.000031,  40.192
   327.0,-0.000602,-0.001181,0.043461,-0.000017,  40.199
   327.2,-0.000623,-0.001188,0.042559,-0.000031,  40.187
   327.4,-0.000645,-0.001204,0.041538,-0.000031,  40.181
   327.6,-0.000676,-0.001213,0.040369,-0.000017,  40.175
   327.8,-0.000694,-0.001222,0.040027,-0.000031,  40.169
   328.0,-0.000716,-0.001234,0.039928,-0.000031,  40.169
   328.2,-0.000737,-0.001241,0.040030,-0.000017,  40.164
   328.4,-0.000749,-0.001247,0.039828,-0.000031,  40.170
   328.6,-0.000771,-0.001264,0.039579,-0.000031,  40.167
   328.8,-0.000792,-0.001272,0.039226,-0.000031,  40.167
   329.0,-0.000817,-0.001283,0.038940,-0.000031,  40.167
   329.2,-0.000839,-0.001295,0.038667,-0.000044,  40.165
   329.4,-0.000863,-0.001313,0.038387,-0.000044,  40.163
   329.6,-0.000881,-0.001324,0.038186,-0.000066,  40.162
   329.8,-0.000900,-0.001336,0.038047,-0.000079,  40.165
   330.0,-0.000915,-0.001354,0.037931,-0.000079,  40.168
   330.2,-0.000934,-0.001368,0.037587,-0.000114,  40.162
   330.4,-0.000946,-0.001379,0.037048,-0.000092,  40.166
   330.6,-0.000965,-0.001392,0.036377,-0.000092,  40.158
   330.8,-0.000989,-0.001402,0.035803,-0.000092,  40.161
   331.0,-0.001024,-0.001411,0.035213,-0.000057,  40.157
   331.2,-0.001042,-0.001423,0.034532,-0.000057,  40.155
   331.4,-0.001061,-0.001432,0.033929,-0.000057,  40.158
   331.6,-0.001086,-0.001446,0.033396,-0.000057,  40.158
   331.8,-0.001104,-0.001458,0.032856,-0.000057,  40.158
   332.0,-0.001120,-0.001466,0.032340,-0.000057,  40.162
   332.2,-0.001138,-0.001483,0.031872,-0.000057,  40.165
   332.4,-0.001160,-0.001492,0.031442,-0.000057,  40.163
   332.6,-0.001181,-0.001503,0.031035,-0.000057,  40.164
   332.8,-0.001206,-0.001512,0.030599,-0.000057,  40.161
   333.0,-0.001228,-0.001521,0.030163,-0.000057,  40.165
   333.2,-0.001252,-0.001535,0.029650,-0.000044,  40.163
   333.4,-0.001280,-0.001551,0.029085,-0.000079,  40.166
   333.6,-0.001302,-0.001565,0.028443,-0.000066,  40.161
   333.8,-0.001327,-0.001578,0.027923,-0.000052,  40.160
   334.0,-0.001352,-0.001592,0.027494,-0.000101,  40.163
   334.2,-0.001373,-0.001604,0.027041,-0.000066,  40.165
   334.4,-0.001402,-0.001608,0.026626,-0.000066,  40.165
   334.6,-0.001419,-0.001617,0.026237,-0.000114,  40.162
   334.8,-0.001441,-0.001626,0.025859,-0.000092,  40.164
   335.0,-0.001466,-0.001642,0.025473,-0.000092,  40.169
   335.2,-0.001487,-0.001651,0.024769,-0.000127,  40.166
   335.4,-0.001508,-0.001662,0.023868,-0.000092,  40.181
   335.6,-0.001533,-0.001679,0.022766,-0.000092,  40.178
   335.8,-0.001558,-0.001685,0.022344,-0.000092,  40.177
   336.0,-0.001576,-0.001694,0.022140,-0.000070,  40.168
   336.2,-0.001595,-0.001708,0.022132,-0.000070,  40.164
   336.4,-0.001616,-0.001717,0.021733,-0.000092,  40.162
   336.6,-0.001638,-0.001726,0.021185,-0.000105,  40.158
   336.8,-0.001659,-0.001743,0.020534,-0.000105,  40.161
   337.0,-0.001684,-0.001758,0.021480,-0.000127,  40.161
   337.2,-0.001705,-0.001767,0.023095,-0.000105,  40.164
   337.4,-0.001720,-0.001782,0.025437,-0.000105,  40.170
   337.6,-0.001732,-0.001793,0.025235,-0.000127,  40.168
   337.8,-0.001740,-0.001806,0.024111,-0.000105,  40.168
   338.0,-0.001768,-0.001822,0.022032,-0.000105,  40.168
   338.2,-0.001790,-0.001835,0.021126,-0.000127,  40.161
   338.4,-0.001815,-0.001849,0.020370,-0.000105,  40.170
   338.6,-0.001843,-0.001862,0.019693,-0.000105,  40.172
   338.8,-0.001864,-0.001871,0.019022,-0.000127,  40.171
   339.0,-0.001892,-0.001880,0.018354,-0.000105,  40.169
   339.2,-0.001920,-0.001892,0.017717,-0.000105,  40.166
   339.4,-0.001949,-0.001903,0.017110,-0.000127,  40.165
   339.6,-0.001967,-0.001914,0.016544,-0.000105,  40.160
   339.8,-0.001988,-0.001926,0.015990,-0.000105,  40.165
   340.0,-0.002020,-0.001941,0.015487,-0.000127,  40.165
   340.2,-0.002041,-0.001953,0.014998,-0.000105,  40.166
   340.4,-0.002062,-0.001962,0.014544,-0.000105,  40.164
   340.6,-0.002090,-0.001973,0.014179,-0.000092,  40.164
   340.8,-0.002105,-0.001987,0.013799,-0.000140,  40.173
   341.0,-0.002130,-0.002001,0.013506,-0.000105,  40.170
   341.2,-0.002158,-0.002020,0.013124,-0.000092,  40.171
   341.4,-0.002182,-0.002032,0.012733,-0.000140,  40.175
   341.6,-0.002207,-0.002048,0.012312,-0.000118,  40.174
   341.8,-0.002241,-0.002059,0.011876,-0.000118,  40.173
   342.0,-0.002262,-0.002062,0.011365,-0.000140,  40.170
   342.2,-0.002287,-0.002074,0.010839,-0.000105,  40.170
   342.4,-0.002318,-0.002085,0.010313,-0.000105,  40.175
   342.6,-0.002333,-0.002099,0.009867,-0.000127,  40.177
   342.8,-0.002355,-0.002107,0.009429,-0.000105,  40.179
   343.0,-0.002386,-0.002121,0.009013,-0.000105,  40.176
   343.2,-0.002407,-0.002134,0.008532,-0.000127,  40.180
   343.4,-0.002429,-0.002143,0.008029,-0.000105,  40.178
   343.6,-0.002457,-0.002154,0.007490,-0.000105,  40.179
   343.8,-0.002487,-0.002168,0.007111,-0.000140,  40.179
   344.0,-0.002506,-0.002182,0.006776,-0.000118,  40.190
   344.2,-0.002524,-0.002199,0.006499,-0.000118,  40.193
   344.4,-0.002543,-0.002205,0.006127,-0.000153,  40.188
   344.6,-0.002552,-0.002214,0.005684,-0.000118,  40.185
   344.8,-0.002570,-0.002232,0.005255,-0.000131,  40.181
   345.0,-0.002592,-0.002245,0.004570,-0.000166,  40.182
   345.2,-0.002614,-0.002258,0.003656,-0.000131,  40.176
   345.4,-0.002635,-0.002266,0.002624,-0.000144,  40.179
   345.6,-0.002660,-0.002282,0.002278,-0.000179,  40.185
   345.8,-0.002684,-0.002300,0.002125,-0.000131,  40.186
   346.0,-0.002709,-0.002309,0.002242,-0.000131,  40.188
   346.2,-0.002740,-0.002316,0.002066,-0.000166,  40.182
   346.4,-0.002767,-0.002328,0.001820,-0.000131,  40.184
   346.6,-0.002792,-0.002344,0.001546,-0.000131,  40.185
   346.8,-0.002816,-0.002353,0.001278,-0.000131,  40.184
   347.0,-0.002838,-0.002367,0.000961,-0.000109,  40.188
   347.2,-0.002863,-0.002383,0.000623,-0.000109,  40.188
   347.4,-0.002891,-0.002399,0.000299,-0.000096,  40.190
   347.6,-0.002915,-0.002410,-0.000052,-0.000096,  40.186
   347.8,-0.002937,-0.002424,-0.000403,-0.000096,  40.186
   348.0,-0.002965,-0.002435,-0.000740,-0.000096,  40.184
   348.2,-0.002983,-0.002447,-0.001056,-0.000096,  40.180
   348.4,-0.003008,-0.002460,-0.001358,-0.000096,  40.189
   348.6,-0.003042,-0.002474,-0.001687,-0.000096,  40.185
   348.8,-0.003063,-0.002481,-0.002009,-0.000096,  40.185
   349.0,-0.003084,-0.002488,-0.002352,-0.000096,  40.189
   349.2,-0.003110,-0.002492,-0.002729,-0.000096,  40.189
   349.4,-0.003124,-0.002497,-0.003142,-0.000131,  40.193
   349.6,-0.003146,-0.002511,-0.003659,-0.000131,  40.190
   349.8,-0.003173,-0.002520,-0.004176,-0.000131,  40.190
   350.0,-0.003194,-0.002536,-0.004566,-0.000166,  40.193
   350.2,-0.003219,-0.002547,-0.004935,-0.000131,  40.193
   350.4,-0.003246,-0.002568,-0.005282,-0.000118,  40.188
   350.6,-0.003270,-0.002580,-0.005678,-0.000153,  40.188
   350.8,-0.003295,-0.002591,-0.006066,-0.000118,  40.190
   351.0,-0.003323,-0.002610,-0.006510,-0.000105,  40.192
   351.2,-0.003338,-0.002618,-0.007023,-0.000140,  40.195
   351.4,-0.003359,-0.002632,-0.007536,-0.000118,  40.198
   351.6,-0.003378,-0.002641,-0.008117,-0.000118,  40.197
   351.8,-0.003396,-0.002650,-0.008531,-0.000140,  40.193
   352.0,-0.003415,-0.002664,-0.008869,-0.000105,  40.198
   352.2,-0.003436,-0.002672,-0.009165,-0.000105,  40.196
   352.4,-0.003460,-0.002687,-0.009502,-0.000127,  40.202
   352.6,-0.003494,-0.002703,-0.009812,-0.000105,  40.200
   352.8,-0.003515,-0.002717,-0.010155,-0.000105,  40.197
   353.0,-0.003547,-0.002732,-0.010443,-0.000127,  40.198
   353.2,-0.003568,-0.002744,-0.010738,-0.000105,  40.191
   353.4,-0.003593,-0.002755,-0.011033,-0.000105,  40.189
   353.6,-0.003624,-0.002766,-0.011396,-0.000127,  40.193
   353.8,-0.003648,-0.002778,-0.011773,-0.000105,  40.185
   354.0,-0.003672,-0.002794,-0.012184,-0.000105,  40.195
   354.2,-0.003701,-0.002809,-0.012567,-0.000092,  40.188
   354.4,-0.003718,-0.002818,-0.012922,-0.000070,  40.190
   354.6,-0.003740,-0.002831,-0.013264,-0.000070,  40.191
   354.8,-0.003768,-0.002847,-0.013570,-0.000070,  40.192
   355.0,-0.003786,-0.002863,-0.013877,-0.000070,  40.186
   355.2,-0.003807,-0.002872,-0.014183,-0.000083,  40.184
   355.4,-0.003839,-0.002889,-0.014456,-0.000083,  40.186
   355.6,-0.003860,-0.002900,-0.014707,-0.000096,  40.188
   355.8,-0.003884,-0.002916,-0.014952,-0.000096,  40.186
   356.0,-0.003921,-0.002925,-0.015197,-0.000096,  40.189
   356.2,-0.003942,-0.002933,-0.015570,-0.000096,  40.185
   356.4,-0.003967,-0.002944,-0.015991,-0.000083,  40.181
   356.6,-0.004001,-0.002950,-0.016519,-0.000070,  40.179
   356.8,-0.004019,-0.002959,-0.016899,-0.000070,  40.178
   357.0,-0.004046,-0.002973,-0.017264,-0.000083,  40.183
   357.2,-0.004084,-0.002984,-0.017595,-0.000083,  40.180
   357.4,-0.004108,-0.002998,-0.017966,-0.000070,  40.183
   357.6,-0.004129,-0.003010,-0.018364,-0.000070,  40.188
   357.8,-0.004161,-0.003019,-0.018809,-0.000070,  40.187
   358.0,-0.004178,-0.003031,-0.019139,-0.000057,  40.183
   358.2,-0.004200,-0.003042,-0.019422,-0.000070,  40.186
   358.4,-0.004215,-0.003055,-0.019684,-0.000070,  40.187
   358.6,-0.004236,-0.003071,-0.020067,-0.000057,  40.185
   358.8,-0.004252,-0.003090,-0.020490,-0.000070,  40.186
   359.0,-0.004276,-0.003101,-0.020973,-0.000070,  40.187
   359.2,-0.004307,-0.003116,-0.021355,-0.000057,  40.185
   359.4,-0.004335,-0.003137,-0.021690,-0.000057,  40.179
   359.6,-0.004359,-0.003146,-0.022024,-0.000057,  40.181
   359.8,-0.004396,-0.003160,-0.022425,-0.000057,  40.183
   360.0,-0.004417,-0.003175,-0.022812,-0.000057,  40.183
   360.2,-0.004442,-0.003186,-0.023226,-0.000057,  40.185
   360.4,-0.004466,-0.003197,-0.023573,-0.000057,  40.183
   360.6,-0.004484,-0.003210,-0.023919,-0.000057,  40.183
   360.8,-0.004508,-0.003229,-0.024292,-0.000057,  40.181
   361.0,-0.004543,-0.003235,-0.024571,-0.000057,  40.188
   361.2,-0.004573,-0.003249,-0.024824,-0.000057,  40.190
   361.4,-0.004598,-0.003267,-0.025083,-0.000057,  40.194
   361.6,-0.004632,-0.003280,-0.025409,-0.000057,  40.189
   361.8,-0.004653,-0.003291,-0.025753,-0.000044,  40.185
   362.0,-0.004680,-0.003306,-0.026144,-0.000044,  40.181
   362.2,-0.004718,-0.003322,-0.026455,-0.000044,  40.179
   362.4,-0.004742,-0.003338,-0.026713,-0.000031,  40.177
   362.6,-0.004766,-0.003349,-0.026978,-0.000044,  40.176
   362.8,-0.004807,-0.003368,-0.027202,-0.000044,  40.178
   363.0,-0.004830,-0.003382,-0.027500,-0.000031,  40.174
   363.2,-0.004855,-0.003391,-0.027843,-0.000044,  40.178
   363.4,-0.004889,-0.003409,-0.028186,-0.000044,  40.175
   363.6,-0.004907,-0.003415,-0.028509,-0.000044,  40.173
   363.8,-0.004931,-0.003431,-0.028792,-0.000057,  40.178
   364.0,-0.004972,-0.003442,-0.029128,-0.000057,  40.180
   364.2,-0.004996,-0.003458,-0.029470,-0.000057,  40.174
   364.4,-0.005023,-0.003474,-0.029831,-0.000057,  40.176
   364.6,-0.005057,-0.003492,-0.030204,-0.000057,  40.176
   364.8,-0.005081,-0.003505,-0.030793,-0.000057,  40.177
   365.0,-0.005109,-0.003528,-0.031499,-0.000057,  40.174
   365.2,-0.005146,-0.003544,-0.032300,-0.000057,  40.170
   365.4,-0.005173,-0.003557,-0.031405,-0.000044,  40.171
   365.6,-0.005200,-0.003581,-0.029800,-0.000044,  40.175
   365.8,-0.005225,-0.003594,-0.027400,-0.000044,  40.177
   366.0,-0.005256,-0.003610,-0.027602,-0.000031,  40.178
   366.2,-0.005277,-0.003626,-0.028747,-0.000044,  40.178
   366.4,-0.005302,-0.003640,-0.030846,-0.000044,  40.178
   366.6,-0.005336,-0.003645,-0.031708,-0.000066,  40.177
   366.8,-0.005369,-0.003658,-0.032391,-0.000079,  40.183
   367.0,-0.005400,-0.003680,-0.032993,-0.000079,  40.180
   367.2,-0.005430,-0.003702,-0.033930,-0.000101,  40.177
   367.4,-0.005464,-0.003720,-0.034979,-0.000079,  40.180
   367.6,-0.005494,-0.003738,-0.036144,-0.000079,  40.182
   367.8,-0.005525,-0.003759,-0.036687,-0.000101,  40.177
   368.0,-0.005555,-0.003782,-0.037029,-0.000079,  40.179
   368.2,-0.005586,-0.003800,-0.037081,-0.000079,  40.181
   368.4,-0.005617,-0.003810,-0.037357,-0.000079,  40.183
   368.6,-0.005653,-0.003828,-0.037632,-0.000057,  40.182
   368.8,-0.005681,-0.003851,-0.037912,-0.000057,  40.184
   369.0,-0.005708,-0.003861,-0.038218,-0.000057,  40.186
   369.2,-0.005736,-0.003880,-0.038523,-0.000057,  40.181
   369.4,-0.005763,-0.003898,-0.038884,-0.000057,  40.183
   369.6,-0.005794,-0.003918,-0.039168,-0.000057,  40.189
   369.8,-0.005830,-0.003935,-0.039408,-0.000057,  40.191
   370.0,-0.005858,-0.003953,-0.039639,-0.000070,  40.196
   370.2,-0.005885,-0.003975,-0.039877,-0.000070,  40.185
   370.4,-0.005919,-0.003993,-0.040172,-0.000057,  40.179
   370.6,-0.005949,-0.004012,-0.040519,-0.000070,  40.181
   370.8,-0.005980,-0.004020,-0.040910,-0.000070,  40.183
   371.0,-0.006010,-0.004034,-0.041212,-0.000070,  40.173
   371.2,-0.006043,-0.004050,-0.041500,-0.000083,  40.178
   371.4,-0.006087,-0.004065,-0.041802,-0.000083,  40.177
   371.6,-0.006126,-0.004085,-0.042134,-0.000083,  40.177
   371.8,-0.006157,-0.004104,-0.042554,-0.000083,  40.176
   372.0,-0.006187,-0.004122,-0.042993,-0.000096,  40.179
   372.2,-0.006218,-0.004138,-0.043280,-0.000109,  40.175
   372.4,-0.006245,-0.004152,-0.043541,-0.000123,  40.176
   372.6,-0.006273,-0.004165,-0.043765,-0.000123,  40.174
   372.8,-0.006298,-0.004184,-0.044140,-0.000136,  40.175
   373.0,-0.006319,-0.004202,-0.044552,-0.000136,  40.176
   373.2,-0.006353,-0.004220,-0.045044,-0.000123,  40.174
   373.4,-0.006380,-0.004239,-0.045399,-0.000123,  40.173
   373.6,-0.006414,-0.004260,-0.045717,-0.000136,  40.166
   373.8,-0.006444,-0.004280,-0.046015,-0.000123,  40.167
   374.0,-0.006478,-0.004295,-0.046395,-0.000123,  40.164
   374.2,-0.006507,-0.004308,-0.046786,-0.000136,  40.168
   374.4,-0.006538,-0.004328,-0.047227,-0.000123,  40.169
   374.6,-0.006571,-0.004346,-0.047587,-0.000123,  40.168
   374.8,-0.006602,-0.004359,-0.047939,-0.000123,  40.166
   375.0,-0.006632,-0.004374,-0.048267,-0.000109,  40.167
   375.2,-0.006663,-0.004395,-0.048557,-0.000123,  40.167
   375.4,-0.006696,-0.004418,-0.048854,-0.000123,  40.164
   375.6,-0.006727,-0.004437,-0.049119,-0.000123,  40.162
   375.8,-0.006760,-0.004453,-0.049496,-0.000123,  40.152
   376.0,-0.006794,-0.004469,-0.049927,-0.000109,  40.156
   376.2,-0.006824,-0.004487,-0.050395,-0.000123,  40.150
   376.4,-0.006858,-0.004499,-0.050739,-0.000123,  40.149
   376.6,-0.006884,-0.004515,-0.050996,-0.000123,  40.149
   376.8,-0.006918,-0.004531,-0.051228,-0.000123,  40.150
   377.0,-0.006961,-0.004549,-0.051409,-0.000109,  40.155
   377.2,-0.006991,-0.004565,-0.052011,-0.000123,  40.152
   377.4,-0.007018,-0.004576,-0.052792,-0.000123,  40.151
   377.6,-0.007059,-0.004592,-0.053717,-0.000109,  40.148
   377.8,-0.007082,-0.004600,-0.054047,-0.000123,  40.151
   378.0,-0.007113,-0.004623,-0.054137,-0.000123,  40.152
   378.2,-0.007153,-0.004636,-0.054038,-0.000109,  40.158
   378.4,-0.007180,-0.004652,-0.054195,-0.000123,  40.165
   378.6,-0.007210,-0.004677,-0.054371,-0.000123,  40.162
   378.8,-0.007247,-0.004696,-0.054572,-0.000109,  40.155
   379.0,-0.007268,-0.004715,-0.055109,-0.000158,  40.153
   379.2,-0.007289,-0.004736,-0.055827,-0.000158,  40.146
   379.4,-0.007307,-0.004755,-0.056732,-0.000144,  40.145
   379.6,-0.007326,-0.004760,-0.056985,-0.000193,  40.138
   379.8,-0.007338,-0.004776,-0.057033,-0.000158,  40.143
   380.0,-0.007365,-0.004799,-0.056835,-0.000144,  40.142
   380.2,-0.007399,-0.004821,-0.057004,-0.000193,  40.141
   380.4,-0.007441,-0.004844,-0.057264,-0.000158,  40.148
   380.6,-0.007475,-0.004850,-0.057609,-0.000144,  40.144
   380.8,-0.007512,-0.004863,-0.057826,-0.000206,  40.144
   381.0,-0.007535,-0.004884,-0.058019,-0.000184,  40.145
   381.2,-0.007566,-0.004897,-0.058236,-0.000171,  40.145
   381.4,-0.007606,-0.004913,-0.058495,-0.000184,  40.145
   381.6,-0.007637,-0.004931,-0.058833,-0.000149,  40.146
   381.8,-0.007667,-0.004945,-0.059188,-0.000136,  40.144
   382.0,-0.007700,-0.004964,-0.059453,-0.000149,  40.145
   382.2,-0.007734,-0.004984,-0.059694,-0.000149,  40.144
   382.4,-0.007767,-0.005007,-0.059942,-0.000149,  40.138
   382.6,-0.007804,-0.005030,-0.060292,-0.000136,  40.141
   382.8,-0.007840,-0.005053,-0.060712,-0.000149,  40.142
   383.0,-0.007874,-0.005078,-0.061192,-0.000149,  40.141
   383.2,-0.007907,-0.005091,-0.061527,-0.000136,  40.143
   383.4,-0.007943,-0.005107,-0.061814,-0.000149,  40.148
   383.6,-0.007977,-0.005127,-0.062058,-0.000149,  40.149
   383.8,-0.008007,-0.005140,-0.062270,-0.000136,  40.147
   384.0,-0.008031,-0.005156,-0.062545,-0.000136,  40.151
   384.2,-0.008061,-0.005172,-0.062893,-0.000136,  40.145
   384.4,-0.008101,-0.005186,-0.063240,-0.000123,  40.149
   384.6,-0.008135,-0.005199,-0.063598,-0.000123,  40.148
   384.8,-0.008165,-0.005217,-0.063998,-0.000101,  40.148
   385.0,-0.008202,-0.005240,-0.064425,-0.000088,  40.148
   385.2,-0.008238,-0.005257,-0.064782,-0.000123,  40.150
   385.4,-0.008271,-0.005275,-0.065128,-0.000101,  40.148
   385.6,-0.008308,-0.005296,-0.065449,-0.000088,  40.152
   385.8,-0.008344,-0.005314,-0.065771,-0.000123,  40.152
   386.0,-0.008371,-0.005327,-0.066109,-0.000101,  40.148
   386.2,-0.008396,-0.005347,-0.066454,-0.000088,  40.152
   386.4,-0.008421,-0.005357,-0.065503,-0.000136,  40.152
   386.6,-0.008429,-0.005378,-0.063939,-0.000114,  40.157
   386.8,-0.008459,-0.005397,-0.061781,-0.000101,  40.159
   387.0,-0.008493,-0.005417,-0.061989,-0.000149,  40.175
   387.2,-0.008532,-0.005442,-0.063061,-0.000149,  40.181
   387.4,-0.008563,-0.005458,-0.065021,-0.000136,  40.174
   387.6,-0.008596,-0.005473,-0.065906,-0.000149,  40.171
   387.8,-0.008626,-0.005492,-0.066687,-0.000149,  40.166
   388.0,-0.008654,-0.005505,-0.067378,-0.000149,  40.156
   388.2,-0.008681,-0.005517,-0.068003,-0.000149,  40.149
   388.4,-0.008711,-0.005542,-0.068578,-0.000162,  40.152
   388.6,-0.008745,-0.005569,-0.069093,-0.000162,  40.146
   388.8,-0.008778,-0.005596,-0.069559,-0.000162,  40.147
   389.0,-0.008814,-0.005619,-0.069991,-0.000175,  40.152
   389.2,-0.008850,-0.005635,-0.070383,-0.000175,  40.149
   389.4,-0.008890,-0.005646,-0.070980,-0.000175,  40.147
   389.6,-0.008920,-0.005664,-0.071696,-0.000188,  40.148
   389.8,-0.008953,-0.005682,-0.072512,-0.000201,  40.148
   390.0,-0.008993,-0.005702,-0.072903,-0.000188,  40.146
   390.2,-0.009020,-0.005725,-0.073164,-0.000201,  40.148
   390.4,-0.009050,-0.005743,-0.073279,-0.000188,  40.149
   390.6,-0.009090,-0.005763,-0.073462,-0.000175,  40.141
   390.8,-0.009117,-0.005783,-0.073645,-0.000188,  40.138
   391.0,-0.009153,-0.005806,-0.073804,-0.000188,  40.139
   391.2,-0.009189,-0.005827,-0.073926,-0.000188,  40.137
   391.4,-0.009222,-0.005845,-0.074224,-0.000175,  40.138
   391.6,-0.009258,-0.005865,-0.074603,-0.000175,  40.138
   391.8,-0.009295,-0.005879,-0.075023,-0.000175,  40.144
   392.0,-0.009328,-0.005890,-0.075327,-0.000175,  40.138
   392.2,-0.009361,-0.005911,-0.075590,-0.000175,  40.142
   392.4,-0.009394,-0.005928,-0.075837,-0.000175,  40.139
   392.6,-0.009431,-0.005946,-0.076083,-0.000175,  40.139
   392.8,-0.009464,-0.005963,-0.076363,-0.000188,  40.140
   393.0,-0.009497,-0.005986,-0.076596,-0.000188,  40.140
   393.2,-0.009531,-0.006003,-0.076926,-0.000162,  40.142
   393.4,-0.009558,-0.006024,-0.077367,-0.000162,  40.138
   393.6,-0.009592,-0.006044,-0.077827,-0.000162,  40.138
   393.8,-0.009613,-0.006060,-0.078173,-0.000149,  40.137
   394.0,-0.009634,-0.006082,-0.078509,-0.000162,  40.137
   394.2,-0.009661,-0.006105,-0.078814,-0.000162,  40.145
   394.4,-0.009698,-0.006118,-0.079183,-0.000162,  40.143
   394.6,-0.009731,-0.006132,-0.079614,-0.000175,  40.139
   394.8,-0.009761,-0.006150,-0.080056,-0.000175,  40.142
   395.0,-0.009798,-0.006162,-0.080343,-0.000162,  40.139
   395.2,-0.009822,-0.006180,-0.080590,-0.000162,  40.145
   395.4,-0.009852,-0.006200,-0.080798,-0.000162,  40.155
   395.6,-0.009892,-0.006224,-0.081101,-0.000149,  40.167
   395.8,-0.009922,-0.006241,-0.081468,-0.000162,  40.162
   396.0,-0.009955,-0.006259,-0.081891,-0.000162,  40.150
   396.2,-0.009995,-0.006282,-0.082207,-0.000149,  40.144
   396.4,-0.010025,-0.006298,-0.082470,-0.000162,  40.141
   396.6,-0.010058,-0.006309,-0.082723,-0.000162,  40.137
   396.8,-0.010089,-0.006320,-0.083088,-0.000149,  40.134
   397.0,-0.010122,-0.006340,-0.083479,-0.000162,  40.137
   397.2,-0.010152,-0.006363,-0.083919,-0.000162,  40.137
   397.4,-0.010188,-0.006392,-0.084240,-0.000162,  40.139
   397.6,-0.010228,-0.006412,-0.084521,-0.000162,  40.138
   397.8,-0.010261,-0.006432,-0.084795,-0.000162,  40.142
   398.0,-0.010294,-0.006453,-0.085029,-0.000162,  40.146
   398.2,-0.010327,-0.006468,-0.085188,-0.000188,  40.143
   398.4,-0.010358,-0.006482,-0.085321,-0.000188,  40.144
   398.6,-0.010391,-0.006501,-0.085398,-0.000188,  40.143
   398.8,-0.010427,-0.006512,-0.085610,-0.000188,  40.139
   399.0,-0.010457,-0.006533,-0.085854,-0.000201,  40.144
   399.2,-0.010490,-0.006551,-0.086184,-0.000201,  40.141
   399.4,-0.010527,-0.006568,-0.086451,-0.000201,  40.136
   399.6,-0.010560,-0.006589,-0.086741,-0.000201,  40.135
   399.8,-0.010592,-0.006611,-0.087054,-0.000201,  40.137
   400.0,-0.010622,-0.006638,-0.087432,-0.000223,  40.142
   400.2,-0.010655,-0.006658,-0.087865,-0.000223,  40.141
   400.4,-0.010691,-0.006678,-0.088360,-0.000223,  40.143
   400.6,-0.010727,-0.006701,-0.088711,-0.000245,  40.139
   400.8,-0.010758,-0.006723,-0.088993,-0.000223,  40.143
   401.0,-0.010795,-0.006743,-0.089212,-0.000223,  40.140
   401.2,-0.010812,-0.006763,-0.089556,-0.000245,  40.143
   401.4,-0.010836,-0.006783,-0.089961,-0.000223,  40.142
   401.6,-0.010869,-0.006811,-0.090398,-0.000223,  40.151
   401.8,-0.010902,-0.006832,-0.090725,-0.000245,  40.147
   402.0,-0.010939,-0.006857,-0.091028,-0.000223,  40.144
   402.2,-0.010972,-0.006877,-0.091345,-0.000223,  40.141
   402.4,-0.011018,-0.006899,-0.091709,-0.000245,  40.138
   402.6,-0.011060,-0.006924,-0.092106,-0.000223,  40.144
   402.8,-0.011093,-0.006944,-0.092541,-0.000223,  40.148
   403.0,-0.011136,-0.006963,-0.092882,-0.000258,  40.149
   403.2,-0.011166,-0.006981,-0.093231,-0.000236,  40.145
   403.4,-0.011199,-0.007001,-0.093572,-0.000236,  40.141
   403.6,-0.011242,-0.007019,-0.093819,-0.000271,  40.140
   403.8,-0.011268,-0.007040,-0.094027,-0.000236,  40.148
   404.0,-0.011301,-0.007062,-0.094197,-0.000236,  40.156
   404.2,-0.011344,-0.007082,-0.094459,-0.000236,  40.167
   404.4,-0.011374,-0.007104,-0.094754,-0.000258,  40.159
   404.6,-0.011404,-0.007124,-0.095102,-0.000236,  40.149
   404.8,-0.011444,-0.007144,-0.095396,-0.000236,  40.147
   405.0,-0.011470,-0.007160,-0.095667,-0.000236,  40.145
   405.2,-0.011503,-0.007175,-0.095924,-0.000214,  40.140
   405.4,-0.011546,-0.007189,-0.096181,-0.000228,  40.141
   405.6,-0.011572,-0.007205,-0.096490,-0.000228,  40.143
   405.8,-0.011606,-0.007227,-0.096821,-0.000214,  40.145
   406.0,-0.011648,-0.007243,-0.097168,-0.000214,  40.144
   406.2,-0.011675,-0.007263,-0.097759,-0.000214,  40.146
   406.4,-0.011708,-0.007286,-0.098502,-0.000214,  40.141
   406.6,-0.011748,-0.007306,-0.099379,-0.000214,  40.141
   406.8,-0.011784,-0.007324,-0.099594,-0.000228,  40.139
   407.0,-0.011817,-0.007347,-0.099603,-0.000241,  40.141
   407.2,-0.011850,-0.007369,-0.099362,-0.000228,  40.141
   407.4,-0.011892,-0.007389,-0.099454,-0.000276,  40.141
   407.6,-0.011928,-0.007411,-0.099599,-0.000276,  40.139
   407.8,-0.011962,-0.007436,-0.099799,-0.000263,  40.135
   408.0,-0.011998,-0.007453,-0.099913,-0.000311,  40.130
   408.2,-0.012028,-0.007471,-0.100005,-0.000289,  40.129
   408.4,-0.012055,-0.007499,-0.100104,-0.000276,  40.131
   408.6,-0.012086,-0.007522,-0.100439,-0.000311,  40.133
   408.8,-0.012106,-0.007537,-0.100874,-0.000289,  40.132
   409.0,-0.012133,-0.007557,-0.101466,-0.000276,  40.130
   409.2,-0.012163,-0.007576,-0.101876,-0.000311,  40.132
   409.4,-0.012193,-0.007589,-0.102232,-0.000289,  40.132
   409.6,-0.012226,-0.007607,-0.102565,-0.000276,  40.132
   409.8,-0.012256,-0.007630,-0.102899,-0.000311,  40.131
   410.0,-0.012292,-0.007650,-0.103225,-0.000276,  40.129
   410.2,-0.012329,-0.007672,-0.103573,-0.000263,  40.134
   410.4,-0.012362,-0.007690,-0.103897,-0.000298,  40.131
   410.6,-0.012394,-0.007717,-0.104198,-0.000249,  40.125
   410.8,-0.012427,-0.007737,-0.104470,-0.000249,  40.124
   411.0,-0.012467,-0.007756,-0.104793,-0.000284,  40.123
   411.2,-0.012496,-0.007779,-0.105110,-0.000249,  40.127
   411.4,-0.012526,-0.007797,-0.105419,-0.000249,  40.126
   411.6,-0.012566,-0.007813,-0.105713,-0.000249,  40.128
   411.8,-0.012592,-0.007833,-0.105999,-0.000284,  40.130
   412.0,-0.012625,-0.007849,-0.106315,-0.000249,  40.124
   412.2,-0.012662,-0.007862,-0.107070,-0.000249,  40.123
   412.4,-0.012691,-0.007885,-0.108040,-0.000249,  40.129
   412.6,-0.012727,-0.007905,-0.109258,-0.000214,  40.144
   412.8,-0.012767,-0.007925,-0.110694,-0.000214,  40.158
   413.0,-0.012800,-0.007943,-0.110903,-0.000214,  40.144
   413.2,-0.012830,-0.007957,-0.110723,-0.000214,  40.130
   413.4,-0.012866,-0.007970,-0.110189,-0.000214,  40.125
   413.6,-0.012890,-0.007981,-0.110147,-0.000214,  40.120
   413.8,-0.012923,-0.007999,-0.110166,-0.000228,  40.115
   414.0,-0.012966,-0.008014,-0.110280,-0.000214,  40.116
   414.2,-0.012998,-0.008032,-0.110320,-0.000214,  40.120
   414.4,-0.013034,-0.008059,-0.110405,-0.000228,  40.114
   414.6,-0.013071,-0.008075,-0.110497,-0.000214,  40.123
   414.8,-0.013104,-0.008094,-0.110589,-0.000214,  40.123
   415.0,-0.013131,-0.008116,-0.110697,-0.000193,  40.120
   415.2,-0.013155,-0.008139,-0.110826,-0.000179,  40.116
   415.4,-0.013179,-0.008156,-0.111051,-0.000228,  40.120
   415.6,-0.013194,-0.008174,-0.111327,-0.000206,  40.119
   415.8,-0.013224,-0.008194,-0.111662,-0.000193,  40.121
   416.0,-0.013257,-0.008214,-0.111988,-0.000241,  40.115
   416.2,-0.013286,-0.008234,-0.112323,-0.000206,  40.117
   416.4,-0.013319,-0.008255,-0.112700,-0.000193,  40.121
   416.6,-0.013359,-0.008279,-0.112989,-0.000241,  40.111
   416.8,-0.013395,-0.008301,-0.113241,-0.000206,  40.109
   417.0,-0.013428,-0.008319,-0.113478,-0.000193,  40.114
   417.2,-0.013464,-0.008342,-0.113745,-0.000228,  40.115
   417.4,-0.013503,-0.008365,-0.114033,-0.000193,  40.112
   417.6,-0.013533,-0.008381,-0.114386,-0.000179,  40.116
   417.8,-0.013569,-0.008398,-0.114732,-0.000214,  40.119
   418.0,-0.013602,-0.008418,-0.115107,-0.000193,  40.120
   418.2,-0.013635,-0.008445,-0.115497,-0.000193,  40.115
   418.4,-0.013675,-0.008465,-0.115857,-0.000214,  40.124
   418.6,-0.013707,-0.008487,-0.116231,-0.000214,  40.123
   418.8,-0.013746,-0.008517,-0.116611,-0.000214,  40.123
   419.0,-0.013795,-0.008537,-0.116913,-0.000201,  40.123
   419.2,-0.013830,-0.008559,-0.117164,-0.000201,  40.125
   419.4,-0.013866,-0.008586,-0.117385,-0.000201,  40.123
   419.6,-0.013902,-0.008601,-0.117578,-0.000201,  40.123
   419.8,-0.013928,-0.008617,-0.117821,-0.000201,  40.132
   420.0,-0.013961,-0.008635,-0.118120,-0.000214,  40.128
   420.2,-0.013997,-0.008646,-0.118441,-0.000228,  40.129
   420.4,-0.014026,-0.008657,-0.118762,-0.000228,  40.128
   420.6,-0.014062,-0.008678,-0.119119,-0.000214,  40.127
   420.8,-0.014105,-0.008696,-0.119505,-0.000214,  40.131
   421.0,-0.014134,-0.008719,-0.119825,-0.000214,  40.134
   421.2,-0.014167,-0.008736,-0.120110,-0.000214,  40.151
   421.4,-0.014204,-0.008759,-0.120394,-0.000214,  40.162
   421.6,-0.014230,-0.008779,-0.120821,-0.000214,  40.143
   421.8,-0.014257,-0.008801,-0.121334,-0.000228,  40.135
   422.0,-0.014284,-0.008826,-0.121939,-0.000214,  40.131
   422.2,-0.014295,-0.008845,-0.122508,-0.000214,  40.129
   422.4,-0.014319,-0.008867,-0.123147,-0.000228,  40.127
   422.6,-0.014352,-0.008890,-0.123799,-0.000214,  40.128
   422.8,-0.014401,-0.008909,-0.124222,-0.000214,  40.129
   423.0,-0.014442,-0.008931,-0.124547,-0.000228,  40.125
   423.2,-0.014478,-0.008957,-0.124800,-0.000201,  40.128
   423.4,-0.014524,-0.008983,-0.124890,-0.000201,  40.131
   423.6,-0.014556,-0.009005,-0.124868,-0.000201,  40.129
   423.8,-0.014589,-0.009031,-0.124738,-0.000201,  40.125
   424.0,-0.014629,-0.009049,-0.124821,-0.000201,  40.126
   424.2,-0.014655,-0.009069,-0.124954,-0.000228,  40.128
   424.4,-0.014688,-0.009089,-0.125164,-0.000228,  40.132
   424.6,-0.014727,-0.009107,-0.125353,-0.000228,  40.127
   424.8,-0.014759,-0.009130,-0.125598,-0.000228,  40.125
   425.0,-0.014792,-0.009150,-0.125878,-0.000228,  40.125
   425.2,-0.014834,-0.009173,-0.126180,-0.000228,  40.123
   425.4,-0.014870,-0.009200,-0.126503,-0.000193,  40.123
   425.6,-0.014903,-0.009222,-0.126874,-0.000206,  40.123
   425.8,-0.014946,-0.009242,-0.127450,-0.000228,  40.125
   426.0,-0.014978,-0.009262,-0.128158,-0.000241,  40.124
   426.2,-0.015008,-0.009281,-0.128950,-0.000206,  40.129
   426.4,-0.015044,-0.009302,-0.129907,-0.000193,  40.133
   426.6,-0.015070,-0.009319,-0.130094,-0.000241,  40.134
   426.8,-0.015103,-0.009337,-0.130071,-0.000219,  40.129
   427.0,-0.015146,-0.009352,-0.129846,-0.000206,  40.127
   427.2,-0.015181,-0.009362,-0.129914,-0.000241,  40.129
   427.4,-0.015220,-0.009384,-0.130052,-0.000219,  40.137
   427.6,-0.015262,-0.009409,-0.130260,-0.000206,  40.134
   427.8,-0.015301,-0.009441,-0.130509,-0.000241,  40.133
   428.0,-0.015337,-0.009461,-0.130821,-0.000241,  40.133
   428.2,-0.015373,-0.009486,-0.131182,-0.000228,  40.135
   428.4,-0.015402,-0.009504,-0.131459,-0.000241,  40.142
   428.6,-0.015435,-0.009526,-0.131736,-0.000241,  40.142
   428.8,-0.015477,-0.009550,-0.132013,-0.000228,  40.146
   429.0,-0.015516,-0.009574,-0.132345,-0.000241,  40.140
   429.2,-0.015549,-0.009596,-0.132698,-0.000254,  40.133
   429.4,-0.015573,-0.009623,-0.133106,-0.000241,  40.143
   429.6,-0.015610,-0.009642,-0.133721,-0.000254,  40.149
   429.8,-0.015627,-0.009667,-0.134452,-0.000267,  40.164
   430.0,-0.015659,-0.009685,-0.135306,-0.000254,  40.169
   430.2,-0.015695,-0.009705,-0.135587,-0.000267,  40.154
   430.4,-0.015734,-0.009730,-0.135613,-0.000267,  40.149
   430.6,-0.015761,-0.009753,-0.135440,-0.000254,  40.149
   430.8,-0.015791,-0.009770,-0.135508,-0.000302,  40.143
   431.0,-0.015808,-0.009788,-0.135617,-0.000302,  40.139
   431.2,-0.015841,-0.009813,-0.135733,-0.000289,  40.146
   431.4,-0.015889,-0.009836,-0.135911,-0.000302,  40.146
   431.6,-0.015927,-0.009858,-0.136185,-0.000267,  40.146
   431.8,-0.015960,-0.009882,-0.136474,-0.000254,  40.149
   432.0,-0.015999,-0.009907,-0.136651,-0.000254,  40.146
   432.2,-0.016025,-0.009929,-0.136822,-0.000241,  40.151
   432.4,-0.016058,-0.009952,-0.136945,-0.000241,  40.147
   432.6,-0.016104,-0.009974,-0.137143,-0.000254,  40.147
   432.8,-0.016136,-0.009994,-0.137403,-0.000245,  40.152
   433.0,-0.016172,-0.010016,-0.137669,-0.000258,  40.151
   433.2,-0.016214,-0.010043,-0.137902,-0.000280,  40.150
   433.4,-0.016246,-0.010065,-0.138113,-0.000245,  40.149
   433.6,-0.016282,-0.010085,-0.138325,-0.000245,  40.145
   433.8,-0.016321,-0.010107,-0.138529,-0.000280,  40.147
   434.0,-0.016353,-0.010125,-0.138829,-0.000280,  40.138
   434.2,-0.016389,-0.010141,-0.139170,-0.000245,  40.148
   434.4,-0.016432,-0.010156,-0.139565,-0.000245,  40.149
   434.6,-0.016464,-0.010167,-0.139864,-0.000267,  40.150
   434.8,-0.016496,-0.010183,-0.140135,-0.000245,  40.154
   435.0,-0.016533,-0.010200,-0.140414,-0.000245,  40.149
   435.2,-0.016553,-0.010213,-0.140706,-0.000280,  40.152
   435.4,-0.016589,-0.010228,-0.141051,-0.000258,  40.154
   435.6,-0.016631,-0.010248,-0.141370,-0.000258,  40.152
   435.8,-0.016660,-0.010272,-0.141621,-0.000280,  40.152
   436.0,-0.016693,-0.010297,-0.141884,-0.000280,  40.154
   436.2,-0.016735,-0.010320,-0.142108,-0.000267,  40.158
   436.4,-0.016764,-0.010343,-0.141191,-0.000302,  40.152
   436.6,-0.016791,-0.010365,-0.139727,-0.000302,  40.155
   436.8,-0.016818,-0.010387,-0.137708,-0.000289,  40.157
   437.0,-0.016839,-0.010404,-0.138344,-0.000302,  40.156
   437.2,-0.016859,-0.010422,-0.140016,-0.000267,  40.160
   437.4,-0.016889,-0.010441,-0.142758,-0.000254,  40.159
   437.6,-0.016922,-0.010467,-0.143650,-0.000267,  40.159
   437.8,-0.016955,-0.010491,-0.144173,-0.000267,  40.159
   438.0,-0.016990,-0.010512,-0.144275,-0.000267,  40.166
   438.2,-0.017033,-0.010533,-0.144692,-0.000267,  40.168
   438.4,-0.017062,-0.010558,-0.145115,-0.000280,  40.181
   438.6,-0.017094,-0.010578,-0.145491,-0.000280,  40.182
   438.8,-0.017131,-0.010600,-0.145927,-0.000267,  40.174
   439.0,-0.017157,-0.010621,-0.146390,-0.000280,  40.170
   439.2,-0.017181,-0.010639,-0.146891,-0.000280,  40.160
   439.4,-0.017211,-0.010654,-0.147279,-0.000267,  40.160
   439.6,-0.017231,-0.010672,-0.147607,-0.000245,  40.165
   439.8,-0.017267,-0.010697,-0.147888,-0.000245,  40.164
   440.0,-0.017309,-0.010721,-0.148169,-0.000267,  40.166
   440.2,-0.017349,-0.010740,-0.148456,-0.000245,  40.164
   440.4,-0.017385,-0.010763,-0.148689,-0.000232,  40.167
   440.6,-0.017422,-0.010784,-0.148963,-0.000280,  40.167
   440.8,-0.017451,-0.010807,-0.149255,-0.000219,  40.168
   441.0,-0.017484,-0.010824,-0.149561,-0.000232,  40.168
   441.2,-0.017517,-0.010849,-0.149761,-0.000267,  40.167
   441.4,-0.017551,-0.010872,-0.149947,-0.000280,  40.172
   441.6,-0.017587,-0.010891,-0.150087,-0.000258,  40.168
   441.8,-0.017627,-0.010910,-0.150194,-0.000258,  40.171
   442.0,-0.017665,-0.010930,-0.150373,-0.000280,  40.175
   442.2,-0.017701,-0.010946,-0.150632,-0.000245,  40.172
   442.4,-0.017740,-0.010959,-0.150918,-0.000245,  40.166
   442.6,-0.017772,-0.010972,-0.151203,-0.000267,  40.164
   442.8,-0.017808,-0.010993,-0.151560,-0.000245,  40.167
   443.0,-0.017847,-0.011013,-0.151937,-0.000245,  40.169
   443.2,-0.017879,-0.011040,-0.152254,-0.000267,  40.170
   443.4,-0.017912,-0.011060,-0.152558,-0.000245,  40.178
   443.6,-0.017951,-0.011070,-0.152868,-0.000232,  40.170
   443.8,-0.017977,-0.011085,-0.153165,-0.000267,  40.176
   444.0,-0.018010,-0.011107,-0.153488,-0.000267,  40.178
   444.2,-0.018055,-0.011125,-0.153778,-0.000267,  40.179
   444.4,-0.018084,-0.011148,-0.155221,-0.000267,  40.174
   444.6,-0.018113,-0.011173,-0.157322,-0.000245,  40.173
   444.8,-0.018137,-0.011193,-0.159994,-0.000232,  40.176
   445.0,-0.018161,-0.011216,-0.160344,-0.000267,  40.174
   445.2,-0.018182,-0.011236,-0.159876,-0.000267,  40.172
   445.4,-0.018214,-0.011260,-0.158555,-0.000254,  40.180
   445.6,-0.018247,-0.011277,-0.158301,-0.000267,  40.179
   445.8,-0.018288,-0.011297,-0.158156,-0.000267,  40.183
   446.0,-0.018321,-0.011319,-0.158133,-0.000254,  40.179
   446.2,-0.018360,-0.011337,-0.158150,-0.000267,  40.184
   446.4,-0.018390,-0.011365,-0.158233,-0.000267,  40.183
   446.6,-0.018423,-0.011392,-0.158410,-0.000254,  40.181
   446.8,-0.018458,-0.011412,-0.158580,-0.000267,  40.190
   447.0,-0.018491,-0.011434,-0.158758,-0.000267,  40.202
   447.2,-0.018521,-0.011458,-0.159021,-0.000254,  40.216
   447.4,-0.018553,-0.011473,-0.159246,-0.000254,  40.211
   447.6,-0.018586,-0.011488,-0.159445,-0.000254,  40.201
   447.8,-0.018609,-0.011506,-0.159690,-0.000254,  40.200
   448.0,-0.018630,-0.011526,-0.159942,-0.000254,  40.195
   448.2,-0.018651,-0.011551,-0.160167,-0.000254,  40.185
   448.4,-0.018687,-0.011573,-0.160445,-0.000267,  40.184
   448.6,-0.018737,-0.011600,-0.160703,-0.000267,  40.183
   448.8,-0.018783,-0.011625,-0.160948,-0.000267,  40.188
   449.0,-0.018819,-0.011647,-0.161160,-0.000267,  40.184
   449.2,-0.018864,-0.011662,-0.161404,-0.000267,  40.188
   449.4,-0.018890,-0.011680,-0.161598,-0.000267,  40.186
   449.6,-0.018923,-0.011695,-0.161786,-0.000280,  40.185
   449.8,-0.018965,-0.011714,-0.161942,-0.000280,  40.189
   450.0,-0.018994,-0.011722,-0.162649,-0.000267,  40.190
   450.2,-0.019026,-0.011745,-0.163615,-0.000280,  40.192
   450.4,-0.019072,-0.011772,-0.164839,-0.000280,  40.195
   450.6,-0.019103,-0.011792,-0.165179,-0.000267,  40.197
   450.8,-0.019136,-0.011814,-0.165181,-0.000280,  40.197
   451.0,-0.019178,-0.011837,-0.164859,-0.000280,  40.188
   451.2,-0.019207,-0.011862,-0.164894,-0.000302,  40.193
   451.4,-0.019239,-0.011884,-0.164948,-0.000315,  40.193
   451.6,-0.019282,-0.011908,-0.165002,-0.000315,  40.196
   451.8,-0.019310,-0.011929,-0.165227,-0.000337,  40.194
   452.0,-0.019336,-0.011947,-0.165540,-0.000315,  40.197
   452.2,-0.019356,-0.011967,-0.165960,-0.000315,  40.195
   452.4,-0.019385,-0.011982,-0.166236,-0.000337,  40.200
   452.6,-0.019405,-0.012005,-0.166473,-0.000315,  40.208
   452.8,-0.019441,-0.012022,-0.166704,-0.000315,  40.213
   453.0,-0.019477,-0.012048,-0.166960,-0.000337,  40.214
   453.2,-0.019516,-0.012070,-0.167235,-0.000315,  40.214
   453.4,-0.019555,-0.012090,-0.167522,-0.000315,  40.212
   453.6,-0.019591,-0.012110,-0.167815,-0.000302,  40.211
   453.8,-0.019623,-0.012127,-0.168102,-0.000280,  40.216
   454.0,-0.019665,-0.012149,-0.168414,-0.000280,  40.215
   454.2,-0.019711,-0.012174,-0.168676,-0.000267,  40.219
   454.4,-0.019745,-0.012191,-0.168937,-0.000280,  40.219
   454.6,-0.019778,-0.012213,-0.169199,-0.000280,  40.217
   454.8,-0.019817,-0.012242,-0.169428,-0.000267,  40.218
   455.0,-0.019846,-0.012267,-0.169658,-0.000280,  40.221
   455.2,-0.019881,-0.012292,-0.169862,-0.000280,  40.220
   455.4,-0.019923,-0.012314,-0.170116,-0.000280,  40.226
   455.6,-0.019965,-0.012341,-0.170408,-0.000267,  40.239
   455.8,-0.019997,-0.012369,-0.170705,-0.000280,  40.240
   456.0,-0.020030,-0.012381,-0.170971,-0.000280,  40.234
   456.2,-0.020065,-0.012399,-0.171180,-0.000280,  40.223
   456.4,-0.020089,-0.012417,-0.171401,-0.000280,  40.222
   456.6,-0.020110,-0.012430,-0.171609,-0.000280,  40.221
   456.8,-0.020130,-0.012441,-0.171856,-0.000267,  40.222
   457.0,-0.020166,-0.012468,-0.172147,-0.000280,  40.224
   457.2,-0.020207,-0.012496,-0.172443,-0.000280,  40.225
   457.4,-0.020263,-0.012522,-0.172782,-0.000280,  40.223
   457.6,-0.020304,-0.012545,-0.173158,-0.000293,  40.224
   457.8,-0.020340,-0.012567,-0.173578,-0.000293,  40.226
   458.0,-0.020375,-0.012591,-0.173842,-0.000306,  40.227
   458.2,-0.020414,-0.012616,-0.174081,-0.000319,  40.224
   458.4,-0.020449,-0.012636,-0.174252,-0.000333,  40.226
   458.6,-0.020481,-0.012654,-0.174708,-0.000333,  40.226
   458.8,-0.020514,-0.012677,-0.175312,-0.000333,  40.229
   459.0,-0.020538,-0.012702,-0.176006,-0.000346,  40.223
   459.2,-0.020574,-0.012722,-0.176294,-0.000346,  40.228
   459.4,-0.020588,-0.012744,-0.176410,-0.000333,  40.224
   459.6,-0.020620,-0.012774,-0.176402,-0.000333,  40.226
   459.8,-0.020656,-0.012788,-0.176567,-0.000333,  40.221
   460.0,-0.020694,-0.012808,-0.176751,-0.000333,  40.225
   460.2,-0.020726,-0.012831,-0.176946,-0.000319,  40.224
   460.4,-0.020762,-0.012855,-0.177184,-0.000306,  40.225
   460.6,-0.020797,-0.012880,-0.177465,-0.000306,  40.225
   460.8,-0.020830,-0.012893,-0.177757,-0.000293,  40.229
   461.0,-0.020865,-0.012914,-0.178099,-0.000280,  40.227
   461.2,-0.020903,-0.012936,-0.178501,-0.000306,  40.232
   461.4,-0.020939,-0.012960,-0.178927,-0.000306,  40.226
   461.6,-0.020971,-0.012977,-0.179201,-0.000293,  40.231
   461.8,-0.021006,-0.012997,-0.179426,-0.000306,  40.232
   462.0,-0.021042,-0.013017,-0.179590,-0.000306,  40.233
   462.2,-0.021074,-0.013039,-0.179913,-0.000293,  40.228
   462.4,-0.021110,-0.013064,-0.180290,-0.000293,  40.225
   462.6,-0.021145,-0.013081,-0.180709,-0.000293,  40.233
   462.8,-0.021187,-0.013103,-0.181055,-0.000280,  40.237
   463.0,-0.021222,-0.013126,-0.181419,-0.000293,  40.235
   463.2,-0.021255,-0.013141,-0.181775,-0.000293,  40.236
   463.4,-0.021294,-0.013160,-0.182035,-0.000293,  40.234
   463.6,-0.021317,-0.013178,-0.182245,-0.000293,  40.230
   463.8,-0.021349,-0.013201,-0.182406,-0.000293,  40.235
   464.0,-0.021397,-0.013216,-0.182512,-0.000293,  40.241
   464.2,-0.021429,-0.013237,-0.182801,-0.000293,  40.250
   464.4,-0.021461,-0.013260,-0.183145,-0.000293,  40.251
   464.6,-0.021496,-0.013273,-0.183531,-0.000293,  40.239
   464.8,-0.021522,-0.013292,-0.183802,-0.000293,  40.241
   465.0,-0.021548,-0.013306,-0.184025,-0.000293,  40.235
   465.2,-0.021575,-0.013322,-0.184206,-0.000293,  40.229
   465.4,-0.021596,-0.013332,-0.184501,-0.000293,  40.229
   465.6,-0.021628,-0.013352,-0.184842,-0.000293,  40.230
   465.8,-0.021666,-0.013384,-0.185242,-0.000293,  40.232
   466.0,-0.021704,-0.013413,-0.185488,-0.000293,  40.236
   466.2,-0.021733,-0.013435,-0.185689,-0.000293,  40.232
   466.4,-0.021759,-0.013459,-0.185850,-0.000293,  40.234
   466.6,-0.021787,-0.013474,-0.186047,-0.000293,  40.234
   466.8,-0.021810,-0.013493,-0.186243,-0.000293,  40.235
   467.0,-0.021840,-0.013518,-0.186452,-0.000293,  40.233
   467.2,-0.021875,-0.013533,-0.186726,-0.000293,  40.234
   467.4,-0.021907,-0.013553,-0.187049,-0.000293,  40.235
   467.6,-0.021939,-0.013574,-0.187394,-0.000293,  40.234
   467.8,-0.021978,-0.013593,-0.187657,-0.000293,  40.238
   468.0,-0.022007,-0.013617,-0.187908,-0.000293,  40.235
   468.2,-0.022039,-0.013634,-0.188140,-0.000293,  40.234
   468.4,-0.022081,-0.013661,-0.188432,-0.000280,  40.236
   468.6,-0.022115,-0.013686,-0.188754,-0.000280,  40.237
   468.8,-0.022151,-0.013703,-0.189123,-0.000280,  40.236
   469.0,-0.022190,-0.013723,-0.189402,-0.000267,  40.239
   469.2,-0.022218,-0.013750,-0.189670,-0.000280,  40.235
   469.4,-0.022253,-0.013765,-0.189895,-0.000280,  40.241
   469.6,-0.022293,-0.013786,-0.190204,-0.000280,  40.240
   469.8,-0.022324,-0.013809,-0.190560,-0.000245,  40.237
   470.0,-0.022356,-0.013824,-0.190939,-0.000258,  40.238
   470.2,-0.022392,-0.013845,-0.191241,-0.000280,  40.241
   470.4,-0.022418,-0.013865,-0.191487,-0.000267,  40.240
   470.6,-0.022450,-0.013881,-0.191741,-0.000254,  40.238
   470.8,-0.022489,-0.013898,-0.191933,-0.000241,  40.242
   471.0,-0.022518,-0.013914,-0.192211,-0.000241,  40.238
   471.2,-0.022547,-0.013937,-0.192500,-0.000241,  40.242
   471.4,-0.022586,-0.013948,-0.192821,-0.000228,  40.243
   471.6,-0.022612,-0.013964,-0.193080,-0.000241,  40.243
   471.8,-0.022641,-0.013982,-0.193346,-0.000241,  40.243
   472.0,-0.022680,-0.013993,-0.193623,-0.000228,  40.244
   472.2,-0.022709,-0.014013,-0.193835,-0.000263,  40.242
   472.4,-0.022741,-0.014034,-0.194064,-0.000263,  40.244
   472.6,-0.022780,-0.014056,-0.194269,-0.000249,  40.250
   472.8,-0.022812,-0.014076,-0.194575,-0.000284,  40.257
   473.0,-0.022839,-0.014097,-0.194914,-0.000249,  40.250
   473.2,-0.022865,-0.014116,-0.195329,-0.000249,  40.247
   473.4,-0.022896,-0.014134,-0.195627,-0.000284,  40.240
   473.6,-0.022909,-0.014154,-0.195890,-0.000249,  40.240
   473.8,-0.022936,-0.014163,-0.196140,-0.000249,  40.239
   474.0,-0.022962,-0.014171,-0.196456,-0.000284,  40.238
   474.2,-0.022991,-0.014195,-0.196771,-0.000249,  40.243
   474.4,-0.023024,-0.014221,-0.197097,-0.000249,  40.237
   474.6,-0.023059,-0.014240,-0.197354,-0.000284,  40.238
   474.8,-0.023100,-0.014262,-0.197558,-0.000249,  40.240
   475.0,-0.023138,-0.014291,-0.197732,-0.000249,  40.243
   475.2,-0.023173,-0.014313,-0.197924,-0.000284,  40.237
   475.4,-0.023202,-0.014337,-0.198115,-0.000249,  40.239
   475.6,-0.023240,-0.014354,-0.198336,-0.000249,  40.235
   475.8,-0.023281,-0.014376,-0.198610,-0.000249,  40.240
   476.0,-0.023312,-0.014395,-0.198906,-0.000214,  40.240
   476.2,-0.023344,-0.014419,-0.199231,-0.000214,  40.238
   476.4,-0.023389,-0.014439,-0.199529,-0.000214,  40.239
   476.6,-0.023425,-0.014463,-0.199809,-0.000214,  40.238
   476.8,-0.023457,-0.014484,-0.200064,-0.000214,  40.238
   477.0,-0.023502,-0.014506,-0.200452,-0.000201,  40.233
   477.2,-0.023530,-0.014528,-0.200919,-0.000201,  40.236
   477.4,-0.023562,-0.014551,-0.201431,-0.000201,  40.234
   477.6,-0.023604,-0.014571,-0.202005,-0.000188,  40.239
   477.8,-0.023633,-0.014596,-0.202270,-0.000188,  40.236
   478.0,-0.023668,-0.014612,-0.202495,-0.000201,  40.239
   478.2,-0.023716,-0.014631,-0.202634,-0.000201,  40.237
   478.4,-0.023753,-0.014646,-0.202820,-0.000201,  40.238
   478.6,-0.023791,-0.014666,-0.203017,-0.000201,  40.237
   478.8,-0.023836,-0.014693,-0.203196,-0.000201,  40.240
   479.0,-0.023870,-0.014720,-0.203449,-0.000188,  40.236
   479.2,-0.023905,-0.014742,-0.203794,-0.000188,  40.240
   479.4,-0.023947,-0.014770,-0.204161,-0.000188,  40.234
   479.6,-0.023982,-0.014785,-0.204460,-0.000188,  40.230
   479.8,-0.024017,-0.014805,-0.204783,-0.000201,  40.231
   480.0,-0.024052,-0.014834,-0.205092,-0.000201,  40.240
   480.2,-0.024093,-0.014853,-0.206760,-0.000201,  40.230
   480.4,-0.024128,-0.014880,-0.209133,-0.000201,  40.235
   480.6,-0.024157,-0.014905,-0.212193,-0.000201,  40.231
   480.8,-0.024179,-0.014925,-0.212516,-0.000201,  40.227
   481.0,-0.024198,-0.014951,-0.211842,-0.000201,  40.230
   481.2,-0.024237,-0.014973,-0.210139,-0.000214,  40.235
   481.4,-0.024269,-0.014989,-0.209721,-0.000214,  40.238
   481.6,-0.024308,-0.015009,-0.209439,-0.000179,  40.233
   481.8,-0.024347,-0.015032,-0.209318,-0.000193,  40.227
   482.0,-0.024385,-0.015047,-0.209218,-0.000228,  40.221
   482.2,-0.024413,-0.015062,-0.209189,-0.000179,  40.221
   482.4,-0.024437,-0.015078,-0.209256,-0.000179,  40.217
   482.6,-0.024460,-0.015083,-0.209358,-0.000214,  40.211
   482.8,-0.024480,-0.015101,-0.209525,-0.000179,  40.213
   483.0,-0.024513,-0.015128,-0.209730,-0.000166,  40.216
   483.2,-0.024548,-0.015148,-0.209903,-0.000201,  40.207
   483.4,-0.024594,-0.015175,-0.210089,-0.000166,  40.208
   483.6,-0.024630,-0.015198,-0.210299,-0.000166,  40.204
   483.8,-0.024674,-0.015228,-0.210529,-0.000201,  40.201
   484.0,-0.024716,-0.015250,-0.210759,-0.000153,  40.201
   484.2,-0.024748,-0.015272,-0.211013,-0.000166,  40.199
   484.4,-0.024786,-0.015294,-0.211235,-0.000188,  40.200
   484.6,-0.024824,-0.015313,-0.211429,-0.000188,  40.193
   484.8,-0.024856,-0.015327,-0.211596,-0.000166,  40.185
   485.0,-0.024894,-0.015349,-0.211775,-0.000166,  40.184
   485.2,-0.024932,-0.015362,-0.212336,-0.000201,  40.179
   485.4,-0.024967,-0.015382,-0.213065,-0.000166,  40.178
   485.6,-0.025002,-0.015402,-0.213914,-0.000166,  40.172
   485.8,-0.025040,-0.015417,-0.214217,-0.000201,  40.172
   486.0,-0.025073,-0.015434,-0.214336,-0.000166,  40.168
   486.2,-0.025102,-0.015452,-0.214266,-0.000166,  40.169
   486.4,-0.025134,-0.015477,-0.214441,-0.000188,  40.168
   486.6,-0.025166,-0.015501,-0.214644,-0.000153,  40.160
   486.8,-0.025204,-0.015528,-0.214867,-0.000153,  40.166
   487.0,-0.025238,-0.015555,-0.215096,-0.000162,  40.163
   487.2,-0.025270,-0.015575,-0.215360,-0.000162,  40.162
   487.4,-0.025296,-0.015588,-0.215634,-0.000149,  40.162
   487.6,-0.025320,-0.015606,-0.215904,-0.000149,  40.155
   487.8,-0.025343,-0.015627,-0.216181,-0.000149,  40.155
   488.0,-0.025372,-0.015646,-0.216445,-0.000136,  40.151
   488.2,-0.025404,-0.015666,-0.216697,-0.000149,  40.149
   488.4,-0.025436,-0.015684,-0.216960,-0.000149,  40.151
   488.6,-0.025469,-0.015704,-0.217223,-0.000136,  40.149
   488.8,-0.025504,-0.015714,-0.217486,-0.000136,  40.150
   489.0,-0.025533,-0.015738,-0.217748,-0.000123,  40.140
   489.2,-0.025571,-0.015764,-0.218014,-0.000109,  40.138
   489.4,-0.025615,-0.015787,-0.218321,-0.000123,  40.140
   489.6,-0.025659,-0.015805,-0.218620,-0.000123,  40.143
   489.8,-0.025691,-0.015826,-0.218913,-0.000109,  40.147
   490.0,-0.025726,-0.015837,-0.219157,-0.000109,  40.154
   490.2,-0.025758,-0.015859,-0.219392,-0.000109,  40.145
   490.4,-0.025790,-0.015878,-0.219592,-0.000109,  40.137
   490.6,-0.025825,-0.015901,-0.219880,-0.000096,  40.132
   490.8,-0.025863,-0.015910,-0.220229,-0.000109,  40.126
   491.0,-0.025889,-0.015910,-0.220599,-0.000109,  40.123
   491.2,-0.025910,-0.015905,-0.220880,-0.000109,  40.124
   491.4,-0.025924,-0.015925,-0.221110,-0.000109,  40.122
   491.6,-0.025959,-0.015951,-0.221330,-0.000096,  40.115
   491.8,-0.026006,-0.015991,-0.221502,-0.000083,  40.105
   492.0,-0.026058,-0.016020,-0.221698,-0.000083,  40.106
   492.2,-0.026102,-0.016046,-0.221941,-0.000083,  40.097
   492.4,-0.026149,-0.016074,-0.222177,-0.000070,  40.095
   492.6,-0.026201,-0.016096,-0.222420,-0.000070,  40.095
   492.8,-0.026242,-0.016124,-0.222683,-0.000083,  40.096
   493.0,-0.026280,-0.016150,-0.222986,-0.000083,  40.092
   493.2,-0.026320,-0.016178,-0.223313,-0.000083,  40.087
   493.4,-0.026358,-0.016212,-0.223636,-0.000083,  40.081
   493.6,-0.026399,-0.016234,-0.224016,-0.000083,  40.077
   493.8,-0.026440,-0.016259,-0.224432,-0.000083,  40.074
   494.0,-0.026472,-0.016281,-0.224868,-0.000083,  40.064
   494.2,-0.026501,-0.016306,-0.225363,-0.000096,  40.063
   494.4,-0.026534,-0.016324,-0.225735,-0.000096,  40.064
   494.6,-0.026550,-0.016346,-0.226079,-0.000096,  40.059
   494.8,-0.026585,-0.016365,-0.226403,-0.000109,  40.056
   495.0,-0.026626,-0.016386,-0.226684,-0.000109,  40.056
   495.2,-0.026673,-0.016412,-0.226948,-0.000096,  40.047
   495.4,-0.026713,-0.016442,-0.227195,-0.000096,  40.048
   495.6,-0.026754,-0.016479,-0.227458,-0.000096,  40.044
   495.8,-0.026804,-0.016508,-0.227721,-0.000096,  40.043
   496.0,-0.026841,-0.016528,-0.228004,-0.000096,  40.039
   496.2,-0.026876,-0.016557,-0.228317,-0.000096,  40.034
   496.4,-0.026911,-0.016578,-0.228633,-0.000109,  40.028
   496.6,-0.026946,-0.016593,-0.228982,-0.000096,  40.012
   496.8,-0.026971,-0.016600,-0.229288,-0.000096,  40.012
   497.0,-0.026996,-0.016613,-0.229583,-0.000109,  40.009
   497.2,-0.027028,-0.016633,-0.229865,-0.000109,  40.003
   497.4,-0.027067,-0.016648,-0.230120,-0.000096,  40.003
   497.6,-0.027099,-0.016668,-0.230349,-0.000096,  39.994
   497.8,-0.027134,-0.016697,-0.230604,-0.000096,  39.991
   498.0,-0.027181,-0.016723,-0.231112,-0.000096,  39.987
   498.2,-0.027218,-0.016741,-0.231764,-0.000096,  39.987
   498.4,-0.027250,-0.016763,-0.232546,-0.000096,  39.989
   498.6,-0.027286,-0.016772,-0.233471,-0.000096,  39.990
   498.8,-0.027305,-0.016789,-0.233639,-0.000096,  39.977
   499.0,-0.027334,-0.016805,-0.233601,-0.000096,  39.968
   499.2,-0.027373,-0.016815,-0.233340,-0.000083,  39.959
   499.4,-0.027395,-0.016825,-0.233404,-0.000083,  39.956
   499.6,-0.027416,-0.016828,-0.233546,-0.000083,  39.940
   499.8,-0.027437,-0.016823,-0.233724,-0.000070,  39.931
   500.0,-0.027445,-0.016807,-0.233866,-0.000057,  39.924
   500.2,-0.027480,-0.016828,-0.234034,-0.000057,  39.921
   500.4,-0.027533,-0.016863,-0.234211,-0.000044,  39.918
   500.6,-0.027584,-0.016915,-0.234382,-0.000031,  39.910
   500.8,-0.027625,-0.016950,-0.234612,-0.000017,  39.907
   501.0,-0.027665,-0.016984,-0.234851,-0.000004,  39.898
   501.2,-0.027697,-0.017023,-0.234917,-0.000004,  39.898
   501.4,-0.027735,-0.017061,-0.234955,-0.000017,  39.891
   501.6,-0.027773,-0.017087,-0.234924,-0.000017,  39.882
   501.8,-0.027813,-0.017114,-0.235157,-0.000017,  39.883
   502.0,-0.027864,-0.017143,-0.235501,-0.000044,  39.872
   502.2,-0.027902,-0.017165,-0.235962,-0.000044,  39.871
   502.4,-0.027939,-0.017188,-0.236526,-0.000031,  39.858
   502.6,-0.027980,-0.017210,-0.237176,-0.000044,  39.842
   502.8,-0.028015,-0.017220,-0.237945,-0.000044,  39.838
   503.0,-0.028044,-0.017235,-0.238302,-0.000031,  39.829
   503.2,-0.028078,-0.017252,-0.238469,-0.000044,  39.826
   503.4,-0.028119,-0.017271,-0.238500,-0.000031,  39.821
   503.6,-0.028160,-0.017290,-0.238705,-0.000031,  39.811
   503.8,-0.028209,-0.017312,-0.238914,-0.000031,  39.807
   504.0,-0.028250,-0.017342,-0.239138,-0.000017,  39.802
   504.2,-0.028287,-0.017374,-0.239369,-0.000031,  39.794
   504.4,-0.028328,-0.017398,-0.239619,-0.000031,  39.788
   504.6,-0.028357,-0.017418,-0.239878,-0.000031,  39.769
   504.8,-0.028386,-0.017442,-0.240186,-0.000017,  39.765
   505.0,-0.028412,-0.017462,-0.240526,-0.000031,  39.752
   505.2,-0.028441,-0.017478,-0.240900,-0.000031,  39.746
   505.4,-0.028473,-0.017487,-0.241553,-0.000017,  39.744
   505.6,-0.028510,-0.017511,-0.242380,-0.000031,  39.734
   505.8,-0.028539,-0.017525,-0.243363,-0.000031,  39.736
   506.0,-0.028571,-0.017543,-0.244512,-0.000017,  39.724
   506.2,-0.028606,-0.017561,-0.244711,-0.000017,  39.718
   506.4,-0.028641,-0.017588,-0.244643,-0.000004,  39.712
   506.6,-0.028675,-0.017608,-0.244294,0.000009,  39.703
   506.8,-0.028709,-0.017634,-0.244299,-0.000004,  39.700
   507.0,-0.028741,-0.017645,-0.244333,-0.000004,  39.695
   507.2,-0.028767,-0.017653,-0.244431,0.000009,  39.690
   507.4,-0.028781,-0.017658,-0.244561,-0.000004,  39.672
   507.6,-0.028804,-0.017671,-0.244718,-0.000004,  39.657
   507.8,-0.028830,-0.017686,-0.244924,0.000009,  39.646
   508.0,-0.028856,-0.017705,-0.245095,0.000009,  39.639
   508.2,-0.028873,-0.017699,-0.245243,0.000009,  39.628
   508.4,-0.028892,-0.017683,-0.245391,0.000022,  39.622
   508.6,-0.028893,-0.017655,-0.246755,0.000022,  39.600
   508.8,-0.028896,-0.017667,-0.248738,0.000022,  39.593
   509.0,-0.028934,-0.017707,-0.251320,0.000048,  39.587
   509.2,-0.028983,-0.017766,-0.251614,0.000074,  39.576
   509.4,-0.029047,-0.017803,-0.251066,0.000101,  39.569
   509.6,-0.029096,-0.017847,-0.249677,0.000127,  39.554
   509.8,-0.029151,-0.017897,-0.249318,0.000127,  39.551
   510.0,-0.029203,-0.017934,-0.249028,0.000101,  39.540
   510.2,-0.029243,-0.017967,-0.248843,0.000101,  39.522
   510.4,-0.029291,-0.017988,-0.248861,0.000088,  39.515
   510.6,-0.029325,-0.018010,-0.249015,0.000048,  39.505
   510.8,-0.029360,-0.018039,-0.249327,0.000048,  39.495
   511.0,-0.029402,-0.018055,-0.249464,0.000048,  39.479
   511.2,-0.029432,-0.018070,-0.249571,0.000035,  39.470
   511.4,-0.029464,-0.018090,-0.249710,0.000035,  39.465
   511.6,-0.029503,-0.018098,-0.249848,0.000035,  39.450
   511.8,-0.029528,-0.018120,-0.249975,0.000035,  39.434
   512.0,-0.029571,-0.018151,-0.250138,0.000035,  39.423
   512.2,-0.029630,-0.018178,-0.250304,0.000035,  39.416
   512.4,-0.029681,-0.018207,-0.250466,0.000035,  39.407
   512.6,-0.029721,-0.018240,-0.250661,0.000035,  39.396
   512.8,-0.029769,-0.018266,-0.250862,0.000035,  39.390
   513.0,-0.029799,-0.018285,-0.251078,0.000048,  39.380
   513.2,-0.029825,-0.018298,-0.251333,0.000048,  39.363
   513.4,-0.029855,-0.018311,-0.251572,0.000048,  39.349
   513.6,-0.029866,-0.018313,-0.251833,0.000048,  39.332
   513.8,-0.029889,-0.018325,-0.252085,0.000035,  39.327
   514.0,-0.029918,-0.018336,-0.252385,0.000035,  39.312
   514.2,-0.029937,-0.018343,-0.252744,0.000048,  39.308
   514.4,-0.029960,-0.018351,-0.253144,0.000048,  39.289
   514.6,-0.029989,-0.018362,-0.253586,0.000048,  39.276
   514.8,-0.030015,-0.018373,-0.253854,0.000061,  39.265
   515.0,-0.030041,-0.018392,-0.254056,0.000061,  39.254
   515.2,-0.030074,-0.018418,-0.254193,0.000061,  39.246
   515.4,-0.030103,-0.018448,-0.254379,0.000074,  39.235
   515.6,-0.030126,-0.018459,-0.254580,0.000074,  39.242
   515.8,-0.030143,-0.018466,-0.254775,0.000074,  39.235
   516.0,-0.030150,-0.018469,-0.255025,0.000088,  39.214
   516.2,-0.030160,-0.018483,-0.255324,0.000074,  39.191
   516.4,-0.030181,-0.018498,-0.255655,0.000088,  39.176
   516.6,-0.030202,-0.018515,-0.255904,0.000101,  39.157
   516.8,-0.030223,-0.018509,-0.256147,0.000114,  39.144
   517.0,-0.030241,-0.018486,-0.256375,0.000127,  39.124
   517.2,-0.030253,-0.018453,-0.256584,0.000114,  39.114
   517.4,-0.030255,-0.018470,-0.256784,0.000114,  39.099
   517.6,-0.030295,-0.018508,-0.256969,0.000153,  39.082
   517.8,-0.030353,-0.018558,-0.257163,0.000193,  39.071
   518.0,-0.030428,-0.018595,-0.257321,0.000245,  39.060
   518.2,-0.030480,-0.018649,-0.257494,0.000272,  39.038
   518.4,-0.030538,-0.018699,-0.257727,0.000258,  39.029
   518.6,-0.030590,-0.018734,-0.257969,0.000219,  39.009
   518.8,-0.030633,-0.018760,-0.258257,0.000206,  39.000
   519.0,-0.030680,-0.018780,-0.258473,0.000193,  38.987
   519.2,-0.030714,-0.018807,-0.258694,0.000180,  38.963
   519.4,-0.030746,-0.018834,-0.258901,0.000140,  38.950
   519.6,-0.030784,-0.018860,-0.259125,0.000127,  38.925
   519.8,-0.030806,-0.018878,-0.259372,0.000127,  38.917
   520.0,-0.030829,-0.018887,-0.259613,0.000114,  38.891
   520.2,-0.030859,-0.018895,-0.259894,0.000127,  38.876
   520.4,-0.030875,-0.018912,-0.260166,0.000114,  38.863
   520.6,-0.030919,-0.018943,-0.260483,0.000114,  38.843
   520.8,-0.030980,-0.018971,-0.260785,0.000127,  38.836
   521.0,-0.031043,-0.019002,-0.261285,0.000127,  38.816
   521.2,-0.031080,-0.019026,-0.261880,0.000127,  38.794
   521.4,-0.031113,-0.019054,-0.262578,0.000140,  38.776
   521.6,-0.031129,-0.019073,-0.262824,0.000140,  38.763
   521.8,-0.031149,-0.019086,-0.262882,0.000140,  38.756
   522.0,-0.031176,-0.019095,-0.262797,0.000140,  38.736
   522.2,-0.031184,-0.019102,-0.262908,0.000127,  38.712
   522.4,-0.031198,-0.019111,-0.263027,0.000149,  38.693
   522.6,-0.031212,-0.019114,-0.263184,0.000162,  38.678
   522.8,-0.031230,-0.019121,-0.263366,0.000127,  38.668
   523.0,-0.031244,-0.019130,-0.263588,0.000162,  38.645
   523.2,-0.031264,-0.019134,-0.263826,0.000188,  38.627
   523.4,-0.031287,-0.019146,-0.264025,0.000153,  38.616
   523.6,-0.031316,-0.019162,-0.264224,0.000188,  38.590
   523.8,-0.031336,-0.019175,-0.264423,0.000201,  38.569
   524.0,-0.031360,-0.019194,-0.264583,0.000193,  38.566
   524.2,-0.031374,-0.019210,-0.264719,0.000228,  38.565
   524.4,-0.031394,-0.019212,-0.264870,0.000228,  38.540
   524.6,-0.031421,-0.019204,-0.265076,0.000193,  38.508
   524.8,-0.031440,-0.019213,-0.265305,0.000215,  38.487
   525.0,-0.031443,-0.019220,-0.265573,0.000228,  38.475
   525.2,-0.031447,-0.019227,-0.265802,0.000206,  38.454
   525.4,-0.031428,-0.019221,-0.266024,0.000219,  38.434
   525.6,-0.031431,-0.019196,-0.266248,0.000232,  38.402
   525.8,-0.031444,-0.019165,-0.266485,0.000245,  38.392
   526.0,-0.031458,-0.019187,-0.266722,0.000232,  38.376
   526.2,-0.031504,-0.019230,-0.266982,0.000219,  38.355
   526.4,-0.031570,-0.019282,-0.267128,0.000258,  38.332
   526.6,-0.031653,-0.019323,-0.267234,0.000311,  38.307
   526.8,-0.031704,-0.019367,-0.267303,0.000377,  38.294
   527.0,-0.031760,-0.019405,-0.267312,0.000390,  38.271
   527.2,-0.031796,-0.019436,-0.267471,0.000377,  38.252
   527.4,-0.031837,-0.019460,-0.267667,0.000337,  38.232
   527.6,-0.031881,-0.019482,-0.267893,0.000324,  38.207
   527.8,-0.031909,-0.019488,-0.268151,0.000298,  38.184
   528.0,-0.031940,-0.019513,-0.268454,0.000258,  38.163
   528.2,-0.031979,-0.019539,-0.268767,0.000245,  38.138
   528.4,-0.032001,-0.019558,-0.269001,0.000197,  38.110
   528.6,-0.032024,-0.019576,-0.269212,0.000197,  38.093
   528.8,-0.032053,-0.019587,-0.269392,0.000210,  38.073
   529.0,-0.032069,-0.019599,-0.269578,0.000162,  38.055
   529.2,-0.032104,-0.019634,-0.269743,0.000184,  38.027
   529.4,-0.032144,-0.019675,-0.269901,0.000197,  38.006
   529.6,-0.032194,-0.019730,-0.270453,0.000162,  37.987
   529.8,-0.032246,-0.019761,-0.271241,0.000184,  37.960
   530.0,-0.032272,-0.019771,-0.272198,0.000197,  37.941
   530.2,-0.032292,-0.019781,-0.272455,0.000162,  37.921
   530.4,-0.032306,-0.019792,-0.272482,0.000184,  37.904
   530.6,-0.032318,-0.019789,-0.272262,0.000184,  37.867
   530.8,-0.032329,-0.019783,-0.272341,0.000149,  37.851
   531.0,-0.032343,-0.019787,-0.272452,0.000158,  37.820
   531.2,-0.032352,-0.019795,-0.272577,0.000171,  37.803
   531.4,-0.032358,-0.019802,-0.272664,0.000136,  37.786
   531.6,-0.032369,-0.019804,-0.272759,0.000171,  37.758
   531.8,-0.032392,-0.019813,-0.272840,0.000184,  37.734
   532.0,-0.032418,-0.019815,-0.272943,0.000162,  37.708
   532.2,-0.032452,-0.019820,-0.273093,0.000210,  37.690
   532.4,-0.032470,-0.019823,-0.273245,0.000237,  37.661
   532.6,-0.032478,-0.019824,-0.273355,0.000202,  37.648
   532.8,-0.032478,-0.019827,-0.273458,0.000237,  37.640
   533.0,-0.032493,-0.019832,-0.273547,0.000237,  37.615
   533.2,-0.032516,-0.019834,-0.273687,0.000250,  37.581
   533.4,-0.032535,-0.019830,-0.273835,0.000202,  37.556
   533.6,-0.032509,-0.019821,-0.274022,0.000223,  37.532
   533.8,-0.032470,-0.019810,-0.274172,0.000237,  37.498
   534.0,-0.032401,-0.019804,-0.274314,0.000250,  37.477
   534.2,-0.032404,-0.019790,-0.274442,0.000298,  37.445
   534.4,-0.032432,-0.019781,-0.274580,0.000311,  37.421
   534.6,-0.032480,-0.019764,-0.274759,0.000324,  37.395
   534.8,-0.032538,-0.019804,-0.274932,0.000311,  37.369
   535.0,-0.032619,-0.019861,-0.275134,0.000350,  37.347
   535.2,-0.032704,-0.019929,-0.275209,0.000403,  37.321
   535.4,-0.032761,-0.019972,-0.275290,0.000469,  37.289
   535.6,-0.032820,-0.020018,-0.275299,0.000482,  37.262
   535.8,-0.032856,-0.020050,-0.275378,0.000421,  37.239
   536.0,-0.032887,-0.020081,-0.275488,0.000381,  37.215
   536.2,-0.032918,-0.020103,-0.275620,0.000368,  37.190
   536.4,-0.032940,-0.020119,-0.274570,0.000307,  37.155
   536.6,-0.032960,-0.020139,-0.272942,0.000302,  37.123
   536.8,-0.032980,-0.020159,-0.270749,0.000289,  37.098
   537.0,-0.032989,-0.020167,-0.270943,0.000241,  37.071
   537.2,-0.033004,-0.020178,-0.272038,0.000263,  37.046
   537.4,-0.033024,-0.020189,-0.274039,0.000263,  37.017
   537.6,-0.033050,-0.020198,-0.274802,0.000250,  36.981
   537.8,-0.033076,-0.020233,-0.275405,0.000272,  36.962
   538.0,-0.033119,-0.020280,-0.275856,0.000272,  36.934
   538.2,-0.033177,-0.020336,-0.276332,0.000272,  36.917
   538.4,-0.033237,-0.020360,-0.276777,0.000272,  36.878
   538.6,-0.033269,-0.020378,-0.277141,0.000272,  36.847
   538.8,-0.033299,-0.020378,-0.277527,0.000272,  36.829
   539.0,-0.033303,-0.020384,-0.277887,0.000272,  36.799
   539.2,-0.033312,-0.020384,-0.278242,0.000258,  36.772
   539.4,-0.033321,-0.020375,-0.278529,0.000258,  36.745
   539.6,-0.033319,-0.020373,-0.278752,0.000245,  36.707
   539.8,-0.033316,-0.020371,-0.278916,0.000245,  36.682
   540.0,-0.033313,-0.020360,-0.279141,0.000245,  36.659
   540.2,-0.033310,-0.020362,-0.279375,0.000258,  36.633
   540.4,-0.033324,-0.020375,-0.279595,0.000272,  36.596
   540.6,-0.033356,-0.020390,-0.279755,0.000285,  36.568
   540.8,-0.033393,-0.020392,-0.279887,0.000285,  36.544
   541.0,-0.033402,-0.020395,-0.280010,0.000298,  36.514
   541.2,-0.033402,-0.020395,-0.280119,0.000311,  36.500
   541.4,-0.033389,-0.020401,-0.280198,0.000324,  36.476
   541.6,-0.033398,-0.020401,-0.280256,0.000359,  36.438
   541.8,-0.033416,-0.020399,-0.280307,0.000359,  36.412
   542.0,-0.033429,-0.020384,-0.280514,0.000311,  36.381
   542.2,-0.033386,-0.020365,-0.280729,0.000333,  36.355
   542.4,-0.033327,-0.020332,-0.281019,0.000346,  36.316
   542.6,-0.033233,-0.020292,-0.281181,0.000324,  36.279
   542.8,-0.033236,-0.020279,-0.281292,0.000385,  36.253
   543.0,-0.033278,-0.020274,-0.281365,0.000399,  36.228
   543.2,-0.033356,-0.020279,-0.281475,0.000364,  36.193
   543.4,-0.033416,-0.020317,-0.281578,0.000412,  36.158
   543.6,-0.033490,-0.020371,-0.281688,0.000438,  36.122
   543.8,-0.033567,-0.020455,-0.281769,0.000442,  36.093
   544.0,-0.033618,-0.020501,-0.281851,0.000530,  36.070
   544.2,-0.033655,-0.020531,-0.281934,0.000530,  36.035
   544.4,-0.033684,-0.020561,-0.282043,0.000482,  36.004
   544.6,-0.033698,-0.020592,-0.282167,0.000464,  35.964
   544.8,-0.033727,-0.020606,-0.282292,0.000451,  35.945
   545.0,-0.033761,-0.020619,-0.282460,0.000403,  35.900
   545.2,-0.033797,-0.020636,-0.282659,0.000399,  35.877
   545.4,-0.033814,-0.020648,-0.282893,0.000399,  35.833
   545.6,-0.033828,-0.020656,-0.283024,0.000350,  35.800
   545.8,-0.033837,-0.020664,-0.283104,0.000372,  35.769
   546.0,-0.033851,-0.020677,-0.283191,0.000385,  35.741
   546.2,-0.033865,-0.020683,-0.283360,0.000337,  35.703
   546.4,-0.033886,-0.020713,-0.283567,0.000359,  35.672
   546.6,-0.033920,-0.020760,-0.283811,0.000372,  35.633
   546.8,-0.033966,-0.020819,-0.283965,0.000324,  35.596
   547.0,-0.034023,-0.020848,-0.284089,0.000359,  35.570
   547.2,-0.034054,-0.020868,-0.284177,0.000359,  35.533
   547.4,-0.034074,-0.020871,-0.284315,0.000324,  35.505
   547.6,-0.034091,-0.020874,-0.284446,0.000324,  35.472
   547.8,-0.034097,-0.020870,-0.284584,0.000311,  35.440
   548.0,-0.034094,-0.020858,-0.284678,0.000311,  35.409
   548.2,-0.034079,-0.020845,-0.284765,0.000298,  35.370
   548.4,-0.034076,-0.020831,-0.284837,0.000285,  35.337
   548.6,-0.034080,-0.020816,-0.284894,0.000285,  35.298
   548.8,-0.034070,-0.020811,-0.284966,0.000298,  35.265
   549.0,-0.034088,-0.020822,-0.285016,0.000298,  35.236
   549.2,-0.034123,-0.020833,-0.285089,0.000311,  35.197
   549.4,-0.034153,-0.020854,-0.285214,0.000324,  35.170
   549.6,-0.034156,-0.020857,-0.285353,0.000337,  35.131
   549.8,-0.034160,-0.020850,-0.285537,0.000350,  35.119
   550.0,-0.034142,-0.020833,-0.285676,0.000364,  35.099
   550.2,-0.034148,-0.020833,-0.285808,0.000364,  35.056
   550.4,-0.034163,-0.020833,-0.285927,0.000377,  35.010
   550.6,-0.034173,-0.020842,-0.286051,0.000364,  34.969
   550.8,-0.034148,-0.020802,-0.286182,0.000337,  34.939
   551.0,-0.034105,-0.020725,-0.286307,0.000350,  34.908
   551.2,-0.034045,-0.020629,-0.287553,0.000364,  34.866
   551.4,-0.033967,-0.020626,-0.289353,0.000364,  34.837
   551.6,-0.033990,-0.020647,-0.291704,0.000390,  34.787
   551.8,-0.034042,-0.020700,-0.291846,0.000390,  34.758
   552.0,-0.034119,-0.020750,-0.291176,0.000390,  34.731
   552.2,-0.034179,-0.020814,-0.289662,0.000429,  34.691
   552.4,-0.034242,-0.020891,-0.289124,0.000469,  34.655
   552.6,-0.034310,-0.020941,-0.288672,0.000508,  34.605
   552.8,-0.034355,-0.020975,-0.288293,0.000508,  34.579
   553.0,-0.034390,-0.021003,-0.288080,0.000482,  34.550
   553.2,-0.034415,-0.021032,-0.287973,0.000442,  34.508
   553.4,-0.034444,-0.021054,-0.287964,0.000416,  34.477
   553.6,-0.034476,-0.021073,-0.287991,0.000390,  34.431
   553.8,-0.034499,-0.021081,-0.288081,0.000377,  34.398
   554.0,-0.034513,-0.021088,-0.288227,0.000364,  34.360
   554.2,-0.034522,-0.021087,-0.288226,0.000350,  34.319
   554.4,-0.034521,-0.021101,-0.288201,0.000350,  34.292
   554.6,-0.034535,-0.021109,-0.288145,0.000337,  34.240
   554.8,-0.034556,-0.021120,-0.288162,0.000337,  34.213
   555.0,-0.034579,-0.021149,-0.288214,0.000337,  34.178
   555.2,-0.034611,-0.021185,-0.288274,0.000324,  34.142
   555.4,-0.034655,-0.021230,-0.288362,0.000337,  34.108
   555.6,-0.034693,-0.021251,-0.288392,0.000337,  34.062
   555.8,-0.034719,-0.021273,-0.288458,0.000324,  34.032
   556.0,-0.034749,-0.021279,-0.288488,0.000311,  33.997
   556.2,-0.034756,-0.021286,-0.288538,0.000285,  33.961
   556.4,-0.034759,-0.021286,-0.288595,0.000293,  33.928
   556.6,-0.034760,-0.021273,-0.288666,0.000280,  33.874
   556.8,-0.034739,-0.021260,-0.288731,0.000245,  33.848
   557.0,-0.034736,-0.021244,-0.288810,0.000280,  33.817
   557.2,-0.034740,-0.021237,-0.288883,0.000307,  33.777
   557.4,-0.034731,-0.021217,-0.289000,0.000272,  33.743
   557.6,-0.034742,-0.021217,-0.289168,0.000307,  33.696
   557.8,-0.034772,-0.021231,-0.289344,0.000320,  33.664
   558.0,-0.034799,-0.021254,-0.289424,0.000298,  33.632
   558.2,-0.034808,-0.021245,-0.289482,0.000320,  33.595
   558.4,-0.034808,-0.021232,-0.289526,0.000320,  33.568
   558.6,-0.034799,-0.021213,-0.289561,0.000311,  33.542
   558.8,-0.034788,-0.021216,-0.289582,0.000311,  33.514
   559.0,-0.034791,-0.021222,-0.289625,0.000324,  33.461
   559.2,-0.034796,-0.021235,-0.289683,0.000324,  33.423
   559.4,-0.034805,-0.021188,-0.289748,0.000324,  33.389
   559.6,-0.034761,-0.021110,-0.289842,0.000337,  33.334
   559.8,-0.034701,-0.020997,-0.289922,0.000337,  33.304
   560.0,-0.034614,-0.020990,-0.290024,0.000350,  33.262
   560.2,-0.034626,-0.021028,-0.290155,0.000364,  33.231
   560.4,-0.034674,-0.021099,-0.290220,0.000364,  33.190
   560.6,-0.034764,-0.021151,-0.290257,0.000364,  33.138
   560.8,-0.034816,-0.021217,-0.290293,0.000403,  33.108
   561.0,-0.034874,-0.021283,-0.290351,0.000416,  33.072
   561.2,-0.034916,-0.021325,-0.290402,0.000442,  33.030
   561.4,-0.034948,-0.021362,-0.290446,0.000456,  32.991
   561.6,-0.034974,-0.021377,-0.290540,0.000442,  32.950
   561.8,-0.034991,-0.021396,-0.290699,0.000416,  32.921
   562.0,-0.035011,-0.021416,-0.290894,0.000377,  32.883
   562.2,-0.035026,-0.021420,-0.291031,0.000364,  32.843
   562.4,-0.035043,-0.021418,-0.291125,0.000350,  32.797
   562.6,-0.035049,-0.021424,-0.291262,0.000324,  32.742
   562.8,-0.035049,-0.021411,-0.291349,0.000337,  32.713
   563.0,-0.035049,-0.021413,-0.291406,0.000337,  32.673
   563.2,-0.035066,-0.021418,-0.291434,0.000337,  32.632
   563.4,-0.035088,-0.021420,-0.291447,0.000350,  32.594
   563.6,-0.035123,-0.021425,-0.291461,0.000350,  32.550
   563.8,-0.035148,-0.021454,-0.291482,0.000337,  32.516
   564.0,-0.035174,-0.021488,-0.291495,0.000350,  32.478
   564.2,-0.035200,-0.021524,-0.291830,0.000350,  32.445
   564.4,-0.035211,-0.021545,-0.292367,0.000350,  32.398
   564.6,-0.035217,-0.021549,-0.293056,0.000350,  32.354
   564.8,-0.035214,-0.021549,-0.293149,0.000324,  32.323
   565.0,-0.035211,-0.021545,-0.293075,0.000298,  32.283
   565.2,-0.035203,-0.021523,-0.292790,0.000298,  32.241
   565.4,-0.035194,-0.021499,-0.292746,0.000298,  32.198
   565.6,-0.035173,-0.021491,-0.292724,0.000298,  32.155
   565.8,-0.035167,-0.021473,-0.292738,0.000298,  32.130
   566.0,-0.035164,-0.021457,-0.292737,0.000311,  32.089
   566.2,-0.035159,-0.021466,-0.292715,0.000311,  32.045
   566.4,-0.035167,-0.021478,-0.292737,0.000324,  32.015
   566.6,-0.035191,-0.021500,-0.292700,0.000337,  31.968
   566.8,-0.035207,-0.021493,-0.292671,0.000337,  31.941
   567.0,-0.035202,-0.021480,-0.292620,0.000350,  31.907
   567.2,-0.035194,-0.021460,-0.292569,0.000364,  31.885
   567.4,-0.035164,-0.021452,-0.292531,0.000364,  31.835
   567.6,-0.035159,-0.021453,-0.292473,0.000390,  31.789
   567.8,-0.035165,-0.021458,-0.292480,0.000403,  31.761
   568.0,-0.035167,-0.021413,-0.292516,0.000438,  31.717
   568.2,-0.035133,-0.021339,-0.292589,0.000451,  31.671
   568.4,-0.035091,-0.021233,-0.292603,0.000442,  31.630
   568.6,-0.035019,-0.021226,-0.292596,0.000442,  31.590
   568.8,-0.035025,-0.021262,-0.292581,0.000442,  31.552
   569.0,-0.035066,-0.021326,-0.292893,0.000456,  31.513
   569.2,-0.035122,-0.021369,-0.293393,0.000469,  31.472
   569.4,-0.035164,-0.021424,-0.294044,0.000495,  31.428
   569.6,-0.035214,-0.021480,-0.294852,0.000508,  31.385
   569.8,-0.035253,-0.021515,-0.294774,0.000521,  31.354
   570.0,-0.035281,-0.021541,-0.294449,0.000534,  31.311
   570.2,-0.035308,-0.021560,-0.293886,0.000534,  31.272
   570.4,-0.035313,-0.021566,-0.293690,0.000508,  31.230
   570.6,-0.035327,-0.021586,-0.293551,0.000456,  31.185
   570.8,-0.035351,-0.021601,-0.293477,0.000442,  31.158
   571.0,-0.035361,-0.021607,-0.293454,0.000429,  31.111
   571.2,-0.035364,-0.021607,-0.293476,0.000403,  31.062
   571.4,-0.035374,-0.021606,-0.293541,0.000390,  31.026
   571.6,-0.035361,-0.021595,-0.293526,0.000390,  30.986
   571.8,-0.035373,-0.021597,-0.293511,0.000377,  30.952
   572.0,-0.035390,-0.021604,-0.293474,0.000377,  30.907
   572.2,-0.035415,-0.021609,-0.293386,0.000377,  30.866
   572.4,-0.035447,-0.021631,-0.293291,0.000390,  30.826
   572.6,-0.035461,-0.021654,-0.293167,0.000403,  30.784
   572.8,-0.035478,-0.021686,-0.293152,0.000416,  30.752
   573.0,-0.035492,-0.021694,-0.293188,0.000403,  30.702
   573.2,-0.035490,-0.021703,-0.293290,0.000390,  30.674
   573.4,-0.035488,-0.021698,-0.293339,0.000377,  30.634
   573.6,-0.035464,-0.021692,-0.293397,0.000350,  30.582
   573.8,-0.035455,-0.021681,-0.293482,0.000350,  30.550
   574.0,-0.035459,-0.021671,-0.293547,0.000350,  30.510
   574.2,-0.035456,-0.021660,-0.293620,0.000364,  30.475
   574.4,-0.035454,-0.021651,-0.293714,0.000390,  30.436
   574.6,-0.035451,-0.021647,-0.293794,0.000390,  30.385
   574.8,-0.035454,-0.021653,-0.293888,0.000390,  30.350
   575.0,-0.035462,-0.021666,-0.293975,0.000403,  30.316
   575.2,-0.035479,-0.021687,-0.293982,0.000403,  30.277
   575.4,-0.035495,-0.021690,-0.293960,0.000403,  30.239
   575.6,-0.035492,-0.021675,-0.293874,0.000390,  30.212
   575.8,-0.035491,-0.021654,-0.293874,0.000403,  30.188
   576.0,-0.035473,-0.021656,-0.293866,0.000390,  30.137
   576.2,-0.035471,-0.021662,-0.293923,0.000403,  30.095
   576.4,-0.035471,-0.021668,-0.293959,0.000403,  30.054
   576.6,-0.035479,-0.021647,-0.293952,0.000429,  30.002
   576.8,-0.035456,-0.021614,-0.293966,0.000429,  29.968
   577.0,-0.035425,-0.021561,-0.293966,0.000442,  29.932
   577.2,-0.035385,-0.021498,-0.293951,0.000442,  29.892
   577.4,-0.035399,-0.021509,-0.293922,0.000442,  29.854
   577.6,-0.035436,-0.021546,-0.293878,0.000469,  29.806
   577.8,-0.035499,-0.021600,-0.293828,0.000460,  29.773
   578.0,-0.035533,-0.021642,-0.293756,0.000499,  29.731
   578.2,-0.035572,-0.021681,-0.293663,0.000513,  29.688
   578.4,-0.035600,-0.021720,-0.293635,0.000513,  29.647
   578.6,-0.035620,-0.021750,-0.293670,0.000534,  29.605
   578.8,-0.035638,-0.021771,-0.293699,0.000508,  29.569
   579.0,-0.035643,-0.021785,-0.293770,0.000482,  29.533
   579.2,-0.035646,-0.021807,-0.293891,0.000429,  29.495
   579.4,-0.035657,-0.021822,-0.294034,0.000416,  29.454
   579.6,-0.035667,-0.021838,-0.294135,0.000403,  29.397
   579.8,-0.035684,-0.021850,-0.294220,0.000390,  29.367
   580.0,-0.035693,-0.021845,-0.294299,0.000377,  29.327
   580.2,-0.035702,-0.021843,-0.294356,0.000377,  29.289
   580.4,-0.035707,-0.021856,-0.294428,0.000364,  29.246
   580.6,-0.035730,-0.021875,-0.294493,0.000364,  29.200
   580.8,-0.035764,-0.021896,-0.294565,0.000350,  29.167
   581.0,-0.035804,-0.021911,-0.294672,0.000350,  29.129
   581.2,-0.035821,-0.021936,-0.294780,0.000364,  29.093
   581.4,-0.035835,-0.021950,-0.294787,0.000350,  29.054
   581.6,-0.035841,-0.021959,-0.294765,0.000350,  29.013
   581.8,-0.035838,-0.021961,-0.294677,0.000350,  28.979
   582.0,-0.035830,-0.021953,-0.294771,0.000337,  28.939
   582.2,-0.035815,-0.021949,-0.294922,0.000337,  28.893
   582.4,-0.035813,-0.021948,-0.295130,0.000311,  28.859
   582.6,-0.035815,-0.021935,-0.295173,0.000324,  28.813
   582.8,-0.035821,-0.021926,-0.295172,0.000311,  28.785
   583.0,-0.035824,-0.021929,-0.295107,0.000311,  28.747
   583.2,-0.035827,-0.021922,-0.294991,0.000324,  28.711
   583.4,-0.035833,-0.021931,-0.294948,0.000324,  28.673
   583.6,-0.035833,-0.021938,-0.294918,0.000324,  28.626
   583.8,-0.035833,-0.021953,-0.294889,0.000337,  28.598
   584.0,-0.035823,-0.021970,-0.294933,0.000337,  28.563
   584.2,-0.035814,-0.021974,-0.295027,0.000337,  28.539
   584.4,-0.035813,-0.021959,-0.295164,0.000350,  28.506
   584.6,-0.035794,-0.021935,-0.295170,0.000350,  28.448
   584.8,-0.035783,-0.021928,-0.295126,0.000337,  28.423
   585.0,-0.035784,-0.021919,-0.295017,0.000350,  28.384
   585.2,-0.035774,-0.021920,-0.294915,0.000329,  28.343
   585.4,-0.035763,-0.021889,-0.294849,0.000329,  28.303
   585.6,-0.035746,-0.021849,-0.294734,0.000342,  28.254
   585.8,-0.035739,-0.021791,-0.294742,0.000307,  28.227
   586.0,-0.035719,-0.021794,-0.294836,0.000329,  28.185
   586.2,-0.035739,-0.021822,-0.294981,0.000381,  28.147
   586.4,-0.035773,-0.021860,-0.295010,0.000386,  28.112
   586.6,-0.035821,-0.021887,-0.295011,0.000473,  28.068
   586.8,-0.035853,-0.021921,-0.294983,0.000486,  28.030
   587.0,-0.035878,-0.021956,-0.295048,0.000451,  27.996
   587.2,-0.035897,-0.021981,-0.295148,0.000447,  27.962
   587.4,-0.035911,-0.021995,-0.295277,0.000421,  27.922
   587.6,-0.035932,-0.022011,-0.295385,0.000346,  27.873
   587.8,-0.035931,-0.022029,-0.295492,0.000342,  27.847
   588.0,-0.035937,-0.022041,-0.295642,0.000315,  27.810
   588.2,-0.035955,-0.022049,-0.295735,0.000302,  27.765
   588.4,-0.035957,-0.022056,-0.295814,0.000311,  27.720
   588.6,-0.035957,-0.022060,-0.295892,0.000311,  27.681
   588.8,-0.035964,-0.022050,-0.296114,0.000324,  27.649
   589.0,-0.035951,-0.022069,-0.296372,0.000311,  27.614
   589.2,-0.035971,-0.022091,-0.296702,0.000311,  27.569
   589.4,-0.036012,-0.022115,-0.296744,0.000324,  27.537
   589.6,-0.036048,-0.022130,-0.296694,0.000311,  27.489
   589.8,-0.036062,-0.022148,-0.296514,0.000311,  27.460
   590.0,-0.036077,-0.022162,-0.296471,0.000324,  27.424
   590.2,-0.036077,-0.022164,-0.296427,0.000311,  27.387
   590.4,-0.036077,-0.022167,-0.296413,0.000311,  27.348
   590.6,-0.036075,-0.022160,-0.296384,0.000298,  27.300
   590.8,-0.036072,-0.022147,-0.296340,0.000285,  27.268
   591.0,-0.036072,-0.022145,-0.296282,0.000258,  27.233
   591.2,-0.036069,-0.022143,-0.296223,0.000245,  27.194
   591.4,-0.036069,-0.022132,-0.296244,0.000245,  27.161
   591.6,-0.036069,-0.022123,-0.296309,0.000245,  27.117
   591.8,-0.036076,-0.022121,-0.296388,0.000258,  27.087
   592.0,-0.036081,-0.022115,-0.296460,0.000258,  27.055
   592.2,-0.036079,-0.022115,-0.296553,0.000245,  27.014
   592.4,-0.036080,-0.022124,-0.296654,0.000272,  26.976
   592.6,-0.036070,-0.022128,-0.295405,0.000272,  26.935
   592.8,-0.036070,-0.022124,-0.293515,0.000272,  26.922
   593.0,-0.036070,-0.022122,-0.290960,0.000272,  26.893
   593.2,-0.036063,-0.022106,-0.290869,0.000272,  26.845
   593.4,-0.036056,-0.022098,-0.291683,0.000258,  26.807
   593.6,-0.036031,-0.022096,-0.293424,0.000258,  26.765
   593.8,-0.036000,-0.022087,-0.293982,0.000272,  26.736
   594.0,-0.035960,-0.022061,-0.294392,0.000285,  26.698
   594.2,-0.035940,-0.022029,-0.294666,0.000298,  26.657
   594.4,-0.035932,-0.021976,-0.294977,0.000311,  26.626
   594.6,-0.035920,-0.021978,-0.295242,0.000285,  26.577
   594.8,-0.035940,-0.022005,-0.295454,0.000311,  26.550
   595.0,-0.035986,-0.022043,-0.295839,0.000377,  26.513
   595.2,-0.036034,-0.022069,-0.296284,0.000429,  26.476
   595.4,-0.036059,-0.022095,-0.296789,0.000442,  26.439
   595.6,-0.036089,-0.022120,-0.296891,0.000429,  26.394
   595.8,-0.036099,-0.022133,-0.296836,0.000390,  26.372
   596.0,-0.036113,-0.022149,-0.296589,0.000377,  26.334
   596.2,-0.036129,-0.022146,-0.296607,0.000364,  26.297
   596.4,-0.036128,-0.022156,-0.296682,0.000337,  26.258
   596.6,-0.036130,-0.022169,-0.296795,0.000311,  26.216
   596.8,-0.036143,-0.022181,-0.297237,0.000298,  26.179
   597.0,-0.036142,-0.022185,-0.297879,0.000272,  26.147
   597.2,-0.036142,-0.022183,-0.298685,0.000272,  26.111
   597.4,-0.036146,-0.022179,-0.299702,0.000258,  26.068
   597.6,-0.036139,-0.022188,-0.299608,0.000258,  26.027
   597.8,-0.036159,-0.022203,-0.299209,0.000258,  25.994
   598.0,-0.036194,-0.022222,-0.298496,0.000258,  25.964
   598.2,-0.036230,-0.022250,-0.298188,0.000258,  25.929
   598.4,-0.036239,-0.022258,-0.297945,0.000272,  25.888
   598.6,-0.036245,-0.022271,-0.297751,0.000285,  25.847
   598.8,-0.036230,-0.022282,-0.297550,0.000285,  25.820
   599.0,-0.036224,-0.022282,-0.297385,0.000272,  25.786
   599.2,-0.036225,-0.022272,-0.297248,0.000258,  25.753
   599.4,-0.036223,-0.022253,-0.297463,0.000245,  25.713
   599.6,-0.036220,-0.022251,-0.297856,0.000232,  25.670
   599.8,-0.036211,-0.022248,-0.298464,0.000232,  25.645
   600.0,-0.036218,-0.022246,-0.298464,0.000219,  25.610
   600.2,-0.036206,-0.022250,-0.298278,0.000219,  25.577
   600.4,-0.036206,-0.022248,-0.297899,0.000232,  25.537
   600.6,-0.036214,-0.022242,-0.297713,0.000245,  25.496
   600.8,-0.036223,-0.022237,-0.297527,0.000245,  25.465
   601.0,-0.036220,-0.022237,-0.297347,0.000258,  25.437
   601.2,-0.036214,-0.022227,-0.297261,0.000258,  25.407
   601.4,-0.036206,-0.022221,-0.297203,0.000245,  25.382
   601.6,-0.036203,-0.022210,-0.297203,0.000258,  25.336
   601.8,-0.036200,-0.022200,-0.297210,0.000245,  25.307
   602.0,-0.036193,-0.022185,-0.297246,0.000232,  25.271
   602.2,-0.036162,-0.022178,-0.297325,0.000245,  25.240
   602.4,-0.036123,-0.022156,-0.297375,0.000245,  25.202
   602.6,-0.036056,-0.022139,-0.297418,0.000258,  25.158
   602.8,-0.036045,-0.022129,-0.297469,0.000258,  25.124
   603.0,-0.036058,-0.022111,-0.297447,0.000272,  25.092
   603.2,-0.036076,-0.022124,-0.297418,0.000258,  25.056
   603.4,-0.036099,-0.022155,-0.297346,0.000258,  25.022
   603.6,-0.036143,-0.022194,-0.297311,0.000285,  24.982
   603.8,-0.036191,-0.022221,-0.297261,0.000311,  24.952
   604.0,-0.036214,-0.022240,-0.297240,0.000364,  24.918
   604.2,-0.036231,-0.022255,-0.297204,0.000377,  24.887
   604.4,-0.036248,-0.022265,-0.297219,0.000364,  24.847
   604.6,-0.036257,-0.022276,-0.297261,0.000311,  24.810
   604.8,-0.036262,-0.022277,-0.297318,0.000298,  24.778
   605.0,-0.036268,-0.022284,-0.297361,0.000285,  24.746
   605.2,-0.036271,-0.022290,-0.297410,0.000258,  24.706
   605.4,-0.036274,-0.022290,-0.297452,0.000245,  24.673
   605.6,-0.036277,-0.022301,-0.297481,0.000210,  24.626
   605.8,-0.036280,-0.022303,-0.297502,0.000210,  24.603
   606.0,-0.036285,-0.022306,-0.297516,0.000223,  24.574
   606.2,-0.036291,-0.022302,-0.297552,0.000175,  24.537
   606.4,-0.036305,-0.022322,-0.297616,0.000197,  24.504
   606.6,-0.036317,-0.022348,-0.297702,0.000210,  24.459
   606.8,-0.036349,-0.022378,-0.297687,0.000162,  24.431
   607.0,-0.036365,-0.022392,-0.297638,0.000197,  24.399
   607.2,-0.036371,-0.022396,-0.297594,0.000210,  24.363
   607.4,-0.036376,-0.022389,-0.297665,0.000162,  24.330
   607.6,-0.036373,-0.022394,-0.297779,0.000184,  24.291
   607.8,-0.036368,-0.022387,-0.297951,0.000184,  24.268
   608.0,-0.036365,-0.022377,-0.298036,0.000149,  24.230
   608.2,-0.036359,-0.022375,-0.298086,0.000158,  24.197
   608.4,-0.036351,-0.022374,-0.298114,0.000158,  24.168
   608.6,-0.036339,-0.022370,-0.298121,0.000158,  24.129
   608.8,-0.036331,-0.022369,-0.298113,0.000180,  24.099
   609.0,-0.036336,-0.022369,-0.298078,0.000180,  24.068
   609.2,-0.036348,-0.022372,-0.298084,0.000180,  24.032
   609.4,-0.036368,-0.022373,-0.298084,0.000180,  23.997
   609.6,-0.036362,-0.022366,-0.298106,0.000180,  23.962
   609.8,-0.036351,-0.022354,-0.298119,0.000180,  23.947
   610.0,-0.036321,-0.022345,-0.298098,0.000180,  23.916
   610.2,-0.036313,-0.022347,-0.298069,0.000180,  23.880
   610.4,-0.036319,-0.022336,-0.298298,0.000180,  23.843
   610.6,-0.036315,-0.022312,-0.298654,0.000180,  23.807
   610.8,-0.036287,-0.022279,-0.299132,0.000166,  23.783
   611.0,-0.036257,-0.022237,-0.299730,0.000166,  23.747
   611.2,-0.036199,-0.022226,-0.299673,0.000193,  23.708
   611.4,-0.036196,-0.022219,-0.299417,0.000193,  23.681
   611.6,-0.036214,-0.022225,-0.298975,0.000206,  23.644
   611.8,-0.036241,-0.022235,-0.298811,0.000206,  23.618
