Run Name,Dead time check_2_Grp 4_02 18 2014
Run Date,02:41:54 PM   02-18-14
Method Name,50%B-Isocratic.3
Export Format Version, 1.00
Method ID, 1787
Points/Second, 5.00
Number of Records,   3090
Offset from Run Start Time,00:00:00
Run End Time,00:10:18
Time,Second
QuadTec 1, (280.0 nm), AU
QuadTec 2, (260.0 nm), AU
Gradient Pump,<Not Selected>
QuadTec 3, (214.0 nm), AU
QuadTec 4, (405.0 nm), AU
Conductivity,mS/cm
Trace 6,<Not Available>
GP Pressure,<Not Selected>
Volume,<Not Selected>
Fraction,<Not Available>
Time,QuadTec 1,QuadTec 2,QuadTec 3,QuadTec 4,Conductivity
     0.0,0.000000,0.000000,0.000000,0.000000,  36.576
     0.2,0.000000,0.000000,0.000000,0.000000,  36.573
     0.4,0.000000,0.000000,0.000000,0.000000,  36.573
     0.6,0.000000,0.000000,0.000000,0.000000,  36.566
     0.8,0.000000,0.000000,0.000000,0.000000,  36.567
     1.0,0.000000,0.000000,0.000000,0.000000,  36.570
     1.2,0.000000,0.000000,0.000000,0.000000,  36.566
     1.4,0.000000,0.000000,0.000000,0.000000,  36.576
     1.6,0.000000,0.000000,0.000000,0.000000,  36.577
     1.8,0.000000,0.000000,0.000000,0.000000,  36.581
     2.0,0.000000,0.000000,0.000000,0.000000,  36.581
     2.2,0.000000,0.000000,0.000000,0.000000,  36.586
     2.4,0.000000,0.000000,0.000000,0.000000,  36.583
     2.6,0.000000,0.000000,0.000000,0.000000,  36.584
     2.8,0.000000,0.000000,0.000000,0.000000,  36.585
     3.0,0.000000,0.000000,0.000000,0.000000,  36.584
     3.2,0.000000,0.000000,0.000000,0.000000,  36.587
     3.4,0.000000,0.000000,0.000000,0.000000,  36.585
     3.6,-0.000047,-0.000097,0.000000,0.000000,  36.585
     3.8,-0.000090,-0.000106,0.000000,0.000000,  36.585
     4.0,-0.000110,-0.000115,0.000000,0.000000,  36.588
     4.2,-0.000132,-0.000122,0.000000,0.000000,  36.584
     4.4,-0.000134,-0.000134,0.000000,-0.000211,  36.582
     4.6,-0.000136,-0.000144,0.000460,-0.000260,  36.579
     4.8,-0.000153,-0.000156,0.000412,-0.000272,  36.584
     5.0,-0.000157,-0.000164,0.000383,-0.000250,  36.582
     5.2,-0.000173,-0.000178,0.000369,-0.000298,  36.583
     5.4,-0.000192,-0.000194,0.000379,-0.000311,  36.576
     5.6,-0.000202,-0.000208,0.000403,-0.000324,  36.572
     5.8,-0.000217,-0.000223,0.000449,-0.000360,  36.562
     6.0,-0.000234,-0.000230,0.000427,-0.000337,  36.558
     6.2,-0.000241,-0.000243,0.000370,-0.000363,  36.553
     6.4,-0.000252,-0.000248,0.000286,-0.000412,  36.553
     6.6,-0.000253,-0.000248,0.000233,-0.000425,  36.551
     6.8,-0.000240,-0.000244,0.000191,-0.000438,  36.551
     7.0,-0.000221,-0.000225,0.000143,-0.000487,  36.554
     7.2,-0.000191,-0.000190,0.000123,-0.000500,  36.552
     7.4,-0.000137,-0.000147,0.000123,-0.000464,  36.552
     7.6,-0.000071,-0.000116,0.000123,-0.000461,  36.546
     7.8,-0.000033,-0.000073,-0.000207,-0.000422,  36.544
     8.0,0.000018,-0.000035,-0.000697,-0.000334,  36.541
     8.2,0.000058,-0.000006,-0.001366,-0.000305,  36.540
     8.4,0.000087,0.000018,-0.001422,-0.000266,  36.527
     8.6,0.000096,0.000040,-0.001267,-0.000191,  36.528
     8.8,0.000118,0.000055,-0.000885,-0.000175,  36.526
     9.0,0.000118,0.000073,-0.000801,-0.000123,  36.520
     9.2,0.000133,0.000084,-0.000749,-0.000062,  36.523
     9.4,0.000160,0.000096,-0.000735,-0.000071,  36.524
     9.6,0.000181,0.000114,-0.000669,-0.000045,  36.528
     9.8,0.000195,0.000126,-0.000612,0.000003,  36.527
    10.0,0.000218,0.000133,-0.000556,-0.000006,  36.533
    10.2,0.000228,0.000145,-0.000558,0.000007,  36.534
    10.4,0.000235,0.000153,-0.000582,0.000055,  36.543
    10.6,0.000249,0.000152,-0.000640,0.000032,  36.549
    10.8,0.000261,0.000151,-0.000700,0.000058,  36.550
    11.0,0.000252,0.000145,-0.000752,0.000081,  36.551
    11.2,0.000245,0.000116,-0.000814,0.000081,  36.549
    11.4,0.000230,0.000083,-0.000782,0.000094,  36.544
    11.6,0.000193,0.000043,-0.000701,0.000058,  36.544
    11.8,0.000151,0.000006,-0.000573,0.000094,  36.550
    12.0,0.000093,-0.000028,-0.000515,0.000045,  36.550
    12.2,0.000045,-0.000055,-0.000469,0.000007,  36.547
    12.4,0.000003,-0.000087,-0.000458,-0.000010,  36.546
    12.6,-0.000035,-0.000110,-0.000394,-0.000084,  36.550
    12.8,-0.000076,-0.000131,-0.000320,-0.000136,  36.548
    13.0,-0.000105,-0.000159,-0.000242,-0.000165,  36.550
    13.2,-0.000136,-0.000175,-0.000138,-0.000240,  36.550
    13.4,-0.000169,-0.000192,-0.000068,-0.000279,  36.546
    13.6,-0.000186,-0.000212,-0.000018,-0.000282,  36.544
    13.8,-0.000210,-0.000230,0.000012,-0.000344,  36.540
    14.0,-0.000234,-0.000242,0.000058,-0.000370,  36.528
    14.2,-0.000241,-0.000252,0.000097,-0.000360,  36.513
    14.4,-0.000254,-0.000268,0.000113,-0.000409,  36.507
    14.6,-0.000276,-0.000278,0.000149,-0.000422,  36.502
    14.8,-0.000289,-0.000290,0.000189,-0.000412,  36.500
    15.0,-0.000308,-0.000289,0.000209,-0.000461,  36.502
    15.2,-0.000301,-0.000276,0.000241,-0.000474,  36.496
    15.4,-0.000270,-0.000254,0.000305,-0.000464,  36.494
    15.6,-0.000219,-0.000227,0.000364,-0.000500,  36.494
    15.8,-0.000181,-0.000183,0.000334,-0.000525,  36.494
    16.0,-0.000122,-0.000132,0.000271,-0.000490,  36.494
    16.2,-0.000055,-0.000096,0.000175,-0.000474,  36.490
    16.4,-0.000014,-0.000056,-0.000073,-0.000409,  36.485
    16.6,0.000034,-0.000019,-0.000418,-0.000295,  36.484
    16.8,0.000071,0.000004,-0.000850,-0.000279,  36.483
    17.0,0.000093,0.000025,-0.001425,-0.000214,  36.484
    17.2,0.000121,0.000041,-0.002124,-0.000152,  36.475
    17.4,0.000134,0.000061,-0.002945,-0.000149,  36.478
    17.6,0.000152,0.000075,-0.002933,-0.000110,  36.477
    17.8,0.000161,0.000091,-0.002551,-0.000049,  36.476
    18.0,0.000184,0.000109,-0.001823,-0.000058,  36.479
    18.2,0.000197,0.000124,-0.001559,-0.000032,  36.486
    18.4,0.000206,0.000143,-0.001368,0.000016,  36.490
    18.6,0.000228,0.000157,-0.001228,0.000007,  36.491
    18.8,0.000241,0.000172,-0.001084,0.000019,  36.498
    19.0,0.000245,0.000182,-0.000974,0.000068,  36.498
    19.2,0.000260,0.000182,-0.000892,0.000058,  36.498
    19.4,0.000262,0.000170,-0.000792,0.000058,  36.500
    19.6,0.000245,0.000154,-0.000716,0.000094,  36.498
    19.8,0.000231,0.000126,-0.000624,0.000058,  36.501
    20.0,0.000202,0.000091,-0.000580,0.000058,  36.497
    20.2,0.000159,0.000055,-0.000570,0.000081,  36.498
    20.4,0.000121,0.000019,-0.000576,0.000019,  36.498
    20.6,0.000068,-0.000013,-0.000512,-0.000006,  36.497
    20.8,0.000025,-0.000043,-0.000422,-0.000036,  36.501
    21.0,-0.000005,-0.000071,-0.000309,-0.000075,  36.503
    21.2,-0.000039,-0.000091,-0.000201,-0.000088,  36.504
    21.4,-0.000075,-0.000115,-0.000083,-0.000175,  36.499
    21.6,-0.000097,-0.000136,0.000045,-0.000165,  36.500
    21.8,-0.000123,-0.000160,0.000071,-0.000240,  36.502
    22.0,-0.000153,-0.000174,0.000063,-0.000279,  36.499
    22.2,-0.000170,-0.000194,0.000008,-0.000269,  36.490
    22.4,-0.000182,-0.000211,-0.000096,-0.000331,  36.490
    22.6,-0.000207,-0.000224,-0.000047,-0.000357,  36.481
    22.8,-0.000223,-0.000234,0.000012,-0.000347,  36.477
    23.0,-0.000229,-0.000251,0.000114,-0.000396,  36.470
    23.2,-0.000246,-0.000257,0.000182,-0.000422,  36.466
    23.4,-0.000259,-0.000264,0.000240,-0.000399,  36.465
    23.6,-0.000270,-0.000248,0.000284,-0.000448,  36.460
    23.8,-0.000248,-0.000228,0.000314,-0.000461,  36.462
    24.0,-0.000197,-0.000196,0.000324,-0.000451,  36.463
    24.2,-0.000136,-0.000164,0.000326,-0.000474,  36.458
    24.4,-0.000096,-0.000122,0.000302,-0.000474,  36.462
    24.6,-0.000039,-0.000080,0.000268,-0.000425,  36.463
    24.8,0.000005,-0.000045,0.000198,-0.000422,  36.460
    25.0,0.000038,-0.000012,0.000118,-0.000321,  36.454
    25.2,0.000075,0.000020,0.000024,-0.000234,  36.453
    25.4,0.000106,0.000039,-0.000094,-0.000217,  36.454
    25.6,0.000126,0.000059,-0.000122,-0.000165,  36.454
    25.8,0.000151,0.000075,-0.000105,-0.000114,  36.451
    26.0,0.000173,0.000090,-0.000049,-0.000097,  36.449
    26.2,0.000189,0.000110,-0.000036,-0.000084,  36.450
    26.4,0.000205,0.000124,-0.000028,-0.000023,  36.455
    26.6,0.000215,0.000135,-0.000028,-0.000032,  36.461
    26.8,0.000223,0.000149,-0.000048,-0.000019,  36.462
    27.0,0.000230,0.000157,-0.000098,0.000029,  36.464
    27.2,0.000237,0.000163,-0.000140,0.000007,  36.471
    27.4,0.000250,0.000170,-0.000150,0.000019,  36.469
    27.6,0.000252,0.000174,-0.000150,0.000068,  36.469
    27.8,0.000252,0.000159,-0.000156,0.000058,  36.475
    28.0,0.000256,0.000138,-0.000214,0.000071,  36.483
    28.2,0.000226,0.000109,-0.000291,0.000107,  36.482
    28.4,0.000192,0.000083,-0.000401,0.000071,  36.481
    28.6,0.000146,0.000045,-0.000387,0.000058,  36.480
    28.8,0.000100,0.000012,-0.000323,0.000055,  36.480
    29.0,0.000063,-0.000014,-0.000195,0.000029,  36.481
    29.2,0.000028,-0.000050,-0.000145,0.000003,  36.478
    29.4,-0.000013,-0.000076,-0.000113,-0.000071,  36.484
    29.6,-0.000044,-0.000102,-0.000090,-0.000088,  36.484
    29.8,-0.000072,-0.000124,-0.000160,-0.000162,  36.482
    30.0,-0.000107,-0.000140,-0.000295,-0.000201,  36.484
    30.2,-0.000127,-0.000160,-0.000471,-0.000204,  36.485
    30.4,-0.000147,-0.000181,-0.000706,-0.000266,  36.481
    30.6,-0.000173,-0.000192,-0.000604,-0.000292,  36.479
    30.8,-0.000189,-0.000210,-0.000420,-0.000295,  36.469
    31.0,-0.000205,-0.000222,-0.000139,-0.000344,  36.454
    31.2,-0.000227,-0.000234,-0.000007,-0.000357,  36.447
    31.4,-0.000235,-0.000240,0.000081,-0.000360,  36.450
    31.6,-0.000246,-0.000246,0.000141,-0.000409,  36.446
    31.8,-0.000253,-0.000250,0.000243,-0.000422,  36.442
    32.0,-0.000245,-0.000243,0.000355,-0.000412,  36.443
    32.2,-0.000232,-0.000221,0.000451,-0.000461,  36.439
    32.4,-0.000199,-0.000185,0.000504,-0.000461,  36.442
    32.6,-0.000147,-0.000135,0.000542,-0.000451,  36.437
    32.8,-0.000077,-0.000103,0.000572,-0.000461,  36.437
    33.0,-0.000034,-0.000061,0.000560,-0.000435,  36.439
    33.2,0.000013,-0.000024,0.000529,-0.000360,  36.438
    33.4,0.000055,0.000008,0.000483,-0.000331,  36.434
    33.6,0.000085,0.000040,0.000413,-0.000266,  36.435
    33.8,0.000123,0.000068,0.000325,-0.000178,  36.431
    34.0,0.000147,0.000085,0.000197,-0.000162,  36.430
    34.2,0.000164,0.000098,0.000137,-0.000097,  36.430
    34.4,0.000189,0.000109,0.000093,-0.000036,  36.429
    34.6,0.000202,0.000122,0.000064,-0.000045,  36.428
    34.8,0.000211,0.000136,0.000059,-0.000019,  36.429
    35.0,0.000231,0.000148,0.000067,0.000029,  36.432
    35.2,0.000241,0.000153,0.000091,0.000007,  36.436
    35.4,0.000252,0.000166,0.000061,0.000019,  36.440
    35.6,0.000256,0.000176,0.000007,0.000068,  36.446
    35.8,0.000267,0.000175,-0.000045,0.000045,  36.445
    36.0,0.000270,0.000180,-0.000113,0.000058,  36.447
    36.2,0.000264,0.000183,-0.000186,0.000081,  36.444
    36.4,0.000260,0.000160,-0.000256,0.000058,  36.448
    36.6,0.000246,0.000137,-0.000270,0.000071,  36.448
    36.8,0.000214,0.000098,-0.000262,0.000107,  36.450
    37.0,0.000184,0.000064,-0.000234,0.000071,  36.447
    37.2,0.000134,0.000039,-0.000190,0.000045,  36.452
    37.4,0.000091,0.000006,-0.000130,0.000042,  36.452
    37.6,0.000051,-0.000026,-0.000080,-0.000032,  36.452
    37.8,0.000012,-0.000049,-0.000122,-0.000071,  36.452
    38.0,-0.000026,-0.000073,-0.000187,-0.000088,  36.450
    38.2,-0.000057,-0.000094,-0.000319,-0.000175,  36.453
    38.4,-0.000077,-0.000116,-0.000280,-0.000214,  36.454
    38.6,-0.000110,-0.000131,-0.000156,-0.000217,  36.452
    38.8,-0.000133,-0.000151,0.000016,-0.000243,  36.450
    39.0,-0.000148,-0.000170,0.000128,-0.000269,  36.447
    39.2,-0.000173,-0.000181,0.000240,-0.000318,  36.438
    39.4,-0.000194,-0.000198,0.000343,-0.000295,  36.430
    39.6,-0.000206,-0.000209,0.000407,-0.000357,  36.423
    39.8,-0.000225,-0.000222,0.000445,-0.000383,  36.416
    40.0,-0.000238,-0.000225,0.000475,-0.000360,  36.416
    40.2,-0.000245,-0.000221,0.000475,-0.000409,  36.417
    40.4,-0.000243,-0.000210,0.000509,-0.000422,  36.413
    40.6,-0.000230,-0.000191,0.000555,-0.000412,  36.413
    40.8,-0.000200,-0.000157,0.000569,-0.000461,  36.413
    41.0,-0.000167,-0.000113,0.000583,-0.000461,  36.412
    41.2,-0.000120,-0.000086,0.000603,-0.000451,  36.411
    41.4,-0.000056,-0.000058,0.000607,-0.000461,  36.413
    41.6,-0.000018,-0.000041,0.000435,-0.000422,  36.416
    41.8,0.000021,-0.000015,0.000202,-0.000321,  36.411
    42.0,0.000062,0.000004,-0.000134,-0.000305,  36.408
    42.2,0.000087,0.000025,-0.000200,-0.000253,  36.408
    42.4,0.000110,0.000052,-0.000173,-0.000165,  36.407
    42.6,0.000135,0.000063,-0.000071,-0.000149,  36.405
    42.8,0.000150,0.000081,-0.000068,-0.000110,  36.406
    43.0,0.000165,0.000089,-0.000070,-0.000049,  36.403
    43.2,0.000178,0.000094,-0.000086,-0.000058,  36.407
    43.4,0.000188,0.000111,-0.000098,-0.000032,  36.414
    43.6,0.000201,0.000120,-0.000103,0.000016,  36.410
    43.8,0.000211,0.000122,-0.000118,0.000007,  36.418
    44.0,0.000215,0.000136,-0.000115,0.000019,  36.424
    44.2,0.000223,0.000148,-0.000077,0.000068,  36.424
    44.4,0.000238,0.000149,-0.000029,0.000058,  36.422
    44.6,0.000232,0.000146,-0.000016,0.000058,  36.424
    44.8,0.000211,0.000140,-0.000012,0.000094,  36.421
    45.0,0.000183,0.000120,-0.000032,0.000071,  36.420
    45.2,0.000156,0.000090,-0.000471,0.000058,  36.426
    45.4,0.000130,0.000047,-0.001141,0.000094,  36.423
    45.6,0.000096,0.000012,-0.002033,0.000045,  36.422
    45.8,0.000066,-0.000020,-0.002007,-0.000006,  36.423
    46.0,0.000032,-0.000053,-0.001647,-0.000023,  36.425
    46.2,-0.000008,-0.000083,-0.000952,-0.000097,  36.427
    46.4,-0.000052,-0.000107,-0.000694,-0.000149,  36.424
    46.6,-0.000084,-0.000132,-0.000485,-0.000165,  36.428
    46.8,-0.000115,-0.000156,-0.000337,-0.000227,  36.429
    47.0,-0.000141,-0.000177,-0.000185,-0.000266,  36.430
    47.2,-0.000165,-0.000194,-0.000067,-0.000256,  36.425
    47.4,-0.000191,-0.000215,0.000017,-0.000318,  36.423
    47.6,-0.000212,-0.000229,0.000123,-0.000344,  36.416
    47.8,-0.000230,-0.000238,0.000215,-0.000334,  36.409
    48.0,-0.000246,-0.000252,0.000307,-0.000347,  36.404
    48.2,-0.000262,-0.000260,0.000342,-0.000360,  36.399
    48.4,-0.000275,-0.000266,0.000353,-0.000422,  36.393
    48.6,-0.000288,-0.000258,0.000317,-0.000412,  36.393
    48.8,-0.000301,-0.000246,0.000333,-0.000461,  36.395
    49.0,-0.000283,-0.000229,0.000343,-0.000474,  36.388
    49.2,-0.000245,-0.000200,0.000363,-0.000464,  36.383
    49.4,-0.000189,-0.000163,0.000377,-0.000500,  36.379
    49.6,-0.000151,-0.000113,0.000387,-0.000512,  36.379
    49.8,-0.000101,-0.000081,0.000367,-0.000477,  36.379
    50.0,-0.000046,-0.000047,0.000351,-0.000461,  36.377
    50.2,-0.000008,-0.000013,0.000305,-0.000396,  36.373
    50.4,0.000032,0.000010,0.000223,-0.000295,  36.372
    50.6,0.000072,0.000027,0.000132,-0.000279,  36.373
    50.8,0.000095,0.000041,0.000066,-0.000214,  36.372
    51.0,0.000118,0.000048,0.000002,-0.000152,  36.366
    51.2,0.000140,0.000067,-0.000072,-0.000162,  36.363
    51.4,0.000150,0.000074,-0.000142,-0.000101,  36.363
    51.6,0.000165,0.000087,-0.000206,-0.000052,  36.363
    51.8,0.000182,0.000099,-0.000274,-0.000062,  36.365
    52.0,0.000186,0.000102,-0.000299,-0.000013,  36.372
    52.2,0.000197,0.000112,-0.000295,0.000013,  36.377
    52.4,0.000205,0.000124,-0.000271,0.000016,  36.383
    52.6,0.000213,0.000133,-0.000373,0.000065,  36.385
    52.8,0.000218,0.000144,-0.000532,0.000078,  36.383
    53.0,0.000218,0.000136,-0.000764,0.000055,  36.385
    53.2,0.000202,0.000125,-0.000755,0.000068,  36.382
    53.4,0.000171,0.000097,-0.000659,0.000068,  36.385
    53.6,0.000131,0.000069,-0.000467,0.000032,  36.387
    53.8,0.000095,0.000037,-0.000405,0.000032,  36.386
    54.0,0.000055,0.000002,-0.000381,0.000068,  36.383
    54.2,0.000015,-0.000032,-0.000365,0.000007,  36.381
    54.4,-0.000020,-0.000064,-0.000745,-0.000045,  36.381
    54.6,-0.000046,-0.000092,-0.001331,-0.000075,  36.383
    54.8,-0.000072,-0.000125,-0.002121,-0.000149,  36.386
    55.0,-0.000089,-0.000148,-0.002081,-0.000188,  36.382
    55.2,-0.000119,-0.000167,-0.001729,-0.000191,  36.387
    55.4,-0.000142,-0.000195,-0.001037,-0.000266,  36.385
    55.6,-0.000173,-0.000210,-0.000751,-0.000305,  36.381
    55.8,-0.000200,-0.000225,-0.000525,-0.000308,  36.376
    56.0,-0.000221,-0.000244,-0.000321,-0.000383,  36.374
    56.2,-0.000240,-0.000253,-0.000181,-0.000396,  36.365
    56.4,-0.000264,-0.000265,-0.000087,-0.000386,  36.357
    56.6,-0.000280,-0.000282,-0.000047,-0.000412,  36.352
    56.8,-0.000292,-0.000293,0.000049,-0.000425,  36.349
    57.0,-0.000309,-0.000307,0.000161,-0.000461,  36.342
    57.2,-0.000319,-0.000293,0.000278,-0.000438,  36.344
    57.4,-0.000325,-0.000266,0.000312,-0.000487,  36.341
    57.6,-0.000293,-0.000227,0.000313,-0.000487,  36.338
    57.8,-0.000249,-0.000191,0.000271,-0.000464,  36.337
    58.0,-0.000186,-0.000154,0.000261,-0.000474,  36.337
    58.2,-0.000136,-0.000113,0.000265,-0.000474,  36.333
    58.4,-0.000086,-0.000077,0.000238,-0.000425,  36.336
    58.6,-0.000039,-0.000046,0.000236,-0.000422,  36.332
    58.8,-0.000001,-0.000012,-0.000351,-0.000321,  36.338
    59.0,0.000033,0.000009,-0.001173,-0.000234,  36.330
    59.2,0.000065,0.000031,-0.002213,-0.000217,  36.329
    59.4,0.000093,0.000053,-0.002288,-0.000165,  36.326
    59.6,0.000114,0.000067,-0.001983,-0.000127,  36.316
    59.8,0.000137,0.000080,-0.001327,-0.000123,  36.312
    60.0,0.000159,0.000090,-0.001165,-0.000097,  36.312
    60.2,0.000172,0.000096,-0.001083,-0.000049,  36.320
    60.4,0.000182,0.000105,-0.001057,-0.000058,  36.324
    60.6,0.000186,0.000122,-0.000933,-0.000045,  36.330
    60.8,0.000199,0.000131,-0.000789,0.000003,  36.345
    61.0,0.000216,0.000137,-0.000647,-0.000006,  36.347
    61.2,0.000218,0.000143,-0.000553,0.000007,  36.348
    61.4,0.000218,0.000148,-0.000481,0.000055,  36.349
    61.6,0.000219,0.000130,-0.000438,0.000032,  36.351
    61.8,0.000186,0.000111,-0.000410,0.000058,  36.350
    62.0,0.000144,0.000075,-0.000420,0.000081,  36.349
    62.2,0.000096,0.000040,-0.000438,0.000032,  36.347
    62.4,0.000050,0.000006,-0.000693,0.000019,  36.350
    62.6,0.000011,-0.000030,-0.001087,0.000029,  36.347
    62.8,-0.000022,-0.000064,-0.001604,-0.000045,  36.347
    63.0,-0.000063,-0.000098,-0.001544,-0.000097,  36.348
    63.2,-0.000097,-0.000120,-0.001273,-0.000127,  36.347
    63.4,-0.000128,-0.000143,-0.000780,-0.000188,  36.349
    63.6,-0.000152,-0.000168,-0.000548,-0.000204,  36.345
    63.8,-0.000175,-0.000188,-0.000334,-0.000221,  36.344
    64.0,-0.000191,-0.000206,-0.000140,-0.000282,  36.345
    64.2,-0.000207,-0.000221,-0.000032,-0.000285,  36.341
    64.4,-0.000228,-0.000240,0.000018,-0.000311,  36.332
    64.6,-0.000246,-0.000258,0.000026,-0.000360,  36.323
    64.8,-0.000264,-0.000268,0.000094,-0.000350,  36.297
    65.0,-0.000278,-0.000281,0.000182,-0.000363,  36.294
    65.2,-0.000293,-0.000291,0.000270,-0.000412,  36.291
    65.4,-0.000306,-0.000291,0.000334,-0.000389,  36.282
    65.6,-0.000306,-0.000283,0.000382,-0.000415,  36.287
    65.8,-0.000297,-0.000261,0.000412,-0.000428,  36.281
    66.0,-0.000280,-0.000228,0.000470,-0.000464,  36.280
    66.2,-0.000250,-0.000181,0.000523,-0.000454,  36.281
    66.4,-0.000191,-0.000146,0.000581,-0.000454,  36.280
    66.6,-0.000126,-0.000104,0.000521,-0.000451,  36.279
    66.8,-0.000082,-0.000064,0.000403,-0.000412,  36.273
    67.0,-0.000038,-0.000033,0.000237,-0.000373,  36.275
    67.2,0.000007,0.000002,0.000163,-0.000344,  36.270
    67.4,0.000040,0.000035,0.000111,-0.000292,  36.270
    67.6,0.000071,0.000056,0.000081,-0.000191,  36.272
    67.8,0.000104,0.000078,0.000053,-0.000175,  36.265
    68.0,0.000123,0.000091,-0.000430,-0.000136,  36.264
    68.2,0.000144,0.000101,-0.001110,-0.000075,  36.260
    68.4,0.000167,0.000112,-0.001975,-0.000084,  36.261
    68.6,0.000176,0.000120,-0.002001,-0.000058,  36.268
    68.8,0.000186,0.000127,-0.001710,-0.000010,  36.275
    69.0,0.000198,0.000137,-0.001075,-0.000032,  36.280
    69.2,0.000205,0.000143,-0.000893,-0.000019,  36.287
    69.4,0.000215,0.000148,-0.000767,0.000029,  36.296
    69.6,0.000226,0.000150,-0.000713,0.000007,  36.294
    69.8,0.000226,0.000155,-0.000733,0.000019,  36.296
    70.0,0.000218,0.000156,-0.000825,0.000055,  36.297
    70.2,0.000209,0.000125,-0.000993,0.000032,  36.298
    70.4,0.000171,0.000093,-0.000935,0.000058,  36.300
    70.6,0.000126,0.000050,-0.000825,0.000081,  36.301
    70.8,0.000071,0.000020,-0.000637,0.000032,  36.298
    71.0,0.000032,-0.000013,-0.000511,0.000019,  36.300
    71.2,-0.000008,-0.000042,-0.000393,0.000016,  36.299
    71.4,-0.000044,-0.000068,-0.000275,-0.000045,  36.296
    71.6,-0.000076,-0.000096,-0.000240,-0.000097,  36.296
    71.8,-0.000110,-0.000122,-0.000236,-0.000127,  36.297
    72.0,-0.000135,-0.000146,-0.000269,-0.000188,  36.301
    72.2,-0.000156,-0.000171,-0.000185,-0.000227,  36.301
    72.4,-0.000174,-0.000179,-0.000065,-0.000243,  36.297
    72.6,-0.000196,-0.000198,0.000115,-0.000305,  36.302
    72.8,-0.000200,-0.000219,0.000184,-0.000344,  36.285
    73.0,-0.000224,-0.000232,0.000233,-0.000347,  36.273
    73.2,-0.000231,-0.000248,0.000249,-0.000396,  36.264
    73.4,-0.000243,-0.000262,0.000283,-0.000422,  36.250
    73.6,-0.000262,-0.000270,0.000313,-0.000412,  36.241
    73.8,-0.000277,-0.000270,0.000327,-0.000461,  36.236
    74.0,-0.000286,-0.000263,0.000390,-0.000461,  36.232
    74.2,-0.000279,-0.000252,0.000458,-0.000451,  36.229
    74.4,-0.000262,-0.000227,0.000540,-0.000487,  36.228
    74.6,-0.000237,-0.000188,0.000540,-0.000512,  36.224
    74.8,-0.000199,-0.000141,0.000472,-0.000490,  36.223
    75.0,-0.000144,-0.000108,0.000381,-0.000464,  36.218
    75.2,-0.000081,-0.000072,0.000302,-0.000425,  36.213
    75.4,-0.000034,-0.000033,0.000208,-0.000409,  36.214
    75.6,0.000008,-0.000003,0.000104,-0.000321,  36.214
    75.8,0.000047,0.000024,0.000038,-0.000305,  36.214
    76.0,0.000081,0.000040,-0.000028,-0.000253,  36.213
    76.2,0.000108,0.000059,-0.000068,-0.000165,  36.212
    76.4,0.000131,0.000079,-0.000098,-0.000149,  36.205
    76.6,0.000146,0.000099,-0.000129,-0.000110,  36.204
    76.8,0.000164,0.000114,-0.000129,-0.000097,  36.206
    77.0,0.000175,0.000122,-0.000145,-0.000071,  36.208
    77.2,0.000181,0.000131,-0.000157,-0.000045,  36.217
    77.4,0.000194,0.000145,-0.000163,-0.000032,  36.232
    77.6,0.000211,0.000155,-0.000163,-0.000006,  36.238
    77.8,0.000222,0.000160,-0.000177,-0.000006,  36.243
    78.0,0.000230,0.000165,-0.000205,0.000007,  36.248
    78.2,0.000238,0.000154,-0.000263,0.000019,  36.248
    78.4,0.000230,0.000149,-0.000229,0.000045,  36.247
    78.6,0.000211,0.000131,-0.000181,0.000045,  36.250
    78.8,0.000180,0.000110,-0.000115,0.000045,  36.249
    79.0,0.000146,0.000074,-0.000072,0.000058,  36.246
    79.2,0.000097,0.000030,-0.000034,0.000045,  36.250
    79.4,0.000045,0.000002,0.000010,0.000032,  36.251
    79.6,0.000006,-0.000027,0.000050,-0.000006,  36.249
    79.8,-0.000035,-0.000054,0.000096,-0.000058,  36.250
    80.0,-0.000062,-0.000075,0.000133,-0.000084,  36.249
    80.2,-0.000091,-0.000106,0.000169,-0.000136,  36.251
    80.4,-0.000124,-0.000135,0.000221,-0.000175,  36.254
    80.6,-0.000146,-0.000162,0.000246,-0.000201,  36.256
    80.8,-0.000167,-0.000176,0.000248,-0.000240,  36.262
    81.0,-0.000195,-0.000187,0.000236,-0.000279,  36.262
    81.2,-0.000209,-0.000205,0.000205,-0.000305,  36.252
    81.4,-0.000225,-0.000217,0.000211,-0.000331,  36.229
    81.6,-0.000235,-0.000233,0.000231,-0.000357,  36.216
    81.8,-0.000249,-0.000252,0.000267,-0.000370,  36.205
    82.0,-0.000256,-0.000258,0.000311,-0.000396,  36.201
    82.2,-0.000268,-0.000269,0.000359,-0.000409,  36.200
    82.4,-0.000279,-0.000264,0.000433,-0.000409,  36.196
    82.6,-0.000286,-0.000245,0.000467,-0.000422,  36.195
    82.8,-0.000267,-0.000213,0.000497,-0.000448,  36.192
    83.0,-0.000232,-0.000184,0.000513,-0.000448,  36.193
    83.2,-0.000185,-0.000145,0.000507,-0.000448,  36.192
    83.4,-0.000150,-0.000097,0.000483,-0.000461,  36.179
    83.6,-0.000098,-0.000067,0.000429,-0.000422,  36.182
    83.8,-0.000043,-0.000037,0.000383,-0.000357,  36.176
    84.0,-0.000007,-0.000003,0.000317,-0.000279,  36.176
    84.2,0.000029,0.000018,0.000226,-0.000227,  36.176
    84.4,0.000067,0.000041,0.000166,-0.000201,  36.181
    84.6,0.000099,0.000061,0.000102,-0.000162,  36.174
    84.8,0.000122,0.000073,0.000018,-0.000149,  36.174
    85.0,0.000141,0.000090,-0.000008,-0.000133,  36.173
    85.2,0.000162,0.000101,0.000000,-0.000107,  36.172
    85.4,0.000175,0.000111,0.000029,-0.000081,  36.173
    85.6,0.000188,0.000121,0.000071,-0.000091,  36.182
    85.8,0.000201,0.000129,0.000075,-0.000078,  36.192
    86.0,0.000209,0.000137,0.000059,-0.000042,  36.201
    86.2,0.000214,0.000136,0.000035,-0.000029,  36.216
    86.4,0.000222,0.000142,-0.000269,-0.000016,  36.221
    86.6,0.000224,0.000140,-0.000702,-0.000003,  36.223
    86.8,0.000222,0.000127,-0.001294,0.000023,  36.225
    87.0,0.000204,0.000111,-0.001376,0.000023,  36.219
    87.2,0.000172,0.000093,-0.001270,0.000023,  36.222
    87.4,0.000125,0.000065,-0.000986,0.000023,  36.219
    87.6,0.000088,0.000031,-0.000828,0.000010,  36.225
    87.8,0.000042,-0.000011,-0.000640,-0.000016,  36.222
    88.0,0.000000,-0.000040,-0.000438,-0.000042,  36.220
    88.2,-0.000036,-0.000070,-0.000292,-0.000081,  36.221
    88.4,-0.000074,-0.000103,-0.000164,-0.000146,  36.220
    88.6,-0.000103,-0.000129,-0.000054,-0.000198,  36.223
    88.8,-0.000134,-0.000150,0.000054,-0.000237,  36.223
    89.0,-0.000161,-0.000172,0.000142,-0.000276,  36.223
    89.2,-0.000187,-0.000196,0.000206,-0.000315,  36.222
    89.4,-0.000208,-0.000212,0.000252,-0.000341,  36.227
    89.6,-0.000226,-0.000228,0.000263,-0.000367,  36.217
    89.8,-0.000247,-0.000241,0.000241,-0.000380,  36.203
    90.0,-0.000263,-0.000253,0.000285,-0.000393,  36.193
    90.2,-0.000280,-0.000262,0.000333,-0.000431,  36.176
    90.4,-0.000284,-0.000270,0.000391,-0.000444,  36.173
    90.6,-0.000292,-0.000277,0.000440,-0.000457,  36.172
    90.8,-0.000294,-0.000294,0.000488,-0.000483,  36.174
    91.0,-0.000301,-0.000278,0.000522,-0.000496,  36.167
    91.2,-0.000298,-0.000244,0.000518,-0.000509,  36.167
    91.4,-0.000264,-0.000200,0.000490,-0.000535,  36.167
    91.6,-0.000223,-0.000169,0.000445,-0.000522,  36.169
    91.8,-0.000154,-0.000127,0.000401,-0.000509,  36.171
    92.0,-0.000113,-0.000084,0.000355,-0.000470,  36.166
    92.2,-0.000069,-0.000059,0.000305,-0.000418,  36.166
    92.4,-0.000027,-0.000033,0.000268,-0.000354,  36.165
    92.6,0.000003,-0.000005,0.000240,-0.000289,  36.164
    92.8,0.000032,0.000010,0.000207,-0.000250,  36.156
    93.0,0.000061,0.000030,0.000117,-0.000198,  36.166
    93.2,0.000081,0.000047,0.000010,-0.000221,  36.161
    93.4,0.000097,0.000061,-0.000130,-0.000159,  36.158
    93.6,0.000116,0.000079,-0.000198,-0.000182,  36.152
    93.8,0.000125,0.000089,-0.000258,-0.000156,  36.156
    94.0,0.000139,0.000096,-0.000266,-0.000107,  36.166
    94.2,0.000156,0.000107,-0.000286,-0.000081,  36.169
    94.4,0.000157,0.000109,-0.000268,-0.000055,  36.186
    94.6,0.000162,0.000112,-0.000231,-0.000055,  36.189
    94.8,0.000171,0.000120,-0.000175,-0.000042,  36.189
    95.0,0.000165,0.000116,-0.000185,-0.000042,  36.193
    95.2,0.000169,0.000120,-0.000229,-0.000042,  36.196
    95.4,0.000167,0.000104,-0.000285,-0.000029,  36.193
    95.6,0.000138,0.000074,-0.000291,-0.000016,  36.194
    95.8,0.000096,0.000034,-0.000273,-0.000016,  36.193
    96.0,0.000050,0.000000,-0.000225,-0.000016,  36.190
    96.2,0.000007,-0.000029,-0.000219,-0.000029,  36.192
    96.4,-0.000035,-0.000065,-0.000237,-0.000068,  36.192
    96.6,-0.000074,-0.000101,-0.000258,-0.000094,  36.193
    96.8,-0.000105,-0.000123,-0.000198,-0.000159,  36.190
    97.0,-0.000139,-0.000152,-0.000114,-0.000211,  36.194
    97.2,-0.000164,-0.000178,-0.000006,-0.000237,  36.193
    97.4,-0.000191,-0.000195,0.000062,-0.000289,  36.191
    97.6,-0.000221,-0.000213,0.000136,-0.000328,  36.188
    97.8,-0.000240,-0.000233,0.000200,-0.000354,  36.194
    98.0,-0.000261,-0.000245,0.000240,-0.000393,  36.183
    98.2,-0.000286,-0.000259,0.000266,-0.000431,  36.173
    98.4,-0.000301,-0.000273,0.000268,-0.000444,  36.156
    98.6,-0.000314,-0.000285,0.000283,-0.000457,  36.150
    98.8,-0.000322,-0.000295,0.000299,-0.000483,  36.141
    99.0,-0.000330,-0.000300,0.000285,-0.000496,  36.138
    99.2,-0.000335,-0.000296,0.000323,-0.000496,  36.141
    99.4,-0.000324,-0.000288,0.000386,-0.000509,  36.137
    99.6,-0.000309,-0.000262,0.000468,-0.000522,  36.136
    99.8,-0.000282,-0.000229,0.000468,-0.000548,  36.134
   100.0,-0.000247,-0.000177,0.000430,-0.000561,  36.136
   100.2,-0.000192,-0.000143,0.000367,-0.000522,  36.136
   100.4,-0.000129,-0.000103,0.000279,-0.000483,  36.134
   100.6,-0.000082,-0.000061,0.000173,-0.000431,  36.136
   100.8,-0.000040,-0.000034,0.000031,-0.000367,  36.133
   101.0,0.000001,-0.000002,-0.000069,-0.000315,  36.135
   101.2,0.000032,0.000022,-0.000133,-0.000263,  36.133
   101.4,0.000049,0.000037,-0.000199,-0.000224,  36.134
   101.6,0.000074,0.000055,-0.000216,-0.000185,  36.135
   101.8,0.000098,0.000072,-0.000198,-0.000208,  36.132
   102.0,0.000116,0.000084,-0.000166,-0.000159,  36.133
   102.2,0.000138,0.000095,-0.000210,-0.000169,  36.133
   102.4,0.000154,0.000107,-0.000282,-0.000143,  36.138
   102.6,0.000170,0.000117,-0.000392,-0.000081,  36.145
   102.8,0.000178,0.000120,-0.000520,-0.000055,  36.159
   103.0,0.000188,0.000125,-0.000564,-0.000042,  36.166
   103.2,0.000196,0.000129,-0.000588,-0.000042,  36.169
   103.4,0.000201,0.000128,-0.000598,-0.000029,  36.172
   103.6,0.000198,0.000124,-0.000552,-0.000029,  36.174
   103.8,0.000185,0.000120,-0.000462,-0.000029,  36.177
   104.0,0.000168,0.000097,-0.000332,-0.000016,  36.172
   104.2,0.000137,0.000061,-0.000275,-0.000003,  36.175
   104.4,0.000088,0.000018,-0.000223,-0.000016,  36.174
   104.6,0.000031,-0.000016,-0.000199,-0.000029,  36.178
   104.8,-0.000009,-0.000052,-0.000155,-0.000055,  36.178
   105.0,-0.000045,-0.000084,-0.000101,-0.000094,  36.176
   105.2,-0.000082,-0.000112,-0.000055,-0.000133,  36.177
   105.4,-0.000113,-0.000133,0.000015,-0.000172,  36.178
   105.6,-0.000145,-0.000155,0.000079,-0.000224,  36.171
   105.8,-0.000176,-0.000179,0.000154,-0.000250,  36.177
   106.0,-0.000197,-0.000196,0.000176,-0.000289,  36.179
   106.2,-0.000221,-0.000218,0.000168,-0.000328,  36.177
   106.4,-0.000242,-0.000236,0.000117,-0.000354,  36.172
   106.6,-0.000260,-0.000248,0.000171,-0.000393,  36.165
   106.8,-0.000279,-0.000260,0.000268,-0.000418,  36.156
   107.0,-0.000297,-0.000276,0.000398,-0.000431,  36.145
   107.2,-0.000310,-0.000286,0.000428,-0.000457,  36.142
   107.4,-0.000324,-0.000298,0.000434,-0.000470,  36.137
   107.6,-0.000328,-0.000294,0.000421,-0.000483,  36.140
   107.8,-0.000331,-0.000273,0.000456,-0.000496,  36.136
   108.0,-0.000310,-0.000245,0.000490,-0.000509,  36.140
   108.2,-0.000281,-0.000218,0.000538,-0.000522,  36.138
   108.4,-0.000239,-0.000177,0.000538,-0.000535,  36.140
   108.6,-0.000195,-0.000125,0.000504,-0.000548,  36.139
   108.8,-0.000140,-0.000092,0.000446,-0.000496,  36.137
   109.0,-0.000076,-0.000052,0.000400,-0.000467,  36.136
   109.2,-0.000031,-0.000016,0.000344,-0.000389,  36.136
   109.4,-0.000001,0.000007,0.000266,-0.000324,  36.140
   109.6,0.000040,0.000032,0.000177,-0.000308,  36.138
   109.8,0.000071,0.000053,0.000069,-0.000234,  36.139
   110.0,0.000088,0.000069,-0.000054,-0.000195,  36.144
   110.2,0.000116,0.000081,-0.000098,-0.000169,  36.146
   110.4,0.000134,0.000098,-0.000127,-0.000143,  36.146
   110.6,0.000143,0.000107,-0.000123,-0.000143,  36.145
   110.8,0.000160,0.000118,-0.000215,-0.000152,  36.154
   111.0,0.000176,0.000129,-0.000342,-0.000117,  36.160
   111.2,0.000180,0.000136,-0.000502,-0.000068,  36.162
   111.4,0.000192,0.000138,-0.000684,-0.000055,  36.173
   111.6,0.000200,0.000142,-0.000684,-0.000055,  36.177
   111.8,0.000198,0.000142,-0.000652,-0.000042,  36.173
   112.0,0.000205,0.000130,-0.000550,-0.000042,  36.177
   112.2,0.000189,0.000120,-0.000512,-0.000042,  36.177
   112.4,0.000157,0.000102,-0.000474,-0.000042,  36.175
   112.6,0.000126,0.000081,-0.000434,-0.000042,  36.178
   112.8,0.000092,0.000052,-0.000400,-0.000042,  36.179
   113.0,0.000049,0.000019,-0.000380,-0.000042,  36.180
   113.2,0.000008,-0.000014,-0.000364,-0.000068,  36.183
   113.4,-0.000028,-0.000045,-0.000310,-0.000107,  36.183
   113.6,-0.000069,-0.000077,-0.000240,-0.000172,  36.184
   113.8,-0.000099,-0.000103,-0.000165,-0.000198,  36.187
   114.0,-0.000125,-0.000127,-0.000052,-0.000237,  36.187
   114.2,-0.000158,-0.000148,0.000070,-0.000289,  36.185
   114.4,-0.000179,-0.000172,0.000206,-0.000302,  36.190
   114.6,-0.000200,-0.000193,0.000266,-0.000341,  36.185
   114.8,-0.000224,-0.000208,0.000272,-0.000380,  36.185
   115.0,-0.000244,-0.000221,0.000235,-0.000406,  36.182
   115.2,-0.000260,-0.000242,0.000255,-0.000418,  36.174
   115.4,-0.000276,-0.000259,0.000275,-0.000457,  36.163
   115.6,-0.000289,-0.000271,0.000307,-0.000483,  36.158
   115.8,-0.000299,-0.000282,0.000351,-0.000496,  36.157
   116.0,-0.000311,-0.000290,0.000399,-0.000509,  36.152
   116.2,-0.000313,-0.000277,0.000457,-0.000522,  36.144
   116.4,-0.000315,-0.000245,0.000481,-0.000535,  36.140
   116.6,-0.000284,-0.000203,0.000507,-0.000535,  36.144
   116.8,-0.000237,-0.000167,0.000517,-0.000509,  36.141
   117.0,-0.000176,-0.000121,0.000487,-0.000509,  36.140
   117.2,-0.000124,-0.000070,0.000443,-0.000496,  36.140
   117.4,-0.000074,-0.000035,0.000375,-0.000444,  36.138
   117.6,-0.000024,-0.000006,0.000353,-0.000380,  36.137
   117.8,0.000020,0.000025,0.000330,-0.000315,  36.134
   118.0,0.000057,0.000055,0.000312,-0.000263,  36.137
   118.2,0.000088,0.000071,0.000252,-0.000211,  36.130
   118.4,0.000118,0.000091,0.000178,-0.000172,  36.130
   118.6,0.000146,0.000108,0.000086,-0.000133,  36.132
   118.8,0.000163,0.000118,0.000042,-0.000094,  36.131
   119.0,0.000181,0.000131,0.000012,-0.000117,  36.129
   119.2,0.000193,0.000140,0.000002,-0.000081,  36.139
   119.4,0.000202,0.000150,-0.000034,-0.000091,  36.141
   119.6,0.000209,0.000159,-0.000062,-0.000078,  36.143
   119.8,0.000213,0.000162,-0.000090,-0.000029,  36.152
   120.0,0.000225,0.000164,-0.000090,-0.000016,  36.156
   120.2,0.000230,0.000159,-0.000086,0.000010,  36.163
   120.4,0.000221,0.000140,-0.000058,0.000010,  36.163
   120.6,0.000216,0.000121,-0.000024,0.000010,  36.162
   120.8,0.000192,0.000088,0.000025,-0.000013,  36.162
   121.0,0.000144,0.000067,0.000063,-0.000026,  36.165
   121.2,0.000098,0.000045,0.000117,-0.000026,  36.165
   121.4,0.000061,0.000015,0.000135,-0.000075,  36.159
   121.6,0.000015,-0.000006,0.000171,-0.000065,  36.168
   121.8,-0.000015,-0.000033,0.000197,-0.000104,  36.167
   122.0,-0.000049,-0.000067,0.000271,-0.000178,  36.166
   122.2,-0.000087,-0.000094,0.000350,-0.000208,  36.166
   122.4,-0.000112,-0.000115,0.000440,-0.000247,  36.163
   122.6,-0.000136,-0.000141,0.000462,-0.000286,  36.162
   122.8,-0.000168,-0.000162,0.000450,-0.000289,  36.160
   123.0,-0.000185,-0.000179,0.000395,-0.000315,  36.161
   123.2,-0.000204,-0.000195,0.000421,-0.000354,  36.162
   123.4,-0.000229,-0.000211,0.000455,-0.000393,  36.156
   123.6,-0.000240,-0.000227,0.000505,-0.000418,  36.148
   123.8,-0.000254,-0.000241,0.000549,-0.000444,  36.142
   124.0,-0.000270,-0.000250,0.000593,-0.000470,  36.137
   124.2,-0.000275,-0.000258,0.000643,-0.000470,  36.135
   124.4,-0.000271,-0.000260,0.000677,-0.000483,  36.138
   124.6,-0.000265,-0.000258,0.000701,-0.000496,  36.140
   124.8,-0.000254,-0.000237,0.000721,-0.000509,  36.141
   125.0,-0.000243,-0.000200,0.000725,-0.000509,  36.138
   125.2,-0.000201,-0.000146,0.000721,-0.000522,  36.142
   125.4,-0.000145,-0.000109,0.000707,-0.000496,  36.145
   125.6,-0.000089,-0.000070,0.000689,-0.000470,  36.141
   125.8,-0.000039,-0.000022,0.000698,-0.000431,  36.145
   126.0,0.000002,0.000007,0.000690,-0.000331,  36.146
   126.2,0.000053,0.000039,0.000610,-0.000279,  36.146
   126.4,0.000087,0.000072,0.000508,-0.000227,  36.147
   126.6,0.000109,0.000089,0.000373,-0.000140,  36.142
   126.8,0.000139,0.000104,0.000309,-0.000088,  36.146
   127.0,0.000163,0.000117,0.000265,-0.000097,  36.144
   127.2,0.000178,0.000126,0.000241,-0.000071,  36.149
   127.4,0.000202,0.000140,0.000249,-0.000032,  36.149
   127.6,0.000221,0.000148,0.000288,-0.000068,  36.152
   127.8,0.000227,0.000160,0.000340,-0.000055,  36.159
   128.0,0.000233,0.000170,0.000354,-0.000065,  36.163
   128.2,0.000240,0.000178,0.000378,-0.000052,  36.164
   128.4,0.000246,0.000177,0.000378,-0.000016,  36.169
   128.6,0.000246,0.000174,0.000368,-0.000003,  36.175
   128.8,0.000243,0.000170,0.000324,0.000023,  36.173
   129.0,0.000223,0.000144,0.000262,0.000010,  36.175
   129.2,0.000210,0.000106,0.000185,0.000023,  36.178
   129.4,0.000175,0.000070,0.000199,0.000023,  36.175
   129.6,0.000136,0.000041,0.000248,0.000023,  36.174
   129.8,0.000083,0.000010,0.000330,0.000010,  36.175
   130.0,0.000040,-0.000010,0.000370,-0.000016,  36.177
   130.2,0.000010,-0.000032,0.000410,-0.000055,  36.179
   130.4,-0.000027,-0.000060,0.000451,-0.000081,  36.179
   130.6,-0.000065,-0.000081,0.000521,-0.000169,  36.176
   130.8,-0.000096,-0.000107,0.000611,-0.000221,  36.181
   131.0,-0.000125,-0.000126,0.000705,-0.000247,  36.178
   131.2,-0.000152,-0.000155,0.000794,-0.000334,  36.179
   131.4,-0.000167,-0.000175,0.000888,-0.000337,  36.179
   131.6,-0.000179,-0.000193,0.000976,-0.000363,  36.173
   131.8,-0.000201,-0.000206,0.000996,-0.000438,  36.174
   132.0,-0.000213,-0.000216,0.000983,-0.000428,  36.169
   132.2,-0.000231,-0.000227,0.000943,-0.000454,  36.160
   132.4,-0.000251,-0.000239,0.000953,-0.000503,  36.156
   132.6,-0.000252,-0.000251,0.000979,-0.000493,  36.152
   132.8,-0.000260,-0.000246,0.000999,-0.000493,  36.152
   133.0,-0.000255,-0.000235,0.001033,-0.000542,  36.151
   133.2,-0.000245,-0.000222,0.001087,-0.000532,  36.146
   133.4,-0.000223,-0.000195,0.001125,-0.000545,  36.145
   133.6,-0.000197,-0.000154,0.001145,-0.000594,  36.147
   133.8,-0.000156,-0.000105,0.001151,-0.000571,  36.145
   134.0,-0.000092,-0.000066,0.001137,-0.000545,  36.148
   134.2,-0.000024,-0.000027,0.001121,-0.000506,  36.147
   134.4,0.000022,0.000011,0.001077,-0.000406,  36.143
   134.6,0.000075,0.000033,0.001017,-0.000341,  36.144
   134.8,0.000117,0.000060,0.001015,-0.000289,  36.144
   135.0,0.000148,0.000086,0.001029,-0.000237,  36.143
   135.2,0.000183,0.000105,0.001063,-0.000185,  36.145
   135.4,0.000201,0.000124,0.001039,-0.000146,  36.141
   135.6,0.000218,0.000149,0.001001,-0.000120,  36.144
   135.8,0.000246,0.000167,0.000946,-0.000094,  36.144
   136.0,0.000262,0.000170,0.000783,-0.000068,  36.146
   136.2,0.000271,0.000177,0.000546,-0.000055,  36.150
   136.4,0.000293,0.000189,0.000237,-0.000042,  36.153
   136.6,0.000306,0.000198,0.000273,-0.000029,  36.159
   136.8,0.000313,0.000209,0.000419,-0.000065,  36.166
   137.0,0.000321,0.000207,0.000696,-0.000029,  36.164
   137.2,0.000326,0.000199,0.000881,-0.000052,  36.168
   137.4,0.000312,0.000188,0.001064,-0.000052,  36.167
   137.6,0.000293,0.000167,0.001293,-0.000039,  36.168
   137.8,0.000271,0.000132,0.001510,-0.000039,  36.166
   138.0,0.000236,0.000089,0.001566,-0.000088,  36.168
   138.2,0.000196,0.000062,0.001550,-0.000065,  36.166
   138.4,0.000153,0.000035,0.001471,-0.000104,  36.167
   138.6,0.000112,0.000019,0.001575,-0.000178,  36.167
   138.8,0.000078,-0.000002,0.001742,-0.000195,  36.165
   139.0,0.000051,-0.000027,0.001963,-0.000247,  36.166
   139.2,0.000018,-0.000046,0.002077,-0.000299,  36.170
   139.4,-0.000006,-0.000071,0.002163,-0.000302,  36.168
   139.6,-0.000020,-0.000091,0.002221,-0.000328,  36.166
   139.8,-0.000045,-0.000104,0.002311,-0.000367,  36.167
   140.0,-0.000061,-0.000120,0.002406,-0.000393,  36.171
   140.2,-0.000074,-0.000138,0.002490,-0.000418,  36.166
   140.4,-0.000093,-0.000147,0.002585,-0.000431,  36.154
   140.6,-0.000097,-0.000156,0.002679,-0.000457,  36.155
   140.8,-0.000101,-0.000171,0.002774,-0.000470,  36.145
   141.0,-0.000116,-0.000180,0.002873,-0.000483,  36.145
   141.2,-0.000124,-0.000188,0.002981,-0.000509,  36.144
   141.4,-0.000122,-0.000171,0.003096,-0.000522,  36.145
   141.6,-0.000101,-0.000145,0.003268,-0.000535,  36.145
   141.8,-0.000070,-0.000105,0.003458,-0.000548,  36.146
   142.0,-0.000020,-0.000062,0.003685,-0.000500,  36.141
   142.2,0.000038,-0.000009,0.003759,-0.000512,  36.147
   142.4,0.000100,0.000047,0.003771,-0.000525,  36.144
   142.6,0.000177,0.000090,0.003720,-0.000438,  36.139
   142.8,0.000258,0.000135,0.003596,-0.000373,  36.144
   143.0,0.000314,0.000185,0.003424,-0.000331,  36.149
   143.2,0.000372,0.000226,0.003175,-0.000279,  36.147
   143.4,0.000428,0.000259,0.003218,-0.000214,  36.147
   143.6,0.000466,0.000291,0.003375,-0.000188,  36.149
   143.8,0.000508,0.000323,0.003655,-0.000185,  36.148
   144.0,0.000549,0.000345,0.003840,-0.000146,  36.147
   144.2,0.000579,0.000365,0.004026,-0.000120,  36.146
   144.4,0.000613,0.000387,0.004231,-0.000094,  36.154
   144.6,0.000651,0.000412,0.004392,-0.000068,  36.155
   144.8,0.000676,0.000431,0.004531,-0.000091,  36.159
   145.0,0.000703,0.000446,0.004649,-0.000055,  36.160
   145.2,0.000735,0.000463,0.004658,-0.000078,  36.165
   145.4,0.000747,0.000476,0.004613,-0.000078,  36.166
   145.6,0.000767,0.000470,0.004494,-0.000029,  36.171
   145.8,0.000781,0.000466,0.004311,-0.000016,  36.169
   146.0,0.000767,0.000444,0.004491,-0.000003,  36.171
   146.2,0.000752,0.000418,0.004800,-0.000016,  36.174
   146.4,0.000724,0.000388,0.005217,-0.000029,  36.171
   146.6,0.000693,0.000352,0.005476,-0.000029,  36.171
   146.8,0.000671,0.000330,0.005727,-0.000055,  36.172
   147.0,0.000639,0.000311,0.005974,-0.000081,  36.169
   147.2,0.000609,0.000290,0.006289,-0.000146,  36.173
   147.4,0.000592,0.000281,0.006606,-0.000211,  36.173
   147.6,0.000571,0.000267,0.006955,-0.000237,  36.174
   147.8,0.000549,0.000245,0.007221,-0.000289,  36.178
   148.0,0.000542,0.000234,0.007422,-0.000328,  36.175
   148.2,0.000529,0.000227,0.007591,-0.000354,  36.177
   148.4,0.000512,0.000213,0.007768,-0.000393,  36.176
   148.6,0.000507,0.000203,0.007932,-0.000431,  36.174
   148.8,0.000502,0.000202,0.008065,-0.000444,  36.172
   149.0,0.000495,0.000196,0.008232,-0.000457,  36.169
   149.2,0.000495,0.000194,0.008426,-0.000483,  36.159
   149.4,0.000504,0.000189,0.008613,-0.000496,  36.161
   149.6,0.000511,0.000189,0.008809,-0.000509,  36.159
   149.8,0.000524,0.000196,0.009022,-0.000535,  36.159
   150.0,0.000552,0.000224,0.009232,-0.000548,  36.161
   150.2,0.000596,0.000277,0.009311,-0.000561,  36.164
   150.4,0.000654,0.000346,0.009332,-0.000574,  36.168
   150.6,0.000728,0.000409,0.009305,-0.000561,  36.168
   150.8,0.000809,0.000474,0.009492,-0.000535,  36.168
   151.0,0.000896,0.000547,0.009760,-0.000509,  36.168
   151.2,0.000993,0.000613,0.010123,-0.000457,  36.161
   151.4,0.001095,0.000670,0.010465,-0.000406,  36.168
   151.6,0.001173,0.000725,0.010833,-0.000328,  36.168
   151.8,0.001249,0.000769,0.011223,-0.000263,  36.167
   152.0,0.001320,0.000812,0.011637,-0.000224,  36.169
   152.2,0.001379,0.000853,0.012077,-0.000198,  36.167
   152.4,0.001441,0.000888,0.012533,-0.000159,  36.167
   152.6,0.001491,0.000922,0.012957,-0.000120,  36.172
   152.8,0.001537,0.000956,0.013367,-0.000107,  36.173
   153.0,0.001591,0.000989,0.013777,-0.000081,  36.172
   153.2,0.001638,0.001018,0.014182,-0.000055,  36.177
   153.4,0.001677,0.001047,0.014573,-0.000042,  36.181
   153.6,0.001723,0.001073,0.014975,-0.000029,  36.179
   153.8,0.001762,0.001095,0.015301,-0.000016,  36.183
   154.0,0.001785,0.001114,0.015582,-0.000052,  36.181
   154.2,0.001812,0.001112,0.015839,-0.000016,  36.187
   154.4,0.001825,0.001100,0.015963,-0.000039,  36.185
   154.6,0.001819,0.001072,0.016026,-0.000039,  36.186
   154.8,0.001812,0.001054,0.015997,-0.000003,  36.189
   155.0,0.001783,0.001028,0.015887,-0.000016,  36.187
   155.2,0.001771,0.001004,0.016217,-0.000042,  36.189
   155.4,0.001762,0.000990,0.016679,-0.000081,  36.191
   155.6,0.001749,0.000971,0.017273,-0.000120,  36.192
   155.8,0.001741,0.000957,0.017680,-0.000159,  36.200
   156.0,0.001730,0.000947,0.018047,-0.000224,  36.197
   156.2,0.001720,0.000941,0.018385,-0.000263,  36.195
   156.4,0.001709,0.000935,0.018700,-0.000289,  36.196
   156.6,0.001712,0.000936,0.018997,-0.000341,  36.194
   156.8,0.001717,0.000938,0.019263,-0.000367,  36.199
   157.0,0.001719,0.000935,0.019585,-0.000393,  36.195
   157.2,0.001726,0.000946,0.019908,-0.000431,  36.189
   157.4,0.001737,0.000950,0.020268,-0.000444,  36.188
   157.6,0.001741,0.000952,0.020581,-0.000457,  36.183
   157.8,0.001752,0.000954,0.020859,-0.000483,  36.169
   158.0,0.001769,0.000974,0.021122,-0.000496,  36.172
   158.2,0.001799,0.000994,0.021410,-0.000509,  36.171
   158.4,0.001849,0.001017,0.021697,-0.000535,  36.165
   158.6,0.001919,0.001080,0.021975,-0.000535,  36.169
   158.8,0.002012,0.001161,0.022278,-0.000561,  36.164
   159.0,0.002133,0.001261,0.022560,-0.000561,  36.163
   159.2,0.002285,0.001344,0.022854,-0.000522,  36.167
   159.4,0.002400,0.001431,0.023317,-0.000483,  36.165
   159.6,0.002518,0.001526,0.023839,-0.000431,  36.165
   159.8,0.002646,0.001604,0.024453,-0.000367,  36.163
   160.0,0.002738,0.001679,0.025112,-0.000302,  36.164
   160.2,0.002817,0.001750,0.025863,-0.000250,  36.159
   160.4,0.002881,0.001809,0.026663,-0.000198,  36.157
   160.6,0.002928,0.001863,0.027416,-0.000146,  36.159
   160.8,0.003005,0.001917,0.028170,-0.000120,  36.158
   161.0,0.003084,0.001963,0.028936,-0.000094,  36.156
   161.2,0.003163,0.002011,0.029561,-0.000068,  36.158
   161.4,0.003231,0.002061,0.030135,-0.000055,  36.160
   161.6,0.003297,0.002101,0.030625,-0.000029,  36.164
   161.8,0.003367,0.002147,0.031193,-0.000016,  36.170
   162.0,0.003426,0.002186,0.031788,-0.000003,  36.170
   162.2,0.003490,0.002215,0.032363,0.000023,  36.172
   162.4,0.003554,0.002247,0.032958,0.000036,  36.173
   162.6,0.003590,0.002271,0.033576,0.000036,  36.175
   162.8,0.003624,0.002273,0.034183,0.000036,  36.174
   163.0,0.003649,0.002265,0.034734,0.000049,  36.175
   163.2,0.003653,0.002247,0.035238,0.000013,  36.171
   163.4,0.003653,0.002237,0.035706,0.000036,  36.172
   163.6,0.003647,0.002229,0.036092,-0.000013,  36.172
   163.8,0.003638,0.002214,0.036407,-0.000052,  36.175
   164.0,0.003635,0.002208,0.036658,-0.000081,  36.171
   164.2,0.003639,0.002206,0.036845,-0.000120,  36.173
   164.4,0.003638,0.002209,0.037219,-0.000159,  36.172
   164.6,0.003645,0.002211,0.037642,-0.000224,  36.175
   164.8,0.003665,0.002217,0.038114,-0.000263,  36.176
   165.0,0.003677,0.002231,0.038534,-0.000289,  36.176
   165.2,0.003693,0.002237,0.038936,-0.000341,  36.175
   165.4,0.003718,0.002249,0.039335,-0.000367,  36.167
   165.6,0.003733,0.002254,0.039755,-0.000393,  36.164
   165.8,0.003756,0.002265,0.040176,-0.000418,  36.157
   166.0,0.003778,0.002279,0.040614,-0.000431,  36.149
   166.2,0.003795,0.002295,0.041058,-0.000444,  36.146
   166.4,0.003825,0.002311,0.041502,-0.000457,  36.137
   166.6,0.003852,0.002350,0.041957,-0.000435,  36.139
   166.8,0.003919,0.002403,0.042380,-0.000448,  36.137
   167.0,0.004024,0.002465,0.042776,-0.000487,  36.135
   167.2,0.004143,0.002556,0.043151,-0.000487,  36.133
   167.4,0.004277,0.002666,0.043570,-0.000487,  36.134
   167.6,0.004445,0.002791,0.043984,-0.000522,  36.132
   167.8,0.004619,0.002897,0.044399,-0.000506,  36.134
   168.0,0.004767,0.003005,0.045217,-0.000454,  36.127
   168.2,0.004927,0.003116,0.046242,-0.000354,  36.127
   168.4,0.005073,0.003206,0.047442,-0.000289,  36.125
   168.6,0.005193,0.003291,0.048567,-0.000237,  36.127
   168.8,0.005317,0.003374,0.049723,-0.000198,  36.126
   169.0,0.005424,0.003454,0.050932,-0.000146,  36.129
   169.2,0.005517,0.003526,0.051987,-0.000120,  36.124
   169.4,0.005599,0.003594,0.052984,-0.000094,  36.125
   169.6,0.005659,0.003661,0.053922,-0.000068,  36.130
   169.8,0.005715,0.003727,0.054804,-0.000055,  36.130
   170.0,0.005800,0.003784,0.055625,-0.000042,  36.138
   170.2,0.005881,0.003842,0.056409,-0.000029,  36.146
   170.4,0.005971,0.003901,0.057216,-0.000016,  36.151
   170.6,0.006050,0.003963,0.057991,-0.000003,  36.154
   170.8,0.006138,0.004008,0.058772,0.000010,  36.154
   171.0,0.006232,0.004041,0.059515,0.000023,  36.155
   171.2,0.006284,0.004069,0.060214,0.000010,  36.156
   171.4,0.006327,0.004089,0.060897,0.000010,  36.153
   171.6,0.006359,0.004097,0.061575,0.000010,  36.159
   171.8,0.006390,0.004102,0.062242,-0.000003,  36.158
   172.0,0.006412,0.004108,0.062894,-0.000029,  36.157
   172.2,0.006422,0.004105,0.063511,-0.000081,  36.159
   172.4,0.006444,0.004112,0.064101,-0.000146,  36.159
   172.6,0.006465,0.004126,0.064673,-0.000185,  36.159
   172.8,0.006484,0.004136,0.065218,-0.000211,  36.154
   173.0,0.006506,0.004160,0.065728,-0.000273,  36.159
   173.2,0.006538,0.004178,0.066210,-0.000263,  36.160
   173.4,0.006576,0.004201,0.066652,-0.000311,  36.160
   173.6,0.006613,0.004228,0.067053,-0.000350,  36.159
   173.8,0.006647,0.004255,0.067426,-0.000354,  36.161
   174.0,0.006686,0.004285,0.067758,-0.000380,  36.155
   174.2,0.006732,0.004321,0.068248,-0.000406,  36.145
   174.4,0.006777,0.004353,0.068780,-0.000431,  36.142
   174.6,0.006811,0.004379,0.069341,-0.000444,  36.136
   174.8,0.006854,0.004409,0.069921,-0.000457,  36.138
   175.0,0.006894,0.004459,0.070519,-0.000470,  36.134
   175.2,0.006940,0.004513,0.071141,-0.000483,  36.131
   175.4,0.007048,0.004589,0.071476,-0.000496,  36.133
   175.6,0.007197,0.004669,0.071682,-0.000509,  36.131
   175.8,0.007388,0.004780,0.071752,-0.000509,  36.132
   176.0,0.007555,0.004908,0.072429,-0.000496,  36.132
   176.2,0.007741,0.005055,0.073319,-0.000470,  36.129
   176.4,0.007936,0.005179,0.074437,-0.000418,  36.129
   176.6,0.008112,0.005305,0.075700,-0.000367,  36.127
   176.8,0.008283,0.005428,0.077146,-0.000315,  36.123
   177.0,0.008456,0.005533,0.078770,-0.000276,  36.123
   177.2,0.008599,0.005630,0.080177,-0.000237,  36.123
   177.4,0.008735,0.005724,0.081577,-0.000224,  36.121
   177.6,0.008865,0.005809,0.082975,-0.000198,  36.119
   177.8,0.008981,0.005893,0.084300,-0.000172,  36.119
   178.0,0.009096,0.005973,0.085586,-0.000159,  36.119
   178.2,0.009207,0.006046,0.086853,-0.000146,  36.122
   178.4,0.009311,0.006120,0.087951,-0.000133,  36.125
   178.6,0.009415,0.006190,0.088934,-0.000133,  36.134
   178.8,0.009514,0.006257,0.089809,-0.000120,  36.138
   179.0,0.009603,0.006333,0.090774,-0.000107,  36.142
   179.2,0.009677,0.006403,0.091728,-0.000133,  36.143
   179.4,0.009749,0.006456,0.092648,-0.000146,  36.142
   179.6,0.009817,0.006508,0.093538,-0.000146,  36.146
   179.8,0.009904,0.006550,0.094430,-0.000172,  36.144
   180.0,0.010006,0.006619,0.095274,-0.000149,  36.139
   180.2,0.010114,0.006712,0.096139,-0.000175,  36.140
   180.4,0.010212,0.006815,0.096968,-0.000201,  36.141
   180.6,0.010319,0.006888,0.097793,-0.000201,  36.142
   180.8,0.010436,0.006958,0.098543,-0.000201,  36.141
   181.0,0.010534,0.007024,0.099226,-0.000250,  36.142
   181.2,0.010614,0.007083,0.099865,-0.000286,  36.138
   181.4,0.010684,0.007141,0.100537,-0.000273,  36.139
   181.6,0.010768,0.007193,0.101186,-0.000237,  36.139
   181.8,0.010841,0.007242,0.101829,-0.000237,  36.141
   182.0,0.010914,0.007299,0.102531,-0.000237,  36.135
   182.2,0.010974,0.007345,0.103252,-0.000273,  36.137
   182.4,0.011036,0.007388,0.103988,-0.000286,  36.127
   182.6,0.011102,0.007441,0.104648,-0.000321,  36.123
   182.8,0.011162,0.007488,0.105282,-0.000299,  36.112
   183.0,0.011236,0.007536,0.105903,-0.000311,  36.110
   183.2,0.011313,0.007582,0.106437,-0.000324,  36.099
   183.4,0.011365,0.007632,0.106908,-0.000373,  36.091
   183.6,0.011420,0.007677,0.107341,-0.000350,  36.087
   183.8,0.011466,0.007722,0.107704,-0.000337,  36.088
   184.0,0.011546,0.007768,0.108299,-0.000386,  36.080
   184.2,0.011648,0.007810,0.108934,-0.000363,  36.073
   184.4,0.011764,0.007848,0.109622,-0.000376,  36.072
   184.6,0.011879,0.007891,0.110613,-0.000438,  36.066
   184.8,0.012008,0.007928,0.111806,-0.000428,  36.062
   185.0,0.012152,0.007991,0.113176,-0.000467,  36.059
   185.2,0.012294,0.008072,0.114616,-0.000542,  36.055
   185.4,0.012451,0.008160,0.116176,-0.000558,  36.048
   185.6,0.012617,0.008241,0.117878,-0.000584,  36.042
   185.8,0.012759,0.008325,0.119584,-0.000658,  36.036
   186.0,0.012906,0.008408,0.121331,-0.000675,  36.024
   186.2,0.013050,0.008484,0.123151,-0.000688,  36.015
   186.4,0.013181,0.008560,0.124717,-0.000749,  36.009
   186.6,0.013316,0.008627,0.126142,-0.000752,  36.005
   186.8,0.013452,0.008695,0.127463,-0.000765,  36.008
   187.0,0.013573,0.008763,0.128698,-0.000814,  36.009
   187.2,0.013698,0.008835,0.129814,-0.000804,  36.013
   187.4,0.013819,0.008897,0.130823,-0.000830,  36.016
   187.6,0.013956,0.008950,0.132067,-0.000905,  36.013
   187.8,0.014114,0.009007,0.133378,-0.000908,  36.008
   188.0,0.014277,0.009135,0.134763,-0.000934,  36.002
   188.2,0.014499,0.009297,0.136060,-0.001008,  35.997
   188.4,0.014759,0.009499,0.137331,-0.001012,  35.992
   188.6,0.015052,0.009792,0.138609,-0.001012,  35.987
   188.8,0.015387,0.010145,0.139750,-0.001034,  35.987
   189.0,0.015732,0.010574,0.140797,-0.000973,  35.980
   189.2,0.016108,0.010852,0.141778,-0.000843,  35.975
   189.4,0.016508,0.011086,0.142879,-0.000697,  35.959
   189.6,0.016779,0.011286,0.144014,-0.000428,  35.963
   189.8,0.017002,0.011468,0.145152,-0.000286,  35.957
   190.0,0.017177,0.011613,0.146178,-0.000191,  35.951
   190.2,0.017364,0.011730,0.147177,-0.000039,  35.946
   190.4,0.017545,0.011855,0.148128,0.000052,  35.939
   190.6,0.017707,0.011964,0.149170,0.000068,  35.934
   190.8,0.017846,0.012055,0.150243,0.000130,  35.923
   191.0,0.017974,0.012154,0.151346,0.000156,  35.913
   191.2,0.018086,0.012257,0.152396,0.000182,  35.895
   191.4,0.018224,0.012355,0.153412,0.000195,  35.868
   191.6,0.018384,0.012412,0.154387,0.000195,  35.862
   191.8,0.018543,0.012442,0.155362,0.000159,  35.838
   192.0,0.018585,0.012449,0.156300,0.000182,  35.826
   192.2,0.018589,0.012401,0.157202,0.000192,  35.803
   192.4,0.018532,0.012312,0.157994,0.000205,  35.772
   192.6,0.018550,0.012180,0.158724,0.000218,  35.750
   192.8,0.018592,0.012138,0.159355,0.000257,  35.725
   193.0,0.018636,0.012115,0.159922,0.000153,  35.706
   193.2,0.018766,0.012121,0.161867,-0.000042,  35.667
   193.4,0.018959,0.012164,0.164336,-0.000302,  35.636
   193.6,0.019192,0.012238,0.167305,-0.000496,  35.618
   193.8,0.019448,0.012340,0.170101,-0.000717,  35.579
   194.0,0.019759,0.012471,0.173054,-0.000950,  35.547
   194.2,0.020099,0.012616,0.176167,-0.001092,  35.508
   194.4,0.020433,0.012792,0.179276,-0.001209,  35.456
   194.6,0.020803,0.012993,0.182474,-0.001313,  35.428
   194.8,0.021188,0.013189,0.185745,-0.001390,  35.386
   195.0,0.021570,0.013398,0.188856,-0.001442,  35.356
   195.2,0.021973,0.013617,0.191940,-0.001468,  35.321
   195.4,0.022381,0.013834,0.194982,-0.001494,  35.297
   195.6,0.022789,0.014057,0.198092,-0.001533,  35.279
   195.8,0.023218,0.014282,0.201224,-0.001545,  35.263
   196.0,0.023647,0.014516,0.204353,-0.001558,  35.237
   196.2,0.024114,0.014753,0.207398,-0.001558,  35.205
   196.4,0.024620,0.014991,0.210405,-0.001571,  35.178
   196.6,0.025147,0.015378,0.213348,-0.001571,  35.157
   196.8,0.025811,0.015843,0.216401,-0.001571,  35.137
   197.0,0.026572,0.016376,0.219516,-0.001558,  35.121
   197.2,0.027406,0.016871,0.222641,-0.001468,  35.103
   197.4,0.027976,0.017397,0.224716,-0.001351,  35.068
   197.6,0.028453,0.017938,0.226265,-0.001196,  35.057
   197.8,0.028840,0.018337,0.227294,-0.000963,  35.029
   198.0,0.029134,0.018675,0.229218,-0.000665,  35.004
   198.2,0.029549,0.018955,0.231300,-0.000341,  34.994
   198.4,0.029962,0.019238,0.233545,-0.000133,  34.958
   198.6,0.030362,0.019481,0.235688,0.000023,  34.942
   198.8,0.030740,0.019700,0.237865,0.000140,  34.925
   199.0,0.031121,0.019923,0.240053,0.000244,  34.890
   199.2,0.031482,0.020125,0.242705,0.000296,  34.858
   199.4,0.031819,0.020313,0.245579,0.000322,  34.805
   199.6,0.032156,0.020525,0.248679,0.000360,  34.770
   199.8,0.032467,0.020737,0.251547,0.000373,  34.719
   200.0,0.032827,0.020955,0.254392,0.000373,  34.662
   200.2,0.033212,0.021146,0.257190,0.000373,  34.595
   200.4,0.033614,0.021323,0.260321,0.000373,  34.518
   200.6,0.034041,0.021495,0.263617,0.000312,  34.463
   200.8,0.034492,0.021813,0.267061,0.000309,  34.386
   201.0,0.034976,0.022201,0.270544,0.000260,  34.318
   201.2,0.035660,0.022657,0.274124,0.000247,  34.242
   201.4,0.036472,0.023078,0.277764,0.000257,  34.135
   201.6,0.037406,0.023510,0.282741,0.000192,  34.076
   201.8,0.038226,0.023968,0.288487,0.000062,  33.985
   202.0,0.039057,0.024416,0.294984,-0.000094,  33.896
   202.2,0.039905,0.024868,0.302320,-0.000172,  33.812
   202.4,0.040735,0.025329,0.309716,-0.000237,  33.690
   202.6,0.041565,0.025819,0.317687,-0.000289,  33.611
   202.8,0.042403,0.026321,0.326250,-0.000302,  33.525
   203.0,0.043262,0.026842,0.333596,-0.000315,  33.422
   203.2,0.044143,0.027281,0.340615,-0.000315,  33.322
   203.4,0.045041,0.027675,0.347255,-0.000289,  33.231
   203.6,0.045920,0.028043,0.354253,-0.000263,  33.170
   203.8,0.046812,0.028371,0.361171,-0.000237,  33.107
   204.0,0.047710,0.028846,0.368054,-0.000185,  33.052
   204.2,0.048600,0.029356,0.375006,-0.000146,  33.009
   204.4,0.049495,0.029908,0.381945,-0.000094,  32.953
   204.6,0.050399,0.030354,0.388856,-0.000029,  32.909
   204.8,0.051114,0.030758,0.395556,0.000023,  32.850
   205.0,0.051746,0.031133,0.402115,0.000088,  32.813
   205.2,0.052293,0.031391,0.408544,0.000140,  32.778
   205.4,0.052712,0.031570,0.414662,0.000205,  32.734
   205.6,0.053041,0.031679,0.420553,0.000244,  32.705
   205.8,0.053264,0.031784,0.426221,0.000218,  32.670
   206.0,0.053492,0.031851,0.430731,0.000166,  32.629
   206.2,0.053679,0.031883,0.434491,0.000062,  32.596
   206.4,0.053803,0.031992,0.437519,-0.000029,  32.559
   206.6,0.053902,0.032127,0.439803,-0.000182,  32.531
   206.8,0.054187,0.032280,0.441264,-0.000311,  32.496
   207.0,0.054516,0.032457,0.441953,-0.000402,  32.462
   207.2,0.054900,0.032663,0.444476,-0.000480,  32.427
   207.4,0.055280,0.032894,0.447486,-0.000509,  32.389
   207.6,0.055688,0.033114,0.451039,-0.000561,  32.352
   207.8,0.056130,0.033347,0.454782,-0.000600,  32.296
   208.0,0.056562,0.033587,0.458913,-0.000639,  32.241
   208.2,0.057007,0.033822,0.463363,-0.000652,  32.174
   208.4,0.057474,0.034069,0.467667,-0.000714,  32.080
   208.6,0.057896,0.034311,0.472021,-0.000739,  32.012
   208.8,0.058312,0.034779,0.476468,-0.000752,  31.935
   209.0,0.058724,0.035373,0.481118,-0.000765,  31.855
   209.2,0.059595,0.036077,0.485917,-0.000743,  31.766
   209.4,0.060703,0.036779,0.490807,-0.000717,  31.666
   209.6,0.062047,0.037552,0.496509,-0.000665,  31.609
   209.8,0.063133,0.038377,0.502674,-0.000636,  31.516
   210.0,0.064217,0.038967,0.509288,-0.000558,  31.442
   210.2,0.065294,0.039477,0.515717,-0.000386,  31.362
   210.4,0.066123,0.039895,0.522209,-0.000078,  31.267
   210.6,0.066844,0.040282,0.528878,0.000247,  31.216
   210.8,0.067444,0.040621,0.535651,0.000481,  31.150
   211.0,0.068013,0.040895,0.542131,0.000640,  31.080
   211.2,0.068513,0.041186,0.548538,0.000858,  31.016
   211.4,0.068950,0.041463,0.554893,0.001001,  30.950
   211.6,0.069414,0.041720,0.560109,0.001069,  30.905
   211.8,0.069857,0.041938,0.564624,0.001183,  30.865
   212.0,0.070276,0.042131,0.568448,0.001287,  30.836
   212.2,0.070698,0.042300,0.572753,0.001317,  30.806
   212.4,0.071109,0.042439,0.576919,0.001405,  30.780
   212.6,0.071504,0.042651,0.580941,0.001470,  30.769
   212.8,0.071875,0.042883,0.584950,0.001509,  30.756
   213.0,0.072219,0.043133,0.588841,0.001571,  30.733
   213.2,0.072544,0.043202,0.592651,0.001623,  30.722
   213.4,0.072627,0.043191,0.596483,0.001649,  30.710
   213.6,0.072578,0.043102,0.600343,0.001675,  30.701
   213.8,0.072395,0.042830,0.604111,0.001662,  30.694
   214.0,0.072114,0.042438,0.607204,0.001597,  30.686
   214.2,0.071715,0.041912,0.609877,0.001492,  30.678
   214.4,0.071199,0.041568,0.612164,0.001271,  30.670
   214.6,0.070921,0.041255,0.613801,0.000985,  30.666
   214.8,0.070702,0.040964,0.614874,0.000594,  30.663
   215.0,0.070538,0.040800,0.615374,0.000283,  30.660
   215.2,0.070455,0.040727,0.615980,-0.000029,  30.655
   215.4,0.070430,0.040727,0.616415,-0.000367,  30.645
   215.6,0.070477,0.040712,0.616516,-0.000574,  30.643
   215.8,0.070585,0.040734,0.617383,-0.000739,  30.644
   216.0,0.070643,0.040792,0.618459,-0.000843,  30.639
   216.2,0.070726,0.040833,0.619758,-0.000934,  30.633
   216.4,0.070834,0.040891,0.621179,-0.001034,  30.623
   216.6,0.070951,0.040958,0.622820,-0.001037,  30.617
   216.8,0.071084,0.041021,0.624642,-0.001063,  30.605
   217.0,0.071251,0.041094,0.626320,-0.001138,  30.604
   217.2,0.071452,0.041166,0.628042,-0.001115,  30.605
   217.4,0.071674,0.041490,0.629814,-0.001115,  30.613
   217.6,0.071937,0.041939,0.631635,-0.001125,  30.624
   217.8,0.072439,0.042522,0.633433,-0.001076,  30.646
   218.0,0.073071,0.042931,0.635189,-0.000947,  30.667
   218.2,0.073847,0.043315,0.637738,-0.000788,  30.693
   218.4,0.074326,0.043686,0.640657,-0.000519,  30.725
   218.6,0.074715,0.043924,0.643914,-0.000311,  30.750
   218.8,0.075033,0.044094,0.646691,-0.000091,  30.793
   219.0,0.075248,0.044185,0.649270,0.000143,  30.832
   219.2,0.075369,0.044255,0.651768,0.000364,  30.884
   219.4,0.075403,0.044274,0.653472,0.000510,  30.946
   219.6,0.075428,0.044244,0.654804,0.000728,  30.984
   219.8,0.075400,0.044231,0.655565,0.000897,  31.048
   220.0,0.075335,0.044196,0.655960,0.001014,  31.105
   220.2,0.075282,0.044148,0.656536,0.001056,  31.169
   220.4,0.075207,0.044103,0.656892,0.001131,  31.235
   220.6,0.075129,0.044059,0.657067,0.001183,  31.275
   220.8,0.075067,0.044010,0.657248,0.001187,  31.328
   221.0,0.074995,0.043966,0.657203,0.001248,  31.365
   221.2,0.074933,0.043934,0.657034,0.001274,  31.411
   221.4,0.074833,0.043895,0.657000,0.001252,  31.458
   221.6,0.074705,0.043867,0.656933,0.001287,  31.477
   221.8,0.074562,0.043686,0.656832,0.001287,  31.514
   222.0,0.074285,0.043454,0.656923,0.001274,  31.542
   222.2,0.073924,0.043167,0.657053,0.001284,  31.564
   222.4,0.073483,0.042835,0.657262,0.001219,  31.594
   222.6,0.073083,0.042458,0.657341,0.001102,  31.612
   222.8,0.072661,0.042036,0.657329,0.000959,  31.644
   223.0,0.072215,0.041735,0.657227,0.000776,  31.667
   223.2,0.071912,0.041487,0.656734,0.000542,  31.699
   223.4,0.071668,0.041278,0.656022,0.000283,  31.720
   223.6,0.071489,0.041116,0.655104,0.000088,  31.737
   223.8,0.071319,0.041004,0.654350,-0.000120,  31.772
   224.0,0.071179,0.040939,0.653456,-0.000302,  31.789
   224.2,0.071090,0.040851,0.652609,-0.000406,  31.820
   224.4,0.070985,0.040775,0.651716,-0.000532,  31.851
   224.6,0.070886,0.040714,0.650720,-0.000584,  31.885
   224.8,0.070815,0.040649,0.649655,-0.000623,  31.924
   225.0,0.070751,0.040600,0.649249,-0.000697,  31.965
   225.2,0.070664,0.040551,0.649092,-0.000701,  32.023
   225.4,0.070581,0.040548,0.649161,-0.000714,  32.107
   225.6,0.070507,0.040574,0.648909,-0.000726,  32.173
   225.8,0.070535,0.040627,0.648581,-0.000717,  32.253
   226.0,0.070608,0.040692,0.648125,-0.000717,  32.337
   226.2,0.070751,0.040782,0.647792,-0.000726,  32.423
   226.4,0.070815,0.040895,0.647419,-0.000726,  32.524
   226.6,0.070861,0.040940,0.647003,-0.000623,  32.590
   226.8,0.070902,0.040970,0.646670,-0.000503,  32.688
   227.0,0.070880,0.040979,0.646343,-0.000286,  32.773
   227.2,0.070821,0.040946,0.646016,-0.000143,  32.866
   227.4,0.070723,0.040884,0.645299,-0.000023,  32.974
   227.6,0.070596,0.040789,0.644468,0.000156,  33.047
   227.8,0.070426,0.040674,0.643337,0.000260,  33.135
   228.0,0.070232,0.040544,0.642241,0.000338,  33.225
   228.2,0.070013,0.040393,0.641116,0.000377,  33.304
   228.4,0.069751,0.040246,0.639820,0.000390,  33.411
   228.6,0.069472,0.040093,0.638609,0.000406,  33.469
   228.8,0.069210,0.039938,0.637352,0.000481,  33.542
   229.0,0.068939,0.039790,0.636148,0.000494,  33.606
   229.2,0.068675,0.039641,0.634855,0.000533,  33.661
   229.4,0.068427,0.039495,0.633137,0.000510,  33.714
   229.6,0.068181,0.039356,0.631255,0.000533,  33.743
   229.8,0.067958,0.039213,0.629169,0.000546,  33.792
   230.0,0.067709,0.039082,0.627352,0.000523,  33.824
   230.2,0.067446,0.038932,0.625543,0.000546,  33.859
   230.4,0.067192,0.038769,0.623699,0.000533,  33.891
   230.6,0.066895,0.038608,0.622144,0.000484,  33.916
   230.8,0.066577,0.038439,0.620673,0.000507,  33.936
   231.0,0.066245,0.038241,0.619283,0.000442,  33.957
   231.2,0.065948,0.038031,0.618104,0.000364,  33.982
   231.4,0.065656,0.037802,0.617011,0.000309,  34.011
   231.6,0.065372,0.037635,0.616056,0.000218,  34.034
   231.8,0.065147,0.037491,0.614986,0.000127,  34.054
   232.0,0.064952,0.037367,0.613959,0.000010,  34.081
   232.2,0.064787,0.037241,0.612830,-0.000068,  34.102
   232.4,0.064602,0.037127,0.611698,-0.000169,  34.129
   232.6,0.064419,0.037030,0.610534,-0.000260,  34.149
   232.8,0.064243,0.036916,0.609298,-0.000311,  34.173
   233.0,0.064058,0.036801,0.608082,-0.000337,  34.197
   233.2,0.063863,0.036684,0.606876,-0.000341,  34.234
   233.4,0.063663,0.036575,0.605587,-0.000367,  34.274
   233.6,0.063487,0.036466,0.604330,-0.000380,  34.317
   233.8,0.063311,0.036368,0.603042,-0.000393,  34.378
   234.0,0.063141,0.036300,0.601673,-0.000406,  34.442
   234.2,0.063026,0.036252,0.599472,-0.000454,  34.502
   234.4,0.062944,0.036226,0.596835,-0.000454,  34.580
   234.6,0.062886,0.036134,0.593733,-0.000428,  34.628
   234.8,0.062862,0.036031,0.592444,-0.000451,  34.684
   235.0,0.062696,0.035905,0.591733,-0.000402,  34.742
   235.2,0.062487,0.035794,0.591686,-0.000337,  34.802
   235.4,0.062239,0.035679,0.589989,-0.000282,  34.868
   235.6,0.062024,0.035569,0.587737,-0.000156,  34.906
   235.8,0.061803,0.035450,0.585014,-0.000091,  34.961
   236.0,0.061576,0.035324,0.582798,-0.000062,  35.015
   236.2,0.061329,0.035189,0.580605,0.000039,  35.062
   236.4,0.061069,0.035025,0.578428,0.000078,  35.124
   236.6,0.060792,0.034842,0.576331,0.000081,  35.162
   236.8,0.060490,0.034634,0.574244,0.000143,  35.197
   237.0,0.060168,0.034451,0.572204,0.000156,  35.241
   237.2,0.059830,0.034275,0.569889,0.000182,  35.279
   237.4,0.059521,0.034103,0.567382,0.000182,  35.310
   237.6,0.059208,0.033926,0.564755,0.000195,  35.335
   237.8,0.058914,0.033762,0.562379,0.000172,  35.358
   238.0,0.058617,0.033605,0.560065,0.000221,  35.375
   238.2,0.058316,0.033449,0.557746,0.000221,  35.405
   238.4,0.058026,0.033297,0.555487,0.000234,  35.427
   238.6,0.057756,0.033151,0.553360,0.000198,  35.432
   238.8,0.057495,0.032990,0.551232,0.000234,  35.452
   239.0,0.057257,0.032824,0.549115,0.000234,  35.460
   239.2,0.057002,0.032653,0.547265,0.000185,  35.473
   239.4,0.056754,0.032522,0.545539,0.000195,  35.481
   239.6,0.056509,0.032401,0.543896,0.000156,  35.490
   239.8,0.056273,0.032303,0.542363,0.000055,  35.503
   240.0,0.056055,0.032219,0.540980,0.000013,  35.515
   240.2,0.055838,0.032106,0.539607,-0.000039,  35.524
   240.4,0.055647,0.031994,0.538451,-0.000127,  35.536
   240.6,0.055477,0.031884,0.537464,-0.000143,  35.543
   240.8,0.055329,0.031770,0.536581,-0.000182,  35.552
   241.0,0.055135,0.031654,0.535473,-0.000243,  35.571
   241.2,0.054938,0.031538,0.534288,-0.000260,  35.579
   241.4,0.054733,0.031420,0.533010,-0.000286,  35.589
   241.6,0.054530,0.031293,0.531651,-0.000347,  35.593
   241.8,0.054335,0.031169,0.530206,-0.000337,  35.607
   242.0,0.054127,0.031056,0.528632,-0.000350,  35.618
   242.2,0.053951,0.030936,0.527140,-0.000399,  35.640
   242.4,0.053800,0.030821,0.525608,-0.000376,  35.666
   242.6,0.053655,0.030715,0.524082,-0.000376,  35.684
   242.8,0.053459,0.030617,0.522505,-0.000412,  35.700
   243.0,0.053261,0.030526,0.520803,-0.000402,  35.731
   243.2,0.053038,0.030397,0.519046,-0.000389,  35.748
   243.4,0.052840,0.030252,0.517231,-0.000399,  35.768
   243.6,0.052638,0.030090,0.515376,-0.000337,  35.787
   243.8,0.052449,0.029949,0.513392,-0.000286,  35.804
   244.0,0.052257,0.029806,0.510738,-0.000234,  35.814
   244.2,0.052020,0.029667,0.507657,-0.000133,  35.841
   244.4,0.051781,0.029529,0.504214,-0.000081,  35.856
   244.6,0.051518,0.029384,0.501541,-0.000029,  35.869
   244.8,0.051241,0.029236,0.499067,-0.000003,  35.881
   245.0,0.050961,0.029072,0.496752,0.000023,  35.896
   245.2,0.050663,0.028892,0.494392,0.000049,  35.911
   245.4,0.050363,0.028703,0.492118,0.000062,  35.920
   245.6,0.050057,0.028537,0.489949,0.000088,  35.926
   245.8,0.049746,0.028376,0.487182,0.000101,  35.939
   246.0,0.049449,0.028218,0.484115,0.000114,  35.951
   246.2,0.049155,0.028059,0.480799,0.000140,  35.971
   246.4,0.048873,0.027900,0.478133,0.000153,  35.978
   246.6,0.048601,0.027743,0.475609,0.000153,  35.983
   246.8,0.048336,0.027592,0.473237,0.000166,  35.987
   247.0,0.048088,0.027450,0.470859,0.000166,  35.990
   247.2,0.047833,0.027316,0.468529,0.000130,  35.998
   247.4,0.047575,0.027182,0.466212,0.000166,  36.000
   247.6,0.047330,0.027056,0.464557,0.000117,  35.999
   247.8,0.047117,0.026945,0.463205,0.000104,  36.006
   248.0,0.046912,0.026823,0.462186,0.000114,  36.003
   248.2,0.046737,0.026701,0.461464,0.000075,  36.011
   248.4,0.046541,0.026592,0.459938,0.000023,  36.010
   248.6,0.046342,0.026485,0.458230,-0.000042,  36.011
   248.8,0.046156,0.026383,0.456380,-0.000094,  36.011
   249.0,0.045984,0.026291,0.455286,-0.000133,  36.015
   249.2,0.045821,0.026206,0.454478,-0.000159,  36.030
   249.4,0.045681,0.026124,0.453920,-0.000185,  36.029
   249.6,0.045510,0.026054,0.453007,-0.000224,  36.034
   249.8,0.045320,0.025984,0.452010,-0.000263,  36.033
   250.0,0.045131,0.025880,0.450971,-0.000276,  36.033
   250.2,0.044945,0.025757,0.449823,-0.000289,  36.033
   250.4,0.044744,0.025627,0.448593,-0.000315,  36.029
   250.6,0.044553,0.025533,0.447282,-0.000328,  36.033
   250.8,0.044396,0.025452,0.445848,-0.000328,  36.035
   251.0,0.044247,0.025383,0.444264,-0.000341,  36.037
   251.2,0.044126,0.025271,0.442614,-0.000341,  36.044
   251.4,0.043920,0.025142,0.441134,-0.000354,  36.052
   251.6,0.043676,0.024996,0.439659,-0.000380,  36.056
   251.8,0.043410,0.024857,0.438204,-0.000354,  36.056
   252.0,0.043172,0.024726,0.436205,-0.000315,  36.060
   252.2,0.042929,0.024594,0.433929,-0.000263,  36.063
   252.4,0.042701,0.024463,0.431407,-0.000224,  36.067
   252.6,0.042498,0.024337,0.428876,-0.000159,  36.069
   252.8,0.042316,0.024217,0.426162,-0.000107,  36.073
   253.0,0.042152,0.024082,0.423306,-0.000068,  36.084
   253.2,0.042008,0.023938,0.420854,-0.000029,  36.088
   253.4,0.041780,0.023796,0.418526,-0.000003,  36.090
   253.6,0.041522,0.023637,0.416288,0.000058,  36.095
   253.8,0.041251,0.023480,0.414057,0.000071,  36.101
   254.0,0.040983,0.023314,0.411899,0.000084,  36.103
   254.2,0.040700,0.023162,0.409804,0.000110,  36.109
   254.4,0.040422,0.023019,0.407498,0.000110,  36.114
   254.6,0.040166,0.022876,0.405121,0.000088,  36.117
   254.8,0.039912,0.022744,0.402657,0.000065,  36.123
   255.0,0.039680,0.022616,0.400337,0.000091,  36.123
   255.2,0.039453,0.022496,0.398036,0.000127,  36.131
   255.4,0.039229,0.022368,0.395753,0.000127,  36.128
   255.6,0.039026,0.022234,0.393599,0.000140,  36.129
   255.8,0.038805,0.022095,0.391517,0.000127,  36.136
   256.0,0.038578,0.021977,0.389499,0.000114,  36.137
   256.2,0.038361,0.021872,0.388071,0.000101,  36.132
   256.4,0.038177,0.021776,0.387007,0.000039,  36.130
   256.6,0.038008,0.021668,0.386212,0.000036,  36.130
   256.8,0.037866,0.021567,0.385314,-0.000039,  36.134
   257.0,0.037700,0.021463,0.384521,-0.000078,  36.129
   257.2,0.037534,0.021368,0.383790,-0.000143,  36.135
   257.4,0.037375,0.021285,0.383192,-0.000169,  36.134
   257.6,0.037229,0.021207,0.382240,-0.000243,  36.133
   257.8,0.037092,0.021115,0.381207,-0.000247,  36.138
   258.0,0.036958,0.021020,0.380080,-0.000273,  36.133
   258.2,0.036806,0.020925,0.379124,-0.000311,  36.133
   258.4,0.036647,0.020838,0.378182,-0.000315,  36.124
   258.6,0.036476,0.020760,0.377254,-0.000328,  36.121
   258.8,0.036310,0.020680,0.376155,-0.000341,  36.121
   259.0,0.036139,0.020608,0.374971,-0.000354,  36.112
   259.2,0.035965,0.020539,0.373695,-0.000331,  36.111
   259.4,0.035826,0.020480,0.372371,-0.000344,  36.115
   259.6,0.035695,0.020422,0.370997,-0.000370,  36.114
   259.8,0.035588,0.020323,0.369535,-0.000370,  36.115
   260.0,0.035411,0.020206,0.368252,-0.000383,  36.117
   260.2,0.035200,0.020069,0.367049,-0.000418,  36.118
   260.4,0.034979,0.019960,0.365831,-0.000402,  36.116
   260.6,0.034786,0.019854,0.363861,-0.000363,  36.116
   260.8,0.034589,0.019751,0.361527,-0.000263,  36.114
   261.0,0.034402,0.019647,0.358841,-0.000211,  36.118
   261.2,0.034223,0.019538,0.356607,-0.000146,  36.113
   261.4,0.034045,0.019429,0.354374,-0.000107,  36.115
   261.6,0.033869,0.019312,0.352191,-0.000068,  36.112
   261.8,0.033659,0.019197,0.350231,-0.000029,  36.112
   262.0,0.033427,0.019084,0.348413,-0.000003,  36.109
   262.2,0.033178,0.018952,0.346691,0.000023,  36.110
   262.4,0.032983,0.018819,0.344844,0.000049,  36.114
   262.6,0.032810,0.018680,0.342966,0.000062,  36.117
   262.8,0.032655,0.018557,0.341080,0.000088,  36.120
   263.0,0.032519,0.018449,0.339066,0.000101,  36.124
   263.2,0.032327,0.018347,0.336948,0.000101,  36.133
   263.4,0.032129,0.018240,0.334727,0.000114,  36.135
   263.6,0.031918,0.018148,0.332807,0.000140,  36.132
   263.8,0.031729,0.018054,0.330959,0.000127,  36.138
   264.0,0.031545,0.017941,0.329203,0.000127,  36.138
   264.2,0.031371,0.017833,0.327604,0.000140,  36.137
   264.4,0.031191,0.017714,0.326148,0.000127,  36.140
   264.6,0.031007,0.017615,0.324803,0.000101,  36.138
   264.8,0.030836,0.017532,0.323760,0.000075,  36.136
   265.0,0.030684,0.017459,0.322914,0.000010,  36.139
   265.2,0.030537,0.017370,0.322252,-0.000029,  36.134
   265.4,0.030414,0.017282,0.321477,-0.000068,  36.132
   265.6,0.030277,0.017195,0.320752,-0.000130,  36.134
   265.8,0.030139,0.017113,0.320054,-0.000169,  36.134
   266.0,0.030008,0.017038,0.319346,-0.000230,  36.131
   266.2,0.029881,0.016970,0.318686,-0.000234,  36.134
   266.4,0.029757,0.016891,0.318042,-0.000260,  36.133
   266.6,0.029642,0.016804,0.317432,-0.000286,  36.127
   266.8,0.029507,0.016726,0.316722,-0.000347,  36.120
   267.0,0.029360,0.016654,0.315925,-0.000337,  36.107
   267.2,0.029218,0.016584,0.315088,-0.000350,  36.103
   267.4,0.029084,0.016529,0.314182,-0.000412,  36.095
   267.6,0.028952,0.016472,0.313161,-0.000389,  36.091
   267.8,0.028824,0.016406,0.312113,-0.000402,  36.094
   268.0,0.028701,0.016345,0.311044,-0.000451,  36.090
   268.2,0.028583,0.016291,0.309922,-0.000428,  36.090
   268.4,0.028468,0.016211,0.308731,-0.000428,  36.083
   268.6,0.028326,0.016127,0.307575,-0.000428,  36.085
   268.8,0.028172,0.016037,0.306407,-0.000380,  36.087
   269.0,0.028001,0.015953,0.305188,-0.000328,  36.087
   269.2,0.027853,0.015885,0.303405,-0.000263,  36.087
   269.4,0.027701,0.015814,0.301315,-0.000198,  36.087
   269.6,0.027556,0.015736,0.298937,-0.000146,  36.086
   269.8,0.027408,0.015666,0.297120,-0.000107,  36.087
   270.0,0.027254,0.015592,0.295390,-0.000068,  36.084
   270.2,0.027106,0.015496,0.293809,-0.000016,  36.084
   270.4,0.026936,0.015392,0.291963,-0.000003,  36.089
   270.6,0.026746,0.015280,0.290037,0.000023,  36.084
   270.8,0.026560,0.015178,0.288028,0.000049,  36.092
   271.0,0.026409,0.015083,0.286462,0.000062,  36.095
   271.2,0.026272,0.014987,0.285058,0.000062,  36.103
   271.4,0.026159,0.014891,0.283795,0.000088,  36.112
   271.6,0.026056,0.014808,0.282324,0.000101,  36.115
   271.8,0.025899,0.014717,0.280853,0.000114,  36.122
   272.0,0.025735,0.014625,0.279337,0.000140,  36.122
   272.2,0.025562,0.014547,0.277937,0.000153,  36.127
   272.4,0.025407,0.014464,0.276598,0.000153,  36.126
   272.6,0.025251,0.014372,0.275324,0.000153,  36.123
   272.8,0.025108,0.014282,0.274298,0.000153,  36.129
   273.0,0.024972,0.014192,0.273386,0.000127,  36.128
   273.2,0.024832,0.014110,0.272606,0.000088,  36.130
   273.4,0.024711,0.014039,0.271917,0.000036,  36.128
   273.6,0.024597,0.013973,0.271321,-0.000042,  36.129
   273.8,0.024479,0.013897,0.270813,-0.000081,  36.125
   274.0,0.024383,0.013828,0.270255,-0.000107,  36.128
   274.2,0.024275,0.013753,0.269710,-0.000169,  36.123
   274.4,0.024155,0.013681,0.269177,-0.000159,  36.124
   274.6,0.024048,0.013614,0.268534,-0.000221,  36.121
   274.8,0.023943,0.013556,0.267831,-0.000260,  36.127
   275.0,0.023831,0.013491,0.267068,-0.000250,  36.119
   275.2,0.023735,0.013419,0.266509,-0.000263,  36.115
   275.4,0.023625,0.013355,0.266000,-0.000276,  36.107
   275.6,0.023510,0.013295,0.265565,-0.000315,  36.103
   275.8,0.023405,0.013226,0.265199,-0.000328,  36.098
   276.0,0.023313,0.013160,0.264495,-0.000341,  36.100
   276.2,0.023229,0.013109,0.263713,-0.000367,  36.099
   276.4,0.023162,0.013067,0.262798,-0.000367,  36.102
   276.6,0.023062,0.013030,0.261904,-0.000367,  36.101
   276.8,0.022951,0.013010,0.260950,-0.000380,  36.103
   277.0,0.022832,0.012959,0.259956,-0.000367,  36.104
   277.2,0.022718,0.012905,0.258904,-0.000328,  36.107
   277.4,0.022605,0.012847,0.257771,-0.000289,  36.109
   277.6,0.022492,0.012788,0.256617,-0.000237,  36.110
   277.8,0.022378,0.012737,0.255214,-0.000185,  36.117
   278.0,0.022264,0.012682,0.253691,-0.000133,  36.115
   278.2,0.022160,0.012628,0.252006,-0.000081,  36.121
   278.4,0.022038,0.012569,0.250719,-0.000029,  36.115
   278.6,0.021908,0.012504,0.249571,-0.000016,  36.123
   278.8,0.021773,0.012433,0.248539,0.000010,  36.125
   279.0,0.021638,0.012358,0.247397,0.000036,  36.127
   279.2,0.021494,0.012278,0.246252,0.000049,  36.131
   279.4,0.021348,0.012201,0.245099,0.000075,  36.131
   279.6,0.021219,0.012127,0.243873,0.000088,  36.136
   279.8,0.021090,0.012058,0.242592,0.000101,  36.139
   280.0,0.020963,0.011988,0.241234,0.000114,  36.146
   280.2,0.020858,0.011917,0.239984,0.000140,  36.155
   280.4,0.020765,0.011848,0.238772,0.000127,  36.156
   280.6,0.020685,0.011773,0.237540,0.000140,  36.156
   280.8,0.020614,0.011698,0.236409,0.000140,  36.158
   281.0,0.020496,0.011622,0.235287,0.000140,  36.158
   281.2,0.020364,0.011547,0.234225,0.000127,  36.160
   281.4,0.020218,0.011475,0.233518,0.000101,  36.162
   281.6,0.020103,0.011409,0.232983,0.000075,  36.163
   281.8,0.019995,0.011344,0.232625,0.000036,  36.164
   282.0,0.019899,0.011274,0.232159,-0.000016,  36.163
   282.2,0.019805,0.011222,0.231711,-0.000068,  36.159
   282.4,0.019708,0.011159,0.231297,-0.000094,  36.159
   282.6,0.019630,0.011101,0.230873,-0.000146,  36.160
   282.8,0.019539,0.011038,0.230465,-0.000198,  36.161
   283.0,0.019446,0.010984,0.230064,-0.000224,  36.158
   283.2,0.019359,0.010931,0.229545,-0.000237,  36.161
   283.4,0.019272,0.010886,0.228959,-0.000299,  36.158
   283.6,0.019187,0.010831,0.228306,-0.000276,  36.156
   283.8,0.019104,0.010772,0.227795,-0.000289,  36.147
   284.0,0.019014,0.010721,0.227318,-0.000328,  36.144
   284.2,0.018924,0.010680,0.226892,-0.000331,  36.138
   284.4,0.018833,0.010648,0.226479,-0.000331,  36.133
   284.6,0.018776,0.010629,0.225946,-0.000331,  36.136
   284.8,0.018729,0.010602,0.225364,-0.000380,  36.137
   285.0,0.018699,0.010569,0.224738,-0.000428,  36.136
   285.2,0.018631,0.010542,0.224063,-0.000428,  36.138
   285.4,0.018546,0.010512,0.223368,-0.000393,  36.144
   285.6,0.018445,0.010475,0.222618,-0.000367,  36.156
   285.8,0.018368,0.010445,0.221714,-0.000328,  36.161
   286.0,0.018297,0.010410,0.220700,-0.000263,  36.160
   286.2,0.018223,0.010374,0.219612,-0.000211,  36.169
   286.4,0.018144,0.010335,0.218555,-0.000146,  36.165
   286.6,0.018065,0.010302,0.217462,-0.000107,  36.170
   286.8,0.017980,0.010257,0.216329,-0.000068,  36.176
   287.0,0.017884,0.010207,0.215410,-0.000029,  36.178
   287.2,0.017777,0.010151,0.214543,-0.000003,  36.179
   287.4,0.017670,0.010099,0.213743,0.000023,  36.187
   287.6,0.017561,0.010043,0.212836,0.000036,  36.193
   287.8,0.017446,0.009979,0.211920,0.000049,  36.195
   288.0,0.017337,0.009925,0.210980,0.000075,  36.194
   288.2,0.017236,0.009873,0.210061,0.000075,  36.200
   288.4,0.017147,0.009820,0.209154,0.000088,  36.204
   288.6,0.017062,0.009762,0.208254,0.000101,  36.215
   288.8,0.016980,0.009711,0.207293,0.000114,  36.214
   289.0,0.016903,0.009663,0.206308,0.000101,  36.216
   289.2,0.016847,0.009596,0.205279,0.000101,  36.215
   289.4,0.016786,0.009527,0.204457,0.000114,  36.216
   289.6,0.016687,0.009450,0.203717,0.000101,  36.215
   289.8,0.016578,0.009387,0.203068,0.000075,  36.218
   290.0,0.016461,0.009327,0.202591,0.000049,  36.218
   290.2,0.016368,0.009271,0.202209,-0.000003,  36.217
   290.4,0.016277,0.009219,0.201939,-0.000042,  36.218
   290.6,0.016196,0.009164,0.201611,-0.000081,  36.221
   290.8,0.016120,0.009111,0.201268,-0.000133,  36.221
   291.0,0.016040,0.009061,0.200937,-0.000172,  36.223
   291.2,0.015975,0.009006,0.200620,-0.000198,  36.226
   291.4,0.015902,0.008954,0.200298,-0.000250,  36.223
   291.6,0.015819,0.008910,0.199987,-0.000276,  36.226
   291.8,0.015744,0.008863,0.199586,-0.000289,  36.229
   292.0,0.015674,0.008832,0.199138,-0.000350,  36.226
   292.2,0.015594,0.008790,0.198659,-0.000341,  36.226
   292.4,0.015527,0.008741,0.198323,-0.000389,  36.223
   292.6,0.015459,0.008702,0.198018,-0.000415,  36.227
   292.8,0.015387,0.008682,0.197770,-0.000393,  36.234
   293.0,0.015329,0.008669,0.197550,-0.000406,  36.234
   293.2,0.015288,0.008668,0.197104,-0.000418,  36.222
   293.4,0.015258,0.008657,0.196601,-0.000418,  36.219
   293.6,0.015245,0.008643,0.196043,-0.000406,  36.226
   293.8,0.015210,0.008626,0.195528,-0.000418,  36.229
   294.0,0.015164,0.008614,0.195014,-0.000418,  36.230
   294.2,0.015118,0.008600,0.194486,-0.000367,  36.227
   294.4,0.015080,0.008584,0.193681,-0.000315,  36.232
   294.6,0.015039,0.008568,0.192738,-0.000237,  36.234
   294.8,0.015001,0.008550,0.191629,-0.000172,  36.235
   295.0,0.014952,0.008528,0.190833,-0.000133,  36.239
   295.2,0.014895,0.008508,0.190128,-0.000094,  36.235
   295.4,0.014836,0.008471,0.189485,-0.000055,  36.236
   295.6,0.014765,0.008432,0.188856,-0.000029,  36.240
   295.8,0.014689,0.008396,0.188275,-0.000003,  36.238
   296.0,0.014602,0.008352,0.187740,0.000023,  36.241
   296.2,0.014526,0.008303,0.187074,0.000036,  36.238
   296.4,0.014451,0.008264,0.186353,0.000049,  36.238
   296.6,0.014369,0.008228,0.185584,0.000075,  36.234
   296.8,0.014296,0.008187,0.184845,0.000075,  36.234
   297.0,0.014223,0.008159,0.184101,0.000088,  36.233
   297.2,0.014150,0.008119,0.183343,0.000101,  36.226
   297.4,0.014085,0.008071,0.182662,0.000114,  36.228
   297.6,0.014023,0.008021,0.181979,0.000114,  36.229
   297.8,0.013966,0.007967,0.181306,0.000114,  36.231
   298.0,0.013909,0.007905,0.180752,0.000101,  36.227
   298.2,0.013833,0.007841,0.180250,0.000088,  36.229
   298.4,0.013752,0.007789,0.179811,0.000049,  36.229
   298.6,0.013663,0.007735,0.179294,0.000010,  36.227
   298.8,0.013590,0.007690,0.178744,-0.000042,  36.226
   299.0,0.013517,0.007644,0.178197,-0.000094,  36.223
   299.2,0.013446,0.007600,0.177939,-0.000133,  36.221
   299.4,0.013384,0.007563,0.177807,-0.000172,  36.222
   299.6,0.013325,0.007523,0.177807,-0.000198,  36.228
   299.8,0.013270,0.007480,0.177646,-0.000237,  36.224
   300.0,0.013214,0.007444,0.177454,-0.000276,  36.223
   300.2,0.013152,0.007409,0.177253,-0.000302,  36.223
   300.4,0.013089,0.007376,0.177034,-0.000328,  36.216
   300.6,0.013033,0.007344,0.176775,-0.000376,  36.221
   300.8,0.012979,0.007310,0.176491,-0.000367,  36.217
   301.0,0.012922,0.007276,0.176170,-0.000415,  36.212
   301.2,0.012873,0.007238,0.175832,-0.000441,  36.210
   301.4,0.012830,0.007226,0.175467,-0.000418,  36.204
   301.6,0.012790,0.007228,0.175183,-0.000418,  36.203
   301.8,0.012768,0.007240,0.174932,-0.000431,  36.204
   302.0,0.012755,0.007240,0.174697,-0.000431,  36.202
   302.2,0.012755,0.007240,0.174486,-0.000406,  36.204
   302.4,0.012744,0.007241,0.174191,-0.000393,  36.201
   302.6,0.012728,0.007241,0.173881,-0.000380,  36.200
   302.8,0.012709,0.007238,0.173563,-0.000328,  36.196
   303.0,0.012690,0.007238,0.173021,-0.000263,  36.194
   303.2,0.012665,0.007237,0.172353,-0.000185,  36.192
   303.4,0.012638,0.007229,0.171562,-0.000133,  36.186
   303.6,0.012606,0.007222,0.171029,-0.000094,  36.190
   303.8,0.012560,0.007205,0.170541,-0.000055,  36.187
   304.0,0.012518,0.007183,0.170119,-0.000016,  36.184
   304.2,0.012470,0.007159,0.169647,0.000010,  36.173
   304.4,0.012409,0.007120,0.169148,0.000010,  36.171
   304.6,0.012359,0.007092,0.168657,0.000036,  36.170
   304.8,0.012305,0.007062,0.168104,0.000062,  36.174
   305.0,0.012247,0.007032,0.167502,0.000062,  36.175
   305.2,0.012200,0.007004,0.166872,0.000088,  36.176
   305.4,0.012149,0.006978,0.166271,0.000088,  36.181
   305.6,0.012091,0.006950,0.165672,0.000088,  36.179
   305.8,0.012041,0.006913,0.165053,0.000101,  36.179
   306.0,0.011976,0.006872,0.164470,0.000114,  36.180
   306.2,0.011892,0.006824,0.163914,0.000114,  36.177
   306.4,0.011814,0.006776,0.163335,0.000101,  36.177
   306.6,0.011753,0.006722,0.163010,0.000088,  36.170
   306.8,0.011690,0.006674,0.162809,0.000075,  36.176
   307.0,0.011647,0.006630,0.162713,0.000036,  36.177
   307.2,0.011602,0.006578,0.162525,-0.000016,  36.177
   307.4,0.011536,0.006536,0.162328,-0.000081,  36.173
   307.6,0.011471,0.006493,0.162128,-0.000107,  36.170
   307.8,0.011413,0.006454,0.161954,-0.000159,  36.173
   308.0,0.011359,0.006418,0.161772,-0.000211,  36.170
   308.2,0.011302,0.006371,0.161598,-0.000237,  36.168
   308.4,0.011260,0.006335,0.161381,-0.000276,  36.166
   308.6,0.011209,0.006299,0.161147,-0.000302,  36.167
   308.8,0.011149,0.006261,0.160884,-0.000315,  36.161
   309.0,0.011099,0.006224,0.160368,-0.000354,  36.153
   309.2,0.011047,0.006192,0.159717,-0.000380,  36.139
   309.4,0.010990,0.006171,0.158933,-0.000406,  36.128
   309.6,0.010948,0.006152,0.158606,-0.000418,  36.123
   309.8,0.010924,0.006142,0.158427,-0.000467,  36.126
   310.0,0.010901,0.006142,0.158435,-0.000444,  36.127
   310.2,0.010902,0.006148,0.158578,-0.000480,  36.123
   310.4,0.010907,0.006167,0.158448,-0.000493,  36.122
   310.6,0.010905,0.006178,0.158284,-0.000470,  36.122
   310.8,0.010923,0.006186,0.158093,-0.000444,  36.120
   311.0,0.010929,0.006201,0.157786,-0.000406,  36.123
   311.2,0.010927,0.006207,0.157402,-0.000367,  36.119
   311.4,0.010925,0.006213,0.156950,-0.000315,  36.119
   311.6,0.010919,0.006221,0.156498,-0.000250,  36.117
   311.8,0.010908,0.006225,0.156027,-0.000185,  36.116
   312.0,0.010895,0.006219,0.155519,-0.000133,  36.111
   312.2,0.010869,0.006214,0.155179,-0.000094,  36.107
   312.4,0.010840,0.006200,0.154911,-0.000055,  36.107
   312.6,0.010802,0.006184,0.154702,-0.000003,  36.104
   312.8,0.010765,0.006165,0.154391,0.000010,  36.102
   313.0,0.010724,0.006143,0.154050,0.000023,  36.106
   313.2,0.010676,0.006123,0.153672,0.000049,  36.108
   313.4,0.010638,0.006103,0.153277,0.000062,  36.120
   313.6,0.010603,0.006083,0.152817,0.000062,  36.129
   313.8,0.010574,0.006058,0.152329,0.000075,  36.134
   314.0,0.010539,0.006038,0.151701,0.000075,  36.137
   314.2,0.010493,0.006022,0.150985,0.000075,  36.137
   314.4,0.010448,0.005981,0.150161,0.000088,  36.138
   314.6,0.010382,0.005933,0.149783,0.000088,  36.140
   314.8,0.010310,0.005880,0.149565,0.000088,  36.144
   315.0,0.010226,0.005830,0.149500,0.000088,  36.142
   315.2,0.010161,0.005784,0.149342,0.000062,  36.134
   315.4,0.010113,0.005740,0.149216,0.000023,  36.136
   315.6,0.010070,0.005697,0.149121,-0.000016,  36.140
   315.8,0.010044,0.005657,0.149033,-0.000068,  36.138
   316.0,0.009989,0.005623,0.148979,-0.000133,  36.139
   316.2,0.009942,0.005584,0.148953,-0.000172,  36.135
   316.4,0.009886,0.005551,0.148821,-0.000198,  36.134
   316.6,0.009837,0.005523,0.148672,-0.000250,  36.134
   316.8,0.009792,0.005492,0.148499,-0.000289,  36.134
   317.0,0.009752,0.005462,0.148353,-0.000302,  36.131
   317.2,0.009713,0.005438,0.148206,-0.000341,  36.127
   317.4,0.009667,0.005403,0.148074,-0.000367,  36.110
   317.6,0.009621,0.005376,0.147872,-0.000393,  36.096
   317.8,0.009584,0.005350,0.147648,-0.000418,  36.089
   318.0,0.009546,0.005337,0.147390,-0.000431,  36.083
   318.2,0.009502,0.005336,0.147188,-0.000444,  36.082
   318.4,0.009488,0.005351,0.146992,-0.000493,  36.075
   318.6,0.009493,0.005358,0.146810,-0.000470,  36.078
   318.8,0.009516,0.005374,0.146462,-0.000519,  36.079
   319.0,0.009529,0.005399,0.146048,-0.000532,  36.076
   319.2,0.009551,0.005411,0.145560,-0.000496,  36.075
   319.4,0.009569,0.005433,0.144993,-0.000470,  36.072
   319.6,0.009588,0.005455,0.144698,-0.000406,  36.074
   319.8,0.009604,0.005465,0.144430,-0.000341,  36.068
   320.0,0.009620,0.005476,0.144234,-0.000289,  36.073
   320.2,0.009623,0.005481,0.144030,-0.000224,  36.073
   320.4,0.009618,0.005482,0.143856,-0.000159,  36.070
   320.6,0.009604,0.005478,0.143676,-0.000120,  36.069
   320.8,0.009591,0.005476,0.143506,-0.000081,  36.063
   321.0,0.009569,0.005469,0.143322,-0.000055,  36.068
   321.2,0.009543,0.005456,0.143144,-0.000016,  36.066
   321.4,0.009518,0.005449,0.142891,0.000010,  36.067
   321.6,0.009489,0.005433,0.142588,0.000010,  36.076
   321.8,0.009457,0.005419,0.142256,0.000036,  36.080
   322.0,0.009435,0.005411,0.141882,0.000049,  36.089
   322.2,0.009414,0.005400,0.141446,0.000049,  36.095
   322.4,0.009395,0.005384,0.140972,0.000062,  36.100
   322.6,0.009360,0.005364,0.140655,0.000062,  36.101
   322.8,0.009320,0.005340,0.140399,0.000075,  36.103
   323.0,0.009267,0.005305,0.140178,0.000075,  36.103
   323.2,0.009210,0.005261,0.139889,0.000075,  36.106
   323.4,0.009146,0.005209,0.139598,0.000075,  36.101
   323.6,0.009074,0.005163,0.139293,0.000049,  36.098
   323.8,0.009023,0.005120,0.138640,0.000010,  36.102
   324.0,0.008971,0.005077,0.137795,-0.000042,  36.101
   324.2,0.008940,0.005039,0.136781,-0.000081,  36.103
   324.4,0.008902,0.005003,0.136440,-0.000133,  36.103
   324.6,0.008847,0.004963,0.136337,-0.000185,  36.100
   324.8,0.008796,0.004931,0.136473,-0.000211,  36.100
   325.0,0.008749,0.004904,0.136598,-0.000263,  36.096
   325.2,0.008706,0.004879,0.136842,-0.000315,  36.089
   325.4,0.008660,0.004848,0.137172,-0.000341,  36.091
   325.6,0.008623,0.004824,0.137305,-0.000367,  36.085
   325.8,0.008586,0.004798,0.137367,-0.000406,  36.074
   326.0,0.008545,0.004774,0.137393,-0.000418,  36.053
   326.2,0.008510,0.004750,0.137379,-0.000431,  36.048
   326.4,0.008480,0.004726,0.137317,-0.000457,  36.039
   326.6,0.008451,0.004726,0.137231,-0.000470,  36.023
   326.8,0.008427,0.004741,0.137096,-0.000483,  36.023
   327.0,0.008440,0.004773,0.136932,-0.000519,  36.021
   327.2,0.008467,0.004796,0.136744,-0.000496,  36.022
   327.4,0.008513,0.004823,0.136657,-0.000532,  36.023
   327.6,0.008545,0.004862,0.136625,-0.000532,  36.023
   327.8,0.008582,0.004889,0.136621,-0.000483,  36.018
   328.0,0.008623,0.004916,0.136666,-0.000444,  36.015
   328.2,0.008653,0.004940,0.136428,-0.000367,  36.022
   328.4,0.008673,0.004958,0.136100,-0.000289,  36.019
   328.6,0.008704,0.004972,0.135703,-0.000224,  36.018
   328.8,0.008717,0.004982,0.135444,-0.000172,  36.023
   329.0,0.008710,0.004988,0.135226,-0.000120,  36.024
   329.2,0.008705,0.004988,0.135028,-0.000068,  36.024
   329.4,0.008697,0.004984,0.134837,-0.000042,  36.021
   329.6,0.008686,0.004977,0.134641,-0.000029,  36.024
   329.8,0.008671,0.004971,0.134450,-0.000003,  36.022
   330.0,0.008653,0.004965,0.134192,0.000023,  36.031
   330.2,0.008628,0.004960,0.133866,0.000036,  36.041
   330.4,0.008610,0.004952,0.133519,0.000049,  36.053
   330.6,0.008591,0.004950,0.133172,0.000062,  36.067
   330.8,0.008566,0.004943,0.132812,0.000062,  36.075
   331.0,0.008551,0.004924,0.132431,0.000088,  36.075
   331.2,0.008516,0.004901,0.132078,0.000088,  36.078
   331.4,0.008464,0.004869,0.131738,0.000088,  36.078
   331.6,0.008415,0.004830,0.131418,0.000088,  36.079
   331.8,0.008364,0.004784,0.131104,0.000088,  36.085
   332.0,0.008301,0.004741,0.130795,0.000062,  36.077
   332.2,0.008252,0.004701,0.130478,0.000036,  36.081
   332.4,0.008206,0.004662,0.130420,-0.000016,  36.083
   332.6,0.008172,0.004625,0.130504,-0.000081,  36.078
   332.8,0.008134,0.004593,0.130694,-0.000120,  36.088
   333.0,0.008111,0.004558,0.130690,-0.000159,  36.083
   333.2,0.008062,0.004524,0.130682,-0.000224,  36.083
   333.4,0.008023,0.004498,0.130600,-0.000250,  36.081
   333.6,0.007978,0.004478,0.130540,-0.000289,  36.073
   333.8,0.007938,0.004456,0.130453,-0.000328,  36.077
   334.0,0.007900,0.004431,0.130353,-0.000354,  36.076
   334.2,0.007860,0.004404,0.130274,-0.000380,  36.064
   334.4,0.007828,0.004381,0.130182,-0.000393,  36.051
   334.6,0.007796,0.004357,0.130095,-0.000406,  36.040
   334.8,0.007767,0.004339,0.129955,-0.000431,  36.022
   335.0,0.007754,0.004320,0.129766,-0.000444,  36.019
   335.2,0.007748,0.004335,0.129555,-0.000457,  36.018
   335.4,0.007751,0.004366,0.129449,-0.000457,  36.016
   335.6,0.007778,0.004411,0.129372,-0.000506,  36.015
   335.8,0.007818,0.004445,0.129341,-0.000470,  36.018
   336.0,0.007871,0.004482,0.129199,-0.000493,  36.020
   336.2,0.007914,0.004520,0.129010,-0.000480,  36.019
   336.4,0.007948,0.004541,0.128817,-0.000406,  36.013
   336.6,0.007983,0.004566,0.128635,-0.000354,  36.017
   336.8,0.008012,0.004589,0.128447,-0.000289,  36.013
   337.0,0.008031,0.004608,0.128273,-0.000224,  36.014
   337.2,0.008045,0.004617,0.128079,-0.000159,  36.017
   337.4,0.008055,0.004632,0.127933,-0.000107,  36.014
   337.6,0.008061,0.004640,0.127794,-0.000081,  36.019
   337.8,0.008058,0.004637,0.127662,-0.000042,  36.016
   338.0,0.008055,0.004633,0.127474,-0.000016,  36.017
   338.2,0.008045,0.004629,0.127259,-0.000003,  36.018
   338.4,0.008031,0.004630,0.126990,0.000023,  36.025
   338.6,0.008020,0.004627,0.126702,0.000036,  36.030
   338.8,0.008007,0.004627,0.126366,0.000049,  36.044
   339.0,0.007991,0.004621,0.125984,0.000075,  36.049
   339.2,0.007978,0.004615,0.125698,0.000075,  36.063
   339.4,0.007959,0.004609,0.125446,0.000088,  36.070
   339.6,0.007940,0.004580,0.125208,0.000101,  36.072
   339.8,0.007903,0.004558,0.124950,0.000114,  36.071
   340.0,0.007850,0.004521,0.124710,0.000101,  36.071
   340.2,0.007783,0.004480,0.124483,0.000088,  36.074
   340.4,0.007732,0.004439,0.124397,0.000075,  36.075
   340.6,0.007675,0.004397,0.124372,0.000036,  36.078
   340.8,0.007619,0.004359,0.124401,-0.000003,  36.077
   341.0,0.007574,0.004322,0.124402,-0.000042,  36.075
   341.2,0.007528,0.004290,0.124404,-0.000107,  36.079
   341.4,0.007492,0.004254,0.124392,-0.000146,  36.079
   341.6,0.007457,0.004230,0.124326,-0.000185,  36.081
   341.8,0.007425,0.004205,0.124218,-0.000250,  36.077
   342.0,0.007401,0.004177,0.124069,-0.000289,  36.078
   342.2,0.007377,0.004154,0.123976,-0.000315,  36.071
   342.4,0.007342,0.004136,0.123870,-0.000354,  36.073
   342.6,0.007316,0.004107,0.123763,-0.000380,  36.063
   342.8,0.007279,0.004093,0.123679,-0.000393,  36.054
   343.0,0.007249,0.004076,0.123628,-0.000406,  36.043
   343.2,0.007225,0.004066,0.123571,-0.000418,  36.025
   343.4,0.007201,0.004061,0.123383,-0.000431,  36.021
   343.6,0.007208,0.004060,0.123135,-0.000457,  36.023
   343.8,0.007219,0.004080,0.122831,-0.000457,  36.018
   344.0,0.007245,0.004112,0.122686,-0.000457,  36.021
   344.2,0.007280,0.004154,0.122600,-0.000483,  36.024
   344.4,0.007323,0.004186,0.122551,-0.000470,  36.023
   344.6,0.007369,0.004225,0.122412,-0.000431,  36.028
   344.8,0.007409,0.004264,0.122252,-0.000428,  36.031
   345.0,0.007449,0.004293,0.122045,-0.000354,  36.030
   345.2,0.007493,0.004320,0.121724,-0.000337,  36.033
   345.4,0.007532,0.004341,0.121329,-0.000273,  36.039
   345.6,0.007550,0.004356,0.120873,-0.000172,  36.037
   345.8,0.007557,0.004374,0.120330,-0.000120,  36.043
   346.0,0.007569,0.004376,0.120226,-0.000081,  36.042
   346.2,0.007577,0.004378,0.120244,-0.000042,  36.044
   346.4,0.007583,0.004384,0.120383,-0.000003,  36.047
   346.6,0.007573,0.004382,0.120280,0.000010,  36.044
   346.8,0.007564,0.004383,0.120137,0.000023,  36.050
   347.0,0.007555,0.004380,0.119932,0.000049,  36.060
   347.2,0.007546,0.004379,0.119764,0.000062,  36.074
   347.4,0.007541,0.004379,0.119583,0.000075,  36.083
   347.6,0.007533,0.004380,0.119408,0.000088,  36.090
   347.8,0.007510,0.004371,0.119194,0.000101,  36.090
   348.0,0.007486,0.004365,0.118972,0.000101,  36.090
   348.2,0.007457,0.004331,0.118723,0.000114,  36.092
   348.4,0.007411,0.004288,0.118554,0.000127,  36.092
   348.6,0.007360,0.004240,0.118417,0.000114,  36.092
   348.8,0.007302,0.004200,0.118286,0.000088,  36.100
   349.0,0.007248,0.004160,0.118295,0.000062,  36.098
   349.2,0.007200,0.004121,0.118350,0.000010,  36.093
   349.4,0.007155,0.004085,0.118472,-0.000029,  36.093
   349.6,0.007115,0.004052,0.118212,-0.000068,  36.097
   349.8,0.007072,0.004022,0.117803,-0.000133,  36.098
   350.0,0.007035,0.003998,0.117209,-0.000172,  36.098
   350.2,0.007003,0.003973,0.117117,-0.000198,  36.098
   350.4,0.006970,0.003947,0.117219,-0.000250,  36.099
   350.6,0.006948,0.003925,0.117474,-0.000289,  36.099
   350.8,0.006936,0.003906,0.117482,-0.000315,  36.094
   351.0,0.006903,0.003889,0.117457,-0.000354,  36.090
   351.2,0.006874,0.003864,0.117386,-0.000380,  36.079
   351.4,0.006844,0.003846,0.117301,-0.000406,  36.070
   351.6,0.006814,0.003829,0.117176,-0.000418,  36.060
   351.8,0.006790,0.003828,0.117037,-0.000431,  36.055
   352.0,0.006773,0.003842,0.116947,-0.000444,  36.056
   352.2,0.006790,0.003867,0.116857,-0.000457,  36.051
   352.4,0.006819,0.003897,0.116793,-0.000457,  36.046
   352.6,0.006867,0.003936,0.116749,-0.000457,  36.042
   352.8,0.006910,0.003978,0.116731,-0.000470,  36.047
   353.0,0.006957,0.004013,0.116727,-0.000431,  36.047
   353.2,0.007010,0.004049,0.116583,-0.000367,  36.045
   353.4,0.007046,0.004080,0.116354,-0.000289,  36.046
   353.6,0.007083,0.004103,0.116046,-0.000250,  36.042
   353.8,0.007122,0.004128,0.115910,-0.000198,  36.043
   354.0,0.007148,0.004148,0.115794,-0.000208,  36.043
   354.2,0.007167,0.004160,0.115698,-0.000133,  36.046
   354.4,0.007178,0.004169,0.115588,-0.000143,  36.044
   354.6,0.007185,0.004176,0.115491,-0.000117,  36.042
   354.8,0.007185,0.004185,0.115374,-0.000042,  36.047
   355.0,0.007180,0.004181,0.115276,-0.000016,  36.046
   355.2,0.007180,0.004177,0.115055,-0.000003,  36.053
   355.4,0.007175,0.004181,0.114794,0.000023,  36.057
   355.6,0.007167,0.004177,0.114494,0.000049,  36.069
   355.8,0.007161,0.004173,0.114207,0.000062,  36.081
   356.0,0.007156,0.004169,0.113888,0.000062,  36.086
   356.2,0.007151,0.004166,0.113550,0.000088,  36.087
   356.4,0.007132,0.004155,0.113298,0.000088,  36.090
   356.6,0.007103,0.004147,0.113059,0.000088,  36.090
   356.8,0.007063,0.004119,0.112852,0.000088,  36.097
   357.0,0.007027,0.004082,0.112704,0.000088,  36.096
   357.2,0.006979,0.004036,0.112588,0.000075,  36.096
   357.4,0.006920,0.003998,0.112510,0.000036,  36.099
   357.6,0.006872,0.003959,0.112460,-0.000003,  36.098
   357.8,0.006827,0.003920,0.112447,-0.000055,  36.098
   358.0,0.006775,0.003883,0.112441,-0.000081,  36.095
   358.2,0.006732,0.003850,0.112231,-0.000133,  36.095
   358.4,0.006697,0.003825,0.111922,-0.000185,  36.095
   358.6,0.006666,0.003792,0.111508,-0.000211,  36.101
   358.8,0.006634,0.003765,0.111482,-0.000250,  36.103
   359.0,0.006602,0.003745,0.111576,-0.000289,  36.097
   359.2,0.006570,0.003721,0.111815,-0.000302,  36.099
   359.4,0.006544,0.003692,0.111830,-0.000328,  36.091
   359.6,0.006517,0.003678,0.111812,-0.000367,  36.085
   359.8,0.006488,0.003662,0.111734,-0.000380,  36.076
   360.0,0.006466,0.003642,0.111631,-0.000393,  36.066
   360.2,0.006453,0.003632,0.111494,-0.000418,  36.062
   360.4,0.006437,0.003643,0.111324,-0.000431,  36.063
   360.6,0.006427,0.003663,0.111248,-0.000457,  36.061
   360.8,0.006447,0.003700,0.111204,-0.000470,  36.063
   361.0,0.006498,0.003733,0.111182,-0.000457,  36.065
   361.2,0.006557,0.003774,0.111139,-0.000457,  36.065
   361.4,0.006614,0.003819,0.111094,-0.000444,  36.063
   361.6,0.006667,0.003852,0.111037,-0.000393,  36.065
   361.8,0.006720,0.003889,0.110864,-0.000341,  36.063
   362.0,0.006766,0.003926,0.110625,-0.000263,  36.065
   362.2,0.006803,0.003950,0.110328,-0.000211,  36.065
   362.4,0.006831,0.003975,0.110128,-0.000195,  36.062
   362.6,0.006851,0.003988,0.109954,-0.000156,  36.060
   362.8,0.006867,0.004003,0.109793,-0.000117,  36.065
   363.0,0.006884,0.004014,0.109606,-0.000127,  36.062
   363.2,0.006895,0.004024,0.109419,-0.000065,  36.062
   363.4,0.006898,0.004030,0.109220,-0.000052,  36.063
   363.6,0.006898,0.004025,0.108996,-0.000026,  36.061
   363.8,0.006898,0.004023,0.108778,-0.000026,  36.065
   364.0,0.006889,0.004024,0.108534,-0.000026,  36.069
   364.2,0.006883,0.004019,0.108337,-0.000049,  36.075
   364.4,0.006875,0.004021,0.108171,0.000000,  36.087
   364.6,0.006861,0.004009,0.108006,0.000013,  36.088
   364.8,0.006859,0.003993,0.107866,0.000026,  36.094
   365.0,0.006833,0.003973,0.107636,-0.000010,  36.093
   365.2,0.006789,0.003941,0.107354,0.000026,  36.094
   365.4,0.006747,0.003905,0.107058,0.000039,  36.094
   365.6,0.006705,0.003864,0.106950,-0.000010,  36.095
   365.8,0.006651,0.003834,0.106913,0.000000,  36.096
   366.0,0.006604,0.003803,0.106965,-0.000026,  36.095
   366.2,0.006559,0.003776,0.106921,-0.000078,  36.094
   366.4,0.006516,0.003752,0.106877,-0.000133,  36.090
   366.6,0.006480,0.003720,0.106850,-0.000172,  36.094
   366.8,0.006445,0.003694,0.106832,-0.000198,  36.093
   367.0,0.006411,0.003661,0.106826,-0.000250,  36.095
   367.2,0.006379,0.003636,0.106826,-0.000289,  36.097
   367.4,0.006352,0.003615,0.106788,-0.000302,  36.093
   367.6,0.006323,0.003589,0.106704,-0.000341,  36.095
   367.8,0.006294,0.003568,0.106588,-0.000367,  36.085
   368.0,0.006267,0.003546,0.106531,-0.000393,  36.076
   368.2,0.006243,0.003526,0.106475,-0.000431,  36.063
   368.4,0.006219,0.003513,0.106405,-0.000444,  36.046
   368.6,0.006208,0.003498,0.106057,-0.000457,  36.035
   368.8,0.006202,0.003487,0.105579,-0.000483,  36.028
   369.0,0.006210,0.003503,0.104940,-0.000496,  36.025
   369.2,0.006247,0.003539,0.104549,-0.000496,  36.025
   369.4,0.006291,0.003592,0.104215,-0.000509,  36.021
   369.6,0.006364,0.003629,0.103934,-0.000496,  36.019
   369.8,0.006407,0.003672,0.103499,-0.000470,  36.020
   370.0,0.006447,0.003725,0.103025,-0.000418,  36.024
   370.2,0.006484,0.003756,0.102508,-0.000354,  36.023
   370.4,0.006520,0.003792,0.102505,-0.000302,  36.017
   370.6,0.006553,0.003823,0.102740,-0.000237,  36.021
   370.8,0.006597,0.003847,0.103231,-0.000185,  36.018
   371.0,0.006631,0.003869,0.103382,-0.000133,  36.020
   371.2,0.006655,0.003889,0.103473,-0.000107,  36.019
   371.4,0.006674,0.003904,0.103506,-0.000081,  36.017
   371.6,0.006679,0.003921,0.103515,-0.000055,  36.022
   371.8,0.006687,0.003924,0.103479,-0.000042,  36.022
   372.0,0.006693,0.003928,0.103378,-0.000016,  36.021
   372.2,0.006693,0.003934,0.103247,-0.000003,  36.035
   372.4,0.006695,0.003935,0.103058,0.000023,  36.038
   372.6,0.006693,0.003930,0.102819,0.000036,  36.049
   372.8,0.006693,0.003931,0.102591,0.000049,  36.057
   373.0,0.006690,0.003928,0.102339,0.000013,  36.071
   373.2,0.006673,0.003910,0.102054,0.000049,  36.073
   373.4,0.006662,0.003879,0.101878,0.000062,  36.072
   373.6,0.006633,0.003850,0.101715,0.000062,  36.074
   373.8,0.006579,0.003819,0.101602,0.000097,  36.073
   374.0,0.006527,0.003781,0.101533,0.000133,  36.077
   374.2,0.006485,0.003742,0.101515,0.000107,  36.078
   374.4,0.006444,0.003713,0.101522,0.000032,  36.072
   374.6,0.006403,0.003679,0.101585,0.000007,  36.078
   374.8,0.006363,0.003650,0.101591,-0.000045,  36.076
   375.0,0.006326,0.003622,0.101579,-0.000110,  36.075
   375.2,0.006279,0.003603,0.101579,-0.000198,  36.076
   375.4,0.006247,0.003588,0.101548,-0.000237,  36.078
   375.6,0.006218,0.003573,0.101509,-0.000276,  36.084
   375.8,0.006183,0.003551,0.101445,-0.000350,  36.083
   376.0,0.006147,0.003527,0.101396,-0.000376,  36.079
   376.2,0.006123,0.003506,0.101365,-0.000367,  36.076
   376.4,0.006099,0.003485,0.101302,-0.000380,  36.058
   376.6,0.006069,0.003467,0.101214,-0.000406,  36.047
   376.8,0.006045,0.003447,0.101119,-0.000444,  36.029
   377.0,0.006030,0.003434,0.100993,-0.000457,  36.017
   377.2,0.006036,0.003434,0.100866,-0.000483,  36.014
   377.4,0.006054,0.003433,0.100726,-0.000496,  36.013
   377.6,0.006083,0.003456,0.100567,-0.000509,  36.012
   377.8,0.006126,0.003495,0.100448,-0.000522,  36.011
   378.0,0.006185,0.003555,0.100360,-0.000535,  36.010
   378.2,0.006254,0.003599,0.100273,-0.000509,  36.015
   378.4,0.006307,0.003644,0.100186,-0.000470,  36.017
   378.6,0.006360,0.003694,0.100106,-0.000406,  36.015
   378.8,0.006408,0.003734,0.100025,-0.000341,  36.015
   379.0,0.006445,0.003763,0.099880,-0.000276,  36.013
   379.2,0.006477,0.003795,0.099685,-0.000224,  36.017
   379.4,0.006498,0.003821,0.099440,-0.000172,  36.014
   379.6,0.006514,0.003838,0.099328,-0.000120,  36.017
   379.8,0.006529,0.003853,0.099241,-0.000107,  36.016
   380.0,0.006552,0.003871,0.099191,-0.000081,  36.017
   380.2,0.006565,0.003879,0.099028,-0.000055,  36.018
   380.4,0.006579,0.003888,0.098821,-0.000042,  36.024
   380.6,0.006585,0.003894,0.098588,-0.000029,  36.027
   380.8,0.006582,0.003900,0.098395,-0.000003,  36.035
   381.0,0.006591,0.003900,0.098220,0.000010,  36.044
   381.2,0.006591,0.003897,0.098040,0.000036,  36.048
   381.4,0.006585,0.003893,0.097829,0.000049,  36.059
   381.6,0.006570,0.003893,0.097604,0.000036,  36.069
   381.8,0.006554,0.003866,0.097342,0.000036,  36.072
   382.0,0.006533,0.003830,0.097173,0.000049,  36.074
   382.2,0.006489,0.003786,0.097042,0.000013,  36.078
   382.4,0.006441,0.003749,0.096942,0.000049,  36.074
   382.6,0.006387,0.003718,0.096899,0.000000,  36.070
   382.8,0.006345,0.003679,0.096881,-0.000039,  36.075
   383.0,0.006300,0.003645,0.096919,-0.000055,  36.080
   383.2,0.006257,0.003609,0.096994,-0.000081,  36.077
   383.4,0.006220,0.003579,0.096975,-0.000146,  36.075
   383.6,0.006180,0.003555,0.096936,-0.000211,  36.075
   383.8,0.006137,0.003531,0.096867,-0.000237,  36.075
   384.0,0.006096,0.003513,0.096829,-0.000289,  36.077
   384.2,0.006064,0.003504,0.096786,-0.000328,  36.079
   384.4,0.006038,0.003480,0.096761,-0.000354,  36.079
   384.6,0.006012,0.003461,0.096699,-0.000393,  36.072
   384.8,0.005990,0.003440,0.096624,-0.000431,  36.063
   385.0,0.005967,0.003420,0.096530,-0.000444,  36.054
   385.2,0.005945,0.003403,0.096411,-0.000457,  36.038
   385.4,0.005921,0.003384,0.096299,-0.000483,  36.033
   385.6,0.005897,0.003384,0.096161,-0.000496,  36.032
   385.8,0.005913,0.003403,0.096080,-0.000509,  36.030
   386.0,0.005945,0.003435,0.096018,-0.000535,  36.025
   386.2,0.005998,0.003464,0.095957,-0.000535,  36.027
   386.4,0.006054,0.003515,0.095889,-0.000561,  36.027
   386.6,0.006113,0.003567,0.095808,-0.000561,  36.027
   386.8,0.006185,0.003606,0.095733,-0.000509,  36.032
   387.0,0.006246,0.003654,0.095578,-0.000457,  36.027
   387.2,0.006302,0.003698,0.095353,-0.000380,  36.032
   387.4,0.006355,0.003737,0.095079,-0.000315,  36.030
   387.6,0.006395,0.003772,0.094943,-0.000263,  36.032
   387.8,0.006424,0.003802,0.094831,-0.000211,  36.034
   388.0,0.006448,0.003828,0.094751,-0.000159,  36.034
   388.2,0.006458,0.003848,0.094684,-0.000133,  36.035
   388.4,0.006471,0.003864,0.094640,-0.000094,  36.037
   388.6,0.006493,0.003871,0.094604,-0.000068,  36.040
   388.8,0.006509,0.003878,0.094443,-0.000055,  36.042
   389.0,0.006520,0.003886,0.094206,-0.000042,  36.044
   389.2,0.006525,0.003889,0.093901,-0.000029,  36.052
   389.4,0.006522,0.003899,0.093690,-0.000003,  36.061
   389.6,0.006525,0.003907,0.093505,0.000010,  36.075
   389.8,0.006528,0.003903,0.093307,0.000036,  36.080
   390.0,0.006530,0.003893,0.093054,0.000049,  36.082
   390.2,0.006514,0.003871,0.092774,0.000049,  36.084
   390.4,0.006488,0.003842,0.092470,0.000049,  36.084
   390.6,0.006453,0.003809,0.092365,0.000062,  36.088
   390.8,0.006419,0.003764,0.092329,0.000013,  36.086
   391.0,0.006371,0.003727,0.092385,0.000036,  36.088
   391.2,0.006317,0.003694,0.092380,-0.000026,  36.091
   391.4,0.006275,0.003664,0.092386,-0.000078,  36.093
   391.6,0.006235,0.003630,0.092405,-0.000120,  36.093
   391.8,0.006195,0.003605,0.092435,-0.000159,  36.090
   392.0,0.006158,0.003578,0.092485,-0.000198,  36.095
   392.2,0.006123,0.003556,0.092523,-0.000250,  36.091
   392.4,0.006094,0.003542,0.092567,-0.000289,  36.094
   392.6,0.006068,0.003523,0.092573,-0.000315,  36.097
   392.8,0.006038,0.003518,0.092555,-0.000367,  36.100
   393.0,0.006012,0.003497,0.092505,-0.000393,  36.094
   393.2,0.005990,0.003483,0.092481,-0.000418,  36.086
   393.4,0.005967,0.003463,0.092433,-0.000444,  36.077
   393.6,0.005945,0.003443,0.092396,-0.000457,  36.071
   393.8,0.005927,0.003424,0.092303,-0.000483,  36.064
   394.0,0.005905,0.003409,0.092179,-0.000496,  36.066
   394.2,0.005887,0.003421,0.092017,-0.000509,  36.069
   394.4,0.005916,0.003460,0.091932,-0.000509,  36.072
   394.6,0.005972,0.003508,0.091883,-0.000522,  36.069
   394.8,0.006052,0.003549,0.091865,-0.000509,  36.071
   395.0,0.006119,0.003605,0.091611,-0.000509,  36.073
   395.2,0.006186,0.003662,0.091276,-0.000496,  36.078
   395.4,0.006255,0.003710,0.090841,-0.000444,  36.074
   395.6,0.006320,0.003757,0.090457,-0.000380,  36.074
   395.8,0.006373,0.003803,0.090055,-0.000302,  36.078
   396.0,0.006409,0.003832,0.089629,-0.000250,  36.076
   396.2,0.006446,0.003864,0.089593,-0.000211,  36.074
   396.4,0.006469,0.003887,0.089730,-0.000159,  36.077
   396.6,0.006488,0.003903,0.090046,-0.000120,  36.077
   396.8,0.006505,0.003918,0.090171,-0.000094,  36.077
   397.0,0.006523,0.003931,0.090247,-0.000068,  36.076
   397.2,0.006537,0.003940,0.090323,-0.000029,  36.081
   397.4,0.006547,0.003948,0.090262,-0.000016,  36.087
   397.6,0.006558,0.003954,0.090115,-0.000016,  36.088
   397.8,0.006563,0.003955,0.089894,0.000010,  36.091
   398.0,0.006563,0.003963,0.089753,0.000023,  36.099
   398.2,0.006563,0.003963,0.089601,0.000023,  36.101
   398.4,0.006563,0.003949,0.089448,0.000036,  36.104
   398.6,0.006558,0.003936,0.089326,0.000036,  36.105
   398.8,0.006530,0.003912,0.089217,0.000049,  36.106
   399.0,0.006493,0.003881,0.089082,0.000049,  36.108
   399.2,0.006448,0.003848,0.088978,0.000036,  36.104
   399.4,0.006408,0.003808,0.088904,0.000010,  36.106
   399.6,0.006360,0.003772,0.088823,-0.000016,  36.107
   399.8,0.006316,0.003735,0.088780,-0.000055,  36.106
   400.0,0.006279,0.003699,0.088773,-0.000117,  36.104
   400.2,0.006242,0.003671,0.088809,-0.000133,  36.105
   400.4,0.006200,0.003644,0.088834,-0.000208,  36.102
   400.6,0.006162,0.003618,0.088853,-0.000260,  36.101
   400.8,0.006133,0.003596,0.088890,-0.000276,  36.100
   401.0,0.006105,0.003574,0.088927,-0.000315,  36.099
   401.2,0.006082,0.003552,0.088934,-0.000354,  36.102
   401.4,0.006058,0.003535,0.088928,-0.000380,  36.101
   401.6,0.006031,0.003517,0.088916,-0.000406,  36.095
   401.8,0.006014,0.003503,0.088899,-0.000418,  36.088
   402.0,0.005990,0.003491,0.088875,-0.000457,  36.075
   402.2,0.005962,0.003481,0.088857,-0.000483,  36.067
   402.4,0.005952,0.003471,0.088814,-0.000496,  36.061
   402.6,0.005949,0.003467,0.088753,-0.000509,  36.060
   402.8,0.005956,0.003494,0.088680,-0.000487,  36.061
   403.0,0.005994,0.003534,0.088557,-0.000512,  36.060
   403.2,0.006058,0.003591,0.088379,-0.000525,  36.058
   403.4,0.006150,0.003636,0.088170,-0.000464,  36.061
   403.6,0.006212,0.003691,0.088078,-0.000438,  36.058
   403.8,0.006281,0.003753,0.088011,-0.000435,  36.056
   404.0,0.006357,0.003795,0.087974,-0.000383,  36.056
   404.2,0.006406,0.003841,0.087858,-0.000318,  36.058
   404.4,0.006460,0.003885,0.087693,-0.000240,  36.056
   404.6,0.006506,0.003916,0.087497,-0.000188,  36.059
   404.8,0.006537,0.003948,0.087455,-0.000149,  36.056
   405.0,0.006566,0.003974,0.087473,-0.000110,  36.055
   405.2,0.006594,0.003990,0.087541,-0.000107,  36.041
   405.4,0.006610,0.004004,0.087486,-0.000068,  36.040
   405.6,0.006619,0.004016,0.087413,-0.000055,  36.042
   405.8,0.006628,0.004021,0.087309,-0.000065,  36.051
   406.0,0.006631,0.004027,0.086898,-0.000039,  36.050
   406.2,0.006636,0.004038,0.086286,0.000010,  36.060
   406.4,0.006642,0.004037,0.085485,0.000036,  36.076
   406.6,0.006647,0.004037,0.085327,0.000036,  36.081
   406.8,0.006638,0.004040,0.085372,0.000023,  36.085
   407.0,0.006633,0.004015,0.085619,0.000036,  36.079
   407.2,0.006626,0.003986,0.085449,0.000036,  36.084
   407.4,0.006587,0.003949,0.085174,0.000036,  36.081
   407.6,0.006545,0.003912,0.084784,0.000023,  36.084
   407.8,0.006495,0.003879,0.084785,-0.000003,  36.084
   408.0,0.006446,0.003852,0.084925,-0.000042,  36.088
   408.2,0.006404,0.003817,0.085205,-0.000068,  36.084
   408.4,0.006370,0.003788,0.085376,-0.000120,  36.085
   408.6,0.006329,0.003759,0.085547,-0.000182,  36.085
   408.8,0.006295,0.003731,0.085725,-0.000211,  36.085
   409.0,0.006267,0.003712,0.085805,-0.000286,  36.084
   409.2,0.006234,0.003693,0.085847,-0.000324,  36.084
   409.4,0.006210,0.003669,0.085835,-0.000328,  36.082
   409.6,0.006189,0.003648,0.085835,-0.000354,  36.079
   409.8,0.006156,0.003629,0.085829,-0.000393,  36.081
   410.0,0.006132,0.003615,0.085768,-0.000431,  36.071
   410.2,0.006106,0.003590,0.085725,-0.000444,  36.063
   410.4,0.006085,0.003576,0.085205,-0.000457,  36.046
   410.6,0.006066,0.003573,0.084467,-0.000483,  36.025
   410.8,0.006050,0.003570,0.083512,-0.000496,  36.014
   411.0,0.006061,0.003577,0.083421,-0.000509,  36.013
   411.2,0.006079,0.003596,0.083671,-0.000535,  36.008
   411.4,0.006109,0.003628,0.084226,-0.000548,  36.007
   411.6,0.006162,0.003667,0.084379,-0.000574,  36.001
   411.8,0.006231,0.003720,0.084471,-0.000587,  36.001
   412.0,0.006316,0.003769,0.084502,-0.000548,  36.002
   412.2,0.006382,0.003823,0.084558,-0.000509,  36.002
   412.4,0.006453,0.003882,0.084595,-0.000444,  36.001
   412.6,0.006523,0.003922,0.084614,-0.000380,  35.998
   412.8,0.006575,0.003966,0.084608,-0.000315,  36.001
   413.0,0.006626,0.004008,0.084578,-0.000250,  35.993
   413.2,0.006671,0.004039,0.084542,-0.000198,  35.993
   413.4,0.006702,0.004062,0.084585,-0.000146,  35.990
   413.6,0.006735,0.004088,0.084658,-0.000120,  35.978
   413.8,0.006760,0.004113,0.084762,-0.000094,  35.981
   414.0,0.006772,0.004128,0.084622,-0.000068,  35.978
   414.2,0.006785,0.004143,0.084360,-0.000055,  35.982
   414.4,0.006793,0.004155,0.084001,0.000007,  35.989
   414.6,0.006800,0.004160,0.083910,0.000007,  35.997
   414.8,0.006811,0.004162,0.083893,0.000007,  36.014
   415.0,0.006823,0.004159,0.083943,0.000055,  36.027
   415.2,0.006823,0.004152,0.083834,0.000081,  36.028
   415.4,0.006808,0.004154,0.083665,0.000045,  36.031
   415.6,0.006804,0.004132,0.083447,0.000058,  36.028
   415.8,0.006785,0.004093,0.083350,0.000058,  36.033
   416.0,0.006754,0.004054,0.083302,0.000058,  36.029
   416.2,0.006706,0.004023,0.083278,0.000045,  36.036
   416.4,0.006650,0.003982,0.083296,0.000007,  36.030
   416.6,0.006601,0.003948,0.083339,-0.000045,  36.035
   416.8,0.006561,0.003918,0.083417,-0.000084,  36.032
   417.0,0.006521,0.003887,0.083496,-0.000136,  36.032
   417.2,0.006486,0.003868,0.083593,-0.000201,  36.034
   417.4,0.006452,0.003847,0.083678,-0.000240,  36.032
   417.6,0.006420,0.003817,0.083733,-0.000279,  36.028
   417.8,0.006390,0.003799,0.083769,-0.000318,  36.030
   418.0,0.006364,0.003777,0.083775,-0.000344,  36.030
   418.2,0.006337,0.003757,0.083775,-0.000370,  36.026
   418.4,0.006313,0.003737,0.083739,-0.000383,  36.020
   418.6,0.006289,0.003712,0.083672,-0.000409,  36.010
   418.8,0.006265,0.003698,0.083636,-0.000457,  35.995
   419.0,0.006244,0.003685,0.083600,-0.000483,  35.978
   419.2,0.006223,0.003688,0.083570,-0.000496,  35.961
   419.4,0.006202,0.003707,0.083533,-0.000545,  35.956
   419.6,0.006223,0.003741,0.083455,-0.000558,  35.956
   419.8,0.006268,0.003780,0.083376,-0.000548,  35.950
   420.0,0.006332,0.003834,0.083261,-0.000561,  35.949
   420.2,0.006398,0.003900,0.083201,-0.000561,  35.945
   420.4,0.006473,0.003948,0.083165,-0.000574,  35.944
   420.6,0.006555,0.003989,0.083141,-0.000535,  35.946
   420.8,0.006630,0.004041,0.083044,-0.000470,  35.943
   421.0,0.006702,0.004079,0.082929,-0.000393,  35.940
   421.2,0.006776,0.004120,0.082790,-0.000328,  35.939
   421.4,0.006835,0.004161,0.082754,-0.000276,  35.935
   421.6,0.006886,0.004202,0.082759,-0.000211,  35.936
   421.8,0.006925,0.004234,0.082808,-0.000159,  35.935
   422.0,0.006956,0.004261,0.082868,-0.000120,  35.932
   422.2,0.006983,0.004286,0.082959,-0.000107,  35.933
   422.4,0.006999,0.004302,0.083068,-0.000068,  35.930
   422.6,0.007011,0.004322,0.083056,-0.000042,  35.923
   422.8,0.007024,0.004331,0.082989,-0.000029,  35.933
   423.0,0.007039,0.004340,0.082850,-0.000016,  35.952
   423.2,0.007050,0.004345,0.082329,0.000010,  35.968
   423.4,0.007058,0.004353,0.081590,0.000010,  35.984
   423.6,0.007060,0.004351,0.080613,0.000023,  35.982
   423.8,0.007052,0.004336,0.080300,0.000036,  35.993
   424.0,0.007042,0.004321,0.080222,0.000036,  35.989
   424.2,0.007018,0.004295,0.080367,0.000071,  35.992
   424.4,0.006991,0.004259,0.080464,0.000071,  35.995
   424.6,0.006950,0.004220,0.080663,0.000045,  35.994
   424.8,0.006910,0.004189,0.080977,0.000055,  35.994
   425.0,0.006862,0.004155,0.081188,0.000016,  35.994
   425.2,0.006822,0.004123,0.081393,-0.000097,  35.999
   425.4,0.006781,0.004097,0.081599,-0.000136,  36.008
   425.6,0.006750,0.004071,0.081749,-0.000175,  36.008
   425.8,0.006718,0.004049,0.081870,-0.000227,  36.013
   426.0,0.006692,0.004029,0.081949,-0.000266,  36.015
   426.2,0.006671,0.004010,0.082052,-0.000305,  36.010
   426.4,0.006647,0.003994,0.082167,-0.000344,  36.013
   426.6,0.006624,0.003974,0.082258,-0.000370,  36.007
   426.8,0.006600,0.003955,0.082276,-0.000383,  36.007
   427.0,0.006581,0.003935,0.082252,-0.000409,  36.001
   427.2,0.006557,0.003920,0.082161,-0.000422,  35.984
   427.4,0.006533,0.003902,0.082107,-0.000435,  35.959
   427.6,0.006520,0.003887,0.082058,-0.000448,  35.950
   427.8,0.006509,0.003910,0.081992,-0.000474,  35.949
   428.0,0.006501,0.003943,0.081938,-0.000487,  35.948
   428.2,0.006541,0.003990,0.081896,-0.000500,  35.945
   428.4,0.006602,0.004040,0.081860,-0.000512,  35.945
   428.6,0.006690,0.004099,0.081824,-0.000500,  35.944
   428.8,0.006765,0.004165,0.081794,-0.000500,  35.946
   429.0,0.006839,0.004212,0.081770,-0.000500,  35.945
   429.2,0.006916,0.004253,0.081752,-0.000435,  35.945
   429.4,0.006986,0.004293,0.081740,-0.000383,  35.950
   429.6,0.007055,0.004327,0.081728,-0.000292,  35.942
   429.8,0.007116,0.004369,0.081735,-0.000227,  35.948
   430.0,0.007167,0.004413,0.081614,-0.000175,  35.950
   430.2,0.007212,0.004453,0.081444,-0.000136,  35.953
   430.4,0.007247,0.004483,0.081207,-0.000084,  35.948
   430.6,0.007279,0.004505,0.081279,-0.000058,  35.951
   430.8,0.007297,0.004518,0.081466,-0.000045,  35.951
   431.0,0.007311,0.004536,0.081750,-0.000006,  35.953
   431.2,0.007327,0.004546,0.081811,0.000019,  35.963
   431.4,0.007335,0.004552,0.081823,0.000019,  35.972
   431.6,0.007340,0.004557,0.081769,0.000032,  35.978
   431.8,0.007348,0.004563,0.081685,0.000058,  35.993
   432.0,0.007353,0.004567,0.081553,0.000045,  36.000
   432.2,0.007356,0.004555,0.081384,0.000058,  36.007
   432.4,0.007343,0.004529,0.081318,0.000071,  36.014
   432.6,0.007321,0.004503,0.081289,0.000071,  36.010
   432.8,0.007287,0.004475,0.081277,0.000071,  36.013
   433.0,0.007244,0.004443,0.081266,0.000058,  36.018
   433.2,0.007200,0.004403,0.081260,0.000019,  36.020
   433.4,0.007169,0.004370,0.081283,-0.000019,  36.020
   433.6,0.007127,0.004337,0.081301,-0.000071,  36.016
   433.8,0.007101,0.004309,0.081295,-0.000149,  36.019
   434.0,0.007067,0.004279,0.081306,-0.000188,  36.018
   434.2,0.007032,0.004259,0.081391,-0.000240,  36.021
   434.4,0.007012,0.004245,0.081511,-0.000279,  36.021
   434.6,0.006988,0.004228,0.081651,-0.000305,  36.024
   434.8,0.006955,0.004210,0.081681,-0.000344,  36.017
   435.0,0.006933,0.004191,0.081687,-0.000383,  36.017
   435.2,0.006912,0.004171,0.081632,-0.000396,  36.017
   435.4,0.006888,0.004155,0.081620,-0.000409,  36.003
   435.6,0.006870,0.004137,0.081596,-0.000435,  35.999
   435.8,0.006848,0.004125,0.081566,-0.000448,  35.974
   436.0,0.006827,0.004120,0.081548,-0.000461,  35.963
   436.2,0.006827,0.004123,0.081554,-0.000474,  35.956
   436.4,0.006835,0.004150,0.081524,-0.000500,  35.951
   436.6,0.006857,0.004198,0.081518,-0.000512,  35.949
   436.8,0.006902,0.004267,0.081428,-0.000538,  35.952
   437.0,0.006973,0.004315,0.081289,-0.000551,  35.944
   437.2,0.007067,0.004358,0.081120,-0.000538,  35.951
   437.4,0.007141,0.004402,0.081084,-0.000512,  35.949
   437.6,0.007221,0.004445,0.081108,-0.000474,  35.949
   437.8,0.007310,0.004494,0.081199,-0.000422,  35.945
   438.0,0.007371,0.004550,0.081241,-0.000357,  35.945
   438.2,0.007435,0.004607,0.081277,-0.000279,  35.943
   438.4,0.007502,0.004646,0.081301,-0.000214,  35.941
   438.6,0.007547,0.004677,0.081404,-0.000162,  35.935
   438.8,0.007589,0.004709,0.081524,-0.000123,  35.935
   439.0,0.007628,0.004737,0.081668,-0.000084,  35.934
   439.2,0.007651,0.004752,0.081735,-0.000058,  35.934
   439.4,0.007672,0.004769,0.081770,-0.000032,  35.942
   439.6,0.007686,0.004786,0.081770,0.000007,  35.951
   439.8,0.007693,0.004793,0.081752,0.000019,  35.962
   440.0,0.007704,0.004801,0.081710,0.000019,  35.969
   440.2,0.007718,0.004809,0.081644,0.000010,  35.983
   440.4,0.007715,0.004812,0.081596,0.000023,  35.993
   440.6,0.007715,0.004816,0.081518,0.000023,  35.996
   440.8,0.007716,0.004793,0.081428,0.000000,  35.999
   441.0,0.007697,0.004766,0.081356,0.000000,  35.999
   441.2,0.007669,0.004726,0.081296,0.000036,  35.999
   441.4,0.007641,0.004692,0.081200,0.000023,  36.001
   441.6,0.007598,0.004661,0.081170,-0.000003,  36.000
   441.8,0.007564,0.004630,0.081175,-0.000042,  36.000
   442.0,0.007526,0.004601,0.081204,-0.000081,  36.003
   442.2,0.007484,0.004580,0.081083,-0.000133,  36.002
   442.4,0.007448,0.004551,0.080889,-0.000198,  36.003
   442.6,0.007421,0.004523,0.080647,-0.000224,  36.003
   442.8,0.007398,0.004505,0.080689,-0.000263,  36.002
   443.0,0.007365,0.004484,0.080852,-0.000315,  36.000
   443.2,0.007341,0.004463,0.081117,-0.000341,  36.008
   443.4,0.007321,0.004449,0.081256,-0.000367,  36.011
   443.6,0.007293,0.004433,0.081365,-0.000406,  36.013
   443.8,0.007272,0.004413,0.081450,-0.000418,  35.999
   444.0,0.007254,0.004399,0.081486,-0.000431,  35.986
   444.2,0.007229,0.004387,0.081462,-0.000493,  35.973
   444.4,0.007208,0.004388,0.081390,-0.000483,  35.967
   444.6,0.007193,0.004397,0.081390,-0.000532,  35.962
   444.8,0.007200,0.004421,0.081402,-0.000545,  35.967
   445.0,0.007229,0.004460,0.081415,-0.000535,  35.961
   445.2,0.007281,0.004516,0.081440,-0.000535,  35.967
   445.4,0.007339,0.004584,0.081416,-0.000561,  35.961
   445.6,0.007413,0.004641,0.081392,-0.000561,  35.962
   445.8,0.007509,0.004701,0.081344,-0.000522,  35.967
   446.0,0.007592,0.004764,0.081338,-0.000483,  35.963
   446.2,0.007672,0.004812,0.081356,-0.000418,  35.966
   446.4,0.007752,0.004854,0.081386,-0.000354,  35.965
   446.6,0.007819,0.004885,0.081422,-0.000302,  35.964
   446.8,0.007877,0.004912,0.081464,-0.000237,  35.965
   447.0,0.007935,0.004946,0.081517,-0.000185,  35.966
   447.2,0.007974,0.004981,0.081650,-0.000133,  35.968
   447.4,0.008008,0.005009,0.081812,-0.000107,  35.970
   447.6,0.008044,0.005030,0.082017,-0.000081,  35.971
   447.8,0.008064,0.005044,0.082107,-0.000055,  35.969
   448.0,0.008083,0.005062,0.082149,-0.000042,  35.978
   448.2,0.008103,0.005073,0.082149,-0.000029,  35.983
   448.4,0.008112,0.005081,0.082143,-0.000003,  35.998
   448.6,0.008126,0.005093,0.082113,0.000010,  36.004
   448.8,0.008146,0.005095,0.082053,0.000036,  36.005
   449.0,0.008139,0.005087,0.081945,0.000036,  36.013
   449.2,0.008126,0.005081,0.081812,0.000023,  36.027
   449.4,0.008111,0.005062,0.081631,0.000036,  36.026
   449.6,0.008078,0.005031,0.081601,0.000023,  36.024
   449.8,0.008038,0.004995,0.081625,0.000023,  36.020
   450.0,0.007996,0.004961,0.081674,-0.000003,  36.022
   450.2,0.007961,0.004930,0.081208,-0.000042,  36.023
   450.4,0.007928,0.004902,0.080507,-0.000107,  36.025
   450.6,0.007905,0.004874,0.079555,-0.000146,  36.028
   450.8,0.007884,0.004846,0.079609,-0.000185,  36.028
   451.0,0.007858,0.004826,0.080042,-0.000237,  36.024
   451.2,0.007840,0.004806,0.080861,-0.000276,  36.029
   451.4,0.007813,0.004786,0.081157,-0.000315,  36.027
   451.6,0.007783,0.004764,0.081380,-0.000354,  36.027
   451.8,0.007758,0.004743,0.081537,-0.000380,  36.027
   452.0,0.007738,0.004723,0.081700,-0.000418,  36.025
   452.2,0.007713,0.004708,0.081845,-0.000444,  36.020
   452.4,0.007688,0.004694,0.081960,-0.000457,  36.005
   452.6,0.007665,0.004680,0.082021,-0.000483,  35.988
   452.8,0.007643,0.004668,0.082058,-0.000496,  35.985
   453.0,0.007621,0.004686,0.082052,-0.000509,  35.981
   453.2,0.007597,0.004716,0.082071,-0.000522,  35.972
   453.4,0.007627,0.004762,0.082077,-0.000558,  35.970
   453.6,0.007683,0.004810,0.082047,-0.000535,  35.974
   453.8,0.007760,0.004864,0.082023,-0.000571,  35.966
   454.0,0.007826,0.004929,0.081993,-0.000558,  35.968
   454.2,0.007911,0.004991,0.081956,-0.000535,  35.972
   454.4,0.008004,0.005048,0.081889,-0.000483,  35.969
   454.6,0.008087,0.005106,0.081944,-0.000431,  35.969
   454.8,0.008170,0.005159,0.082022,-0.000354,  35.967
   455.0,0.008251,0.005204,0.082125,-0.000289,  35.970
   455.2,0.008322,0.005245,0.082258,-0.000237,  35.970
   455.4,0.008378,0.005277,0.082433,-0.000198,  35.967
   455.6,0.008414,0.005303,0.082632,-0.000159,  35.970
   455.8,0.008452,0.005320,0.082814,-0.000120,  35.973
   456.0,0.008484,0.005331,0.083013,-0.000107,  35.972
   456.2,0.008505,0.005342,0.083242,-0.000081,  35.968
   456.4,0.008524,0.005358,0.083370,-0.000055,  35.978
   456.6,0.008540,0.005370,0.083436,-0.000042,  35.979
   456.8,0.008553,0.005379,0.083455,-0.000029,  35.990
   457.0,0.008564,0.005384,0.083430,-0.000003,  36.002
   457.2,0.008572,0.005392,0.083352,0.000010,  36.006
   457.4,0.008575,0.005386,0.083212,0.000036,  36.015
   457.6,0.008567,0.005372,0.083134,0.000036,  36.024
   457.8,0.008545,0.005355,0.083061,0.000023,  36.023
   458.0,0.008513,0.005329,0.082965,0.000023,  36.023
   458.2,0.008484,0.005293,0.082922,0.000010,  36.026
   458.4,0.008444,0.005257,0.082898,-0.000003,  36.027
   458.6,0.008398,0.005229,0.082873,-0.000042,  36.026
   458.8,0.008366,0.005197,0.082940,-0.000094,  36.026
   459.0,0.008333,0.005168,0.083061,-0.000159,  36.027
   459.2,0.008306,0.005146,0.083237,-0.000211,  36.031
   459.4,0.008286,0.005119,0.083303,-0.000263,  36.033
   459.6,0.008262,0.005099,0.083345,-0.000302,  36.034
   459.8,0.008235,0.005077,0.083381,-0.000328,  36.032
   460.0,0.008206,0.005056,0.083466,-0.000367,  36.034
   460.2,0.008185,0.005039,0.083526,-0.000406,  36.032
   460.4,0.008160,0.005019,0.083611,-0.000418,  36.032
   460.6,0.008139,0.004999,0.083617,-0.000444,  36.024
   460.8,0.008120,0.004987,0.083586,-0.000470,  36.020
   461.0,0.008099,0.004975,0.083519,-0.000483,  36.010
   461.2,0.008078,0.004959,0.083489,-0.000496,  35.999
   461.4,0.008067,0.004949,0.083471,-0.000522,  35.989
   461.6,0.008064,0.004972,0.083466,-0.000535,  35.990
   461.8,0.008065,0.005016,0.083277,-0.000535,  35.984
   462.0,0.008102,0.005075,0.082980,-0.000597,  35.984
   462.2,0.008171,0.005128,0.082598,-0.000561,  35.984
   462.4,0.008271,0.005191,0.082585,-0.000571,  35.982
   462.6,0.008345,0.005257,0.082694,-0.000558,  35.984
   462.8,0.008428,0.005317,0.082942,-0.000496,  35.984
   463.0,0.008525,0.005372,0.083046,-0.000444,  35.979
   463.2,0.008599,0.005433,0.083173,-0.000380,  35.981
   463.4,0.008674,0.005485,0.083270,-0.000315,  35.979
   463.6,0.008750,0.005522,0.083379,-0.000263,  35.982
   463.8,0.008805,0.005563,0.083378,-0.000211,  35.978
   464.0,0.008858,0.005594,0.083358,-0.000172,  35.982
   464.2,0.008907,0.005620,0.083296,-0.000120,  35.982
   464.4,0.008941,0.005646,0.083465,-0.000107,  35.981
   464.6,0.008973,0.005666,0.083756,-0.000094,  35.981
   464.8,0.008998,0.005673,0.084120,-0.000055,  35.985
   465.0,0.009013,0.005686,0.084272,-0.000042,  35.987
   465.2,0.009032,0.005686,0.084363,-0.000029,  35.998
   465.4,0.009047,0.005694,0.084388,-0.000016,  36.007
   465.6,0.009048,0.005705,0.084431,0.000010,  36.010
   465.8,0.009056,0.005712,0.084456,0.000010,  36.021
   466.0,0.009063,0.005698,0.084456,0.000023,  36.028
   466.2,0.009037,0.005679,0.084426,0.000023,  36.028
   466.4,0.009005,0.005647,0.084366,0.000023,  36.030
   466.6,0.008966,0.005616,0.084293,0.000023,  36.027
   466.8,0.008928,0.005586,0.084366,-0.000003,  36.029
   467.0,0.008890,0.005556,0.084488,-0.000029,  36.032
   467.2,0.008857,0.005525,0.084695,-0.000068,  36.027
   467.4,0.008818,0.005500,0.084712,-0.000120,  36.031
   467.6,0.008786,0.005473,0.084680,-0.000198,  36.027
   467.8,0.008751,0.005447,0.084594,-0.000237,  36.030
   468.0,0.008730,0.005429,0.084678,-0.000289,  36.028
   468.2,0.008705,0.005413,0.084813,-0.000328,  36.032
   468.4,0.008698,0.005390,0.084996,-0.000354,  36.029
   468.6,0.008691,0.005374,0.085136,-0.000393,  36.030
   468.8,0.008672,0.005354,0.085270,-0.000418,  36.031
   469.0,0.008648,0.005338,0.085374,-0.000431,  36.026
   469.2,0.008624,0.005323,0.085398,-0.000470,  36.015
   469.4,0.008599,0.005305,0.085374,-0.000496,  36.001
   469.6,0.008580,0.005301,0.085282,-0.000509,  35.985
   469.8,0.008568,0.005303,0.085270,-0.000522,  35.987
   470.0,0.008569,0.005309,0.085295,-0.000548,  35.983
   470.2,0.008591,0.005344,0.085320,-0.000561,  35.982
   470.4,0.008629,0.005399,0.085303,-0.000561,  35.981
   470.6,0.008684,0.005473,0.085267,-0.000574,  35.975
   470.8,0.008762,0.005531,0.085212,-0.000561,  35.972
   471.0,0.008865,0.005596,0.085236,-0.000522,  35.977
   471.2,0.008944,0.005665,0.085291,-0.000545,  35.976
   471.4,0.009029,0.005725,0.085357,-0.000457,  35.979
   471.6,0.009122,0.005780,0.085417,-0.000441,  35.977
   471.8,0.009193,0.005828,0.085478,-0.000376,  35.975
   472.0,0.009272,0.005876,0.085568,-0.000289,  35.973
   472.2,0.009345,0.005916,0.085634,-0.000237,  35.976
   472.4,0.009392,0.005949,0.085823,-0.000198,  35.971
   472.6,0.009444,0.005974,0.086078,-0.000159,  35.970
   472.8,0.009482,0.006000,0.086364,-0.000120,  35.973
   473.0,0.009507,0.006018,0.086572,-0.000094,  35.972
   473.2,0.009540,0.006034,0.086773,-0.000081,  35.976
   473.4,0.009562,0.006048,0.086956,-0.000042,  35.980
   473.6,0.009577,0.006056,0.087042,-0.000016,  35.989
   473.8,0.009602,0.006063,0.087060,-0.000016,  35.998
   474.0,0.009613,0.006071,0.087041,-0.000003,  35.998
   474.2,0.009609,0.006072,0.086998,0.000023,  36.004
   474.4,0.009613,0.006074,0.086901,0.000010,  36.008
   474.6,0.009602,0.006053,0.086766,0.000010,  36.014
   474.8,0.009569,0.006030,0.086760,0.000023,  36.023
   475.0,0.009538,0.005994,0.086779,0.000010,  36.019
   475.2,0.009490,0.005960,0.086846,-0.000003,  36.018
   475.4,0.009448,0.005933,0.086901,-0.000042,  36.020
   475.6,0.009413,0.005899,0.086962,-0.000094,  36.016
   475.8,0.009376,0.005866,0.087040,-0.000097,  36.022
   476.0,0.009340,0.005841,0.087119,-0.000162,  36.021
   476.2,0.009311,0.005815,0.087198,-0.000227,  36.020
   476.4,0.009288,0.005786,0.087265,-0.000230,  36.016
   476.6,0.009266,0.005767,0.087136,-0.000269,  36.018
   476.8,0.009244,0.005748,0.086913,-0.000344,  36.018
   477.0,0.009234,0.005727,0.086569,-0.000383,  36.025
   477.2,0.009221,0.005716,0.086630,-0.000409,  36.022
   477.4,0.009199,0.005702,0.086857,-0.000435,  36.016
   477.6,0.009182,0.005683,0.087232,-0.000461,  36.011
   477.8,0.009155,0.005672,0.087380,-0.000474,  36.001
   478.0,0.009130,0.005654,0.087497,-0.000487,  35.986
   478.2,0.009114,0.005657,0.087583,-0.000500,  35.977
   478.4,0.009095,0.005677,0.087615,-0.000512,  35.979
   478.6,0.009112,0.005709,0.087609,-0.000538,  35.979
   478.8,0.009161,0.005752,0.087554,-0.000538,  35.977
   479.0,0.009231,0.005814,0.087529,-0.000538,  35.971
   479.2,0.009300,0.005888,0.087517,-0.000564,  35.969
   479.4,0.009386,0.005949,0.087479,-0.000525,  35.966
   479.6,0.009491,0.006016,0.087522,-0.000448,  35.966
   479.8,0.009569,0.006082,0.087601,-0.000370,  35.969
   480.0,0.009658,0.006140,0.087723,-0.000318,  35.966
   480.2,0.009746,0.006192,0.087887,-0.000253,  35.966
   480.4,0.009815,0.006249,0.088083,-0.000227,  35.968
   480.6,0.009879,0.006289,0.088321,-0.000201,  35.962
   480.8,0.009945,0.006326,0.088547,-0.000162,  35.965
   481.0,0.009999,0.006356,0.088774,-0.000136,  35.967
   481.2,0.010040,0.006377,0.089013,-0.000097,  35.964
   481.4,0.010072,0.006396,0.089259,-0.000071,  35.964
   481.6,0.010108,0.006416,0.088967,-0.000045,  35.967
   481.8,0.010132,0.006431,0.088471,-0.000032,  35.968
   482.0,0.010142,0.006445,0.087768,-0.000006,  35.973
   482.2,0.010163,0.006459,0.087786,0.000007,  35.985
   482.4,0.010177,0.006463,0.088081,0.000019,  35.992
   482.6,0.010191,0.006459,0.088611,0.000032,  35.995
   482.8,0.010182,0.006459,0.088772,0.000058,  35.999
   483.0,0.010168,0.006445,0.088896,0.000045,  36.002
   483.2,0.010151,0.006423,0.088940,0.000045,  36.003
   483.4,0.010115,0.006393,0.089052,0.000045,  36.004
   483.6,0.010080,0.006358,0.089150,0.000032,  36.003
   483.8,0.010041,0.006323,0.089248,0.000007,  36.002
   484.0,0.009999,0.006291,0.089383,-0.000045,  36.002
   484.2,0.009971,0.006262,0.089512,-0.000110,  36.003
   484.4,0.009940,0.006232,0.089666,-0.000162,  36.005
   484.6,0.009904,0.006206,0.089832,-0.000201,  36.004
   484.8,0.009886,0.006182,0.089999,-0.000240,  36.000
   485.0,0.009865,0.006156,0.090178,-0.000292,  36.004
   485.2,0.009840,0.006139,0.090227,-0.000331,  36.005
   485.4,0.009825,0.006127,0.090201,-0.000357,  36.002
   485.6,0.009800,0.006105,0.090113,-0.000383,  36.003
   485.8,0.009782,0.006084,0.090187,-0.000409,  36.003
   486.0,0.009766,0.006069,0.090323,-0.000435,  35.994
   486.2,0.009743,0.006051,0.090485,-0.000448,  35.979
   486.4,0.009736,0.006038,0.090541,-0.000461,  35.974
   486.6,0.009723,0.006020,0.090572,-0.000487,  35.972
   486.8,0.009697,0.006039,0.090541,-0.000487,  35.968
   487.0,0.009681,0.006076,0.090517,-0.000512,  35.969
   487.2,0.009721,0.006131,0.090473,-0.000525,  35.965
   487.4,0.009790,0.006186,0.090399,-0.000512,  35.966
   487.6,0.009899,0.006247,0.090299,-0.000512,  35.963
   487.8,0.009978,0.006323,0.090131,-0.000500,  35.961
   488.0,0.010067,0.006384,0.089957,-0.000448,  35.963
   488.2,0.010167,0.006448,0.090043,-0.000396,  35.962
   488.4,0.010246,0.006521,0.090222,-0.000318,  35.956
   488.6,0.010330,0.006577,0.090530,-0.000266,  35.959
   488.8,0.010414,0.006620,0.090819,-0.000227,  35.961
   489.0,0.010477,0.006662,0.091165,-0.000188,  35.960
   489.2,0.010536,0.006702,0.091559,-0.000175,  35.960
   489.4,0.010591,0.006730,0.091819,-0.000136,  35.961
   489.6,0.010630,0.006757,0.092035,-0.000110,  35.962
   489.8,0.010665,0.006781,0.092207,-0.000084,  35.965
   490.0,0.010696,0.006801,0.092330,-0.000058,  35.964
   490.2,0.010716,0.006811,0.092485,-0.000032,  35.973
   490.4,0.010738,0.006822,0.092615,-0.000019,  35.976
   490.6,0.010763,0.006830,0.092739,0.000007,  35.985
   490.8,0.010773,0.006837,0.092582,0.000019,  35.988
   491.0,0.010783,0.006837,0.092245,0.000032,  35.995
   491.2,0.010795,0.006824,0.091760,0.000058,  36.002
   491.4,0.010775,0.006817,0.091356,0.000058,  36.002
   491.6,0.010755,0.006796,0.090915,0.000058,  36.001
   491.8,0.010718,0.006769,0.090431,0.000058,  36.005
   492.0,0.010680,0.006744,0.090574,0.000045,  36.007
   492.2,0.010651,0.006710,0.091008,0.000019,  36.017
   492.4,0.010608,0.006685,0.091759,-0.000019,  36.014
   492.6,0.010570,0.006655,0.092101,-0.000058,  36.016
   492.8,0.010544,0.006628,0.092406,-0.000136,  36.014
   493.0,0.010512,0.006600,0.092666,-0.000175,  36.018
   493.2,0.010481,0.006576,0.092896,-0.000227,  36.017
   493.4,0.010463,0.006548,0.093064,-0.000266,  36.015
   493.6,0.010446,0.006524,0.093194,-0.000292,  36.014
   493.8,0.010418,0.006506,0.093293,-0.000331,  36.014
   494.0,0.010393,0.006492,0.093342,-0.000370,  36.018
   494.2,0.010373,0.006471,0.093367,-0.000383,  36.019
   494.4,0.010348,0.006454,0.093460,-0.000409,  36.009
   494.6,0.010329,0.006438,0.093573,-0.000435,  36.000
   494.8,0.010317,0.006425,0.093699,-0.000448,  35.983
   495.0,0.010309,0.006417,0.093730,-0.000461,  35.970
   495.2,0.010311,0.006414,0.093699,-0.000487,  35.962
   495.4,0.010317,0.006446,0.093605,-0.000487,  35.967
   495.6,0.010330,0.006500,0.093611,-0.000512,  35.964
   495.8,0.010394,0.006575,0.093612,-0.000525,  35.961
   496.0,0.010478,0.006639,0.093619,-0.000500,  35.957
   496.2,0.010585,0.006699,0.093682,-0.000474,  35.962
   496.4,0.010667,0.006765,0.093793,-0.000448,  35.953
   496.6,0.010756,0.006831,0.093941,-0.000396,  35.957
   496.8,0.010848,0.006893,0.094115,-0.000331,  35.959
   497.0,0.010923,0.006946,0.094339,-0.000266,  35.959
   497.2,0.010998,0.006996,0.094600,-0.000214,  35.957
   497.4,0.011077,0.007044,0.094810,-0.000175,  35.956
   497.6,0.011136,0.007084,0.095026,-0.000136,  35.957
   497.8,0.011191,0.007115,0.095209,-0.000110,  35.958
   498.0,0.011251,0.007139,0.095439,-0.000071,  35.957
   498.2,0.011291,0.007163,0.095669,-0.000071,  35.961
   498.4,0.011310,0.007179,0.095919,-0.000058,  35.962
   498.6,0.011337,0.007188,0.096050,-0.000019,  35.970
   498.8,0.011355,0.007206,0.096136,-0.000006,  35.971
   499.0,0.011367,0.007220,0.096148,0.000007,  35.979
   499.2,0.011378,0.007222,0.096192,0.000019,  35.988
   499.4,0.011383,0.007230,0.096249,0.000045,  35.992
   499.6,0.011388,0.007218,0.096274,0.000045,  35.992
   499.8,0.011392,0.007192,0.096295,0.000058,  35.994
   500.0,0.011364,0.007154,0.095879,0.000071,  35.996
   500.2,0.011329,0.007130,0.095244,0.000071,  36.001
   500.4,0.011280,0.007108,0.094446,0.000058,  36.001
   500.6,0.011239,0.007079,0.094421,0.000032,  35.999
   500.8,0.011210,0.007060,0.094714,-0.000019,  36.001
   501.0,0.011173,0.007034,0.095302,-0.000045,  36.001
   501.2,0.011131,0.007008,0.095584,-0.000097,  35.995
   501.4,0.011105,0.006982,0.095841,-0.000162,  36.002
   501.6,0.011073,0.006958,0.096111,-0.000188,  36.003
   501.8,0.011043,0.006934,0.096306,-0.000240,  36.002
   502.0,0.011025,0.006908,0.096481,-0.000292,  35.997
   502.2,0.011003,0.006886,0.096600,-0.000318,  35.999
   502.4,0.010975,0.006865,0.096713,-0.000357,  36.003
   502.6,0.010963,0.006853,0.096800,-0.000383,  35.999
   502.8,0.010941,0.006831,0.096850,-0.000396,  35.991
   503.0,0.010919,0.006813,0.096900,-0.000435,  35.984
   503.2,0.010907,0.006802,0.096957,-0.000461,  35.974
   503.4,0.010885,0.006805,0.096958,-0.000474,  35.964
   503.6,0.010892,0.006810,0.096946,-0.000487,  35.961
   503.8,0.010928,0.006826,0.096939,-0.000500,  35.959
   504.0,0.010974,0.006870,0.096895,-0.000512,  35.956
   504.2,0.011025,0.006930,0.096908,-0.000538,  35.959
   504.4,0.011083,0.007004,0.096915,-0.000551,  35.958
   504.6,0.011158,0.007069,0.096941,-0.000512,  35.958
   504.8,0.011242,0.007132,0.096731,-0.000461,  35.959
   505.0,0.011322,0.007199,0.096389,-0.000396,  35.959
   505.2,0.011418,0.007255,0.095932,-0.000331,  35.957
   505.4,0.011512,0.007310,0.096124,-0.000279,  35.958
   505.6,0.011581,0.007368,0.096556,-0.000227,  35.958
   505.8,0.011657,0.007412,0.097241,-0.000175,  35.960
   506.0,0.011722,0.007450,0.097655,-0.000136,  35.958
   506.2,0.011772,0.007484,0.098036,-0.000075,  35.960
   506.4,0.011821,0.007514,0.098386,-0.000084,  35.958
   506.6,0.011854,0.007532,0.098720,-0.000058,  35.962
   506.8,0.011877,0.007550,0.099048,-0.000032,  35.959
   507.0,0.011908,0.007568,0.099333,-0.000006,  35.965
   507.2,0.011924,0.007582,0.099491,0.000007,  35.972
   507.4,0.011936,0.007593,0.099591,0.000019,  35.982
   507.6,0.011959,0.007600,0.099597,0.000019,  35.984
   507.8,0.011975,0.007601,0.099629,0.000032,  35.988
   508.0,0.011971,0.007598,0.099604,0.000045,  35.991
   508.2,0.011963,0.007580,0.099553,0.000045,  35.997
   508.4,0.011944,0.007547,0.099585,0.000045,  35.992
   508.6,0.011911,0.007503,0.099618,0.000058,  35.995
   508.8,0.011876,0.007471,0.099675,0.000045,  36.003
   509.0,0.011836,0.007439,0.099751,0.000019,  35.998
   509.2,0.011792,0.007410,0.099852,-0.000006,  35.999
   509.4,0.011761,0.007386,0.099965,-0.000071,  36.001
   509.6,0.011730,0.007370,0.100103,-0.000110,  36.003
   509.8,0.011691,0.007348,0.100210,-0.000149,  36.000
   510.0,0.011668,0.007334,0.100304,-0.000214,  36.003
   510.2,0.011638,0.007312,0.100373,-0.000253,  36.001
   510.4,0.011610,0.007288,0.100468,-0.000292,  36.002
   510.6,0.011595,0.007262,0.100568,-0.000344,  36.006
   510.8,0.011574,0.007244,0.100650,-0.000383,  36.015
   511.0,0.011546,0.007227,0.100708,-0.000396,  36.010
   511.2,0.011531,0.007216,0.100726,-0.000422,  36.006
   511.4,0.011509,0.007200,0.100744,-0.000448,  35.998
   511.6,0.011484,0.007186,0.100770,-0.000474,  35.985
   511.8,0.011465,0.007170,0.100777,-0.000500,  35.977
   512.0,0.011443,0.007186,0.100784,-0.000512,  35.975
   512.2,0.011472,0.007214,0.100778,-0.000525,  35.972
   512.4,0.011531,0.007252,0.100772,-0.000538,  35.971
   512.6,0.011618,0.007301,0.100765,-0.000538,  35.972
   512.8,0.011683,0.007366,0.100752,-0.000525,  35.974
   513.0,0.011744,0.007444,0.100726,-0.000538,  35.974
   513.2,0.011823,0.007504,0.100717,-0.000500,  35.973
   513.4,0.011893,0.007563,0.100511,-0.000435,  35.964
   513.6,0.011974,0.007634,0.100197,-0.000357,  35.967
   513.8,0.012060,0.007691,0.099768,-0.000305,  35.962
   514.0,0.012149,0.007737,0.099987,-0.000253,  35.967
   514.2,0.012215,0.007788,0.100481,-0.000201,  35.969
   514.4,0.012280,0.007826,0.101236,-0.000149,  35.969
   514.6,0.012341,0.007861,0.101655,-0.000110,  35.968
   514.8,0.012383,0.007887,0.102053,-0.000097,  35.971
   515.0,0.012420,0.007906,0.102408,-0.000071,  35.968
   515.2,0.012454,0.007924,0.102700,-0.000045,  35.963
   515.4,0.012474,0.007938,0.102955,-0.000032,  35.970
   515.6,0.012496,0.007950,0.103140,-0.000006,  35.970
   515.8,0.012516,0.007963,0.103254,0.000007,  35.977
   516.0,0.012526,0.007976,0.103292,0.000019,  35.985
   516.2,0.012539,0.007972,0.103272,0.000019,  35.991
   516.4,0.012556,0.007967,0.103304,0.000032,  35.993
   516.6,0.012542,0.007957,0.103324,0.000045,  35.997
   516.8,0.012523,0.007932,0.103326,0.000045,  35.996
   517.0,0.012500,0.007900,0.103320,0.000045,  35.991
   517.2,0.012462,0.007855,0.103293,0.000045,  35.993
   517.4,0.012429,0.007829,0.103272,0.000032,  35.995
   517.6,0.012401,0.007801,0.103212,-0.000006,  35.996
   517.8,0.012362,0.007773,0.103288,-0.000058,  35.998
   518.0,0.012326,0.007751,0.103408,-0.000123,  35.999
   518.2,0.012295,0.007729,0.103574,-0.000175,  35.994
   518.4,0.012262,0.007711,0.103701,-0.000227,  35.991
   518.6,0.012235,0.007695,0.103823,-0.000266,  35.999
   518.8,0.012208,0.007675,0.103951,-0.000292,  35.996
   519.0,0.012180,0.007657,0.104027,-0.000344,  35.995
   519.2,0.012161,0.007640,0.104071,-0.000383,  35.996
   519.4,0.012146,0.007624,0.104069,-0.000396,  35.994
   519.6,0.012120,0.007610,0.104133,-0.000435,  35.987
   519.8,0.012102,0.007593,0.104210,-0.000461,  35.973
   520.0,0.012087,0.007577,0.104282,-0.000474,  35.965
   520.2,0.012076,0.007568,0.104288,-0.000487,  35.959
   520.4,0.012070,0.007553,0.104256,-0.000512,  35.949
   520.6,0.012075,0.007573,0.104185,-0.000525,  35.951
   520.8,0.012123,0.007622,0.104192,-0.000538,  35.951
   521.0,0.012200,0.007692,0.104211,-0.000564,  35.946
   521.2,0.012313,0.007753,0.104225,-0.000551,  35.947
   521.4,0.012388,0.007813,0.104301,-0.000525,  35.946
   521.6,0.012461,0.007892,0.104396,-0.000500,  35.940
   521.8,0.012520,0.007953,0.104509,-0.000448,  35.940
   522.0,0.012582,0.008012,0.104675,-0.000383,  35.934
   522.2,0.012657,0.008068,0.104866,-0.000305,  35.922
   522.4,0.012724,0.008113,0.105109,-0.000240,  35.927
   522.6,0.012802,0.008153,0.105343,-0.000188,  35.922
   522.8,0.012855,0.008194,0.105597,-0.000162,  35.922
   523.0,0.012909,0.008227,0.105849,-0.000123,  35.920
   523.2,0.012959,0.008250,0.106104,-0.000097,  35.923
   523.4,0.012993,0.008279,0.106372,-0.000084,  35.923
   523.6,0.013025,0.008295,0.106628,-0.000058,  35.917
   523.8,0.013056,0.008308,0.106800,-0.000032,  35.921
   524.0,0.013074,0.008319,0.106935,-0.000019,  35.925
   524.2,0.013090,0.008326,0.107031,-0.000006,  35.937
   524.4,0.013104,0.008335,0.107096,0.000019,  35.949
   524.6,0.013114,0.008340,0.107123,0.000007,  35.958
   524.8,0.013122,0.008328,0.107129,0.000019,  35.965
   525.0,0.013134,0.008308,0.107097,0.000032,  35.967
   525.2,0.013109,0.008283,0.106994,0.000045,  35.971
   525.4,0.013083,0.008259,0.106863,0.000045,  35.966
   525.6,0.013038,0.008224,0.106849,0.000032,  35.970
   525.8,0.012996,0.008190,0.106868,0.000019,  35.974
   526.0,0.012962,0.008164,0.106937,-0.000006,  35.972
   526.2,0.012922,0.008138,0.107027,-0.000045,  35.973
   526.4,0.012883,0.008110,0.107136,-0.000097,  35.974
   526.6,0.012860,0.008084,0.107283,-0.000162,  35.973
   526.8,0.012830,0.008058,0.107444,-0.000201,  35.970
   527.0,0.012794,0.008029,0.107418,-0.000240,  35.973
   527.2,0.012771,0.008009,0.107344,-0.000305,  35.976
   527.4,0.012744,0.007993,0.107180,-0.000331,  35.977
   527.6,0.012716,0.007979,0.107081,-0.000357,  35.973
   527.8,0.012700,0.007969,0.107002,-0.000396,  35.976
   528.0,0.012682,0.007956,0.106929,-0.000409,  35.970
   528.2,0.012656,0.007939,0.106837,-0.000435,  35.964
   528.4,0.012646,0.007919,0.106746,-0.000461,  35.950
   528.6,0.012625,0.007915,0.106642,-0.000474,  35.941
   528.8,0.012626,0.007915,0.106733,-0.000487,  35.940
   529.0,0.012652,0.007915,0.106909,-0.000512,  35.937
   529.2,0.012682,0.007955,0.107157,-0.000525,  35.925
   529.4,0.012743,0.008015,0.107242,-0.000538,  35.922
   529.6,0.012834,0.008100,0.107288,-0.000529,  35.928
   529.8,0.012942,0.008166,0.107256,-0.000538,  35.931
   530.0,0.013025,0.008235,0.107424,-0.000487,  35.927
   530.2,0.013114,0.008304,0.107675,-0.000412,  35.926
   530.4,0.013207,0.008360,0.107971,-0.000396,  35.926
   530.6,0.013275,0.008415,0.108046,-0.000331,  35.924
   530.8,0.013328,0.008469,0.108047,-0.000230,  35.928
   531.0,0.013377,0.008515,0.107945,-0.000214,  35.929
   531.2,0.013415,0.008553,0.108233,-0.000175,  35.933
   531.4,0.013467,0.008594,0.108664,-0.000101,  35.929
   531.6,0.013515,0.008627,0.109246,-0.000097,  35.931
   531.8,0.013564,0.008653,0.109587,-0.000036,  35.933
   532.0,0.013595,0.008669,0.109858,0.000000,  35.930
   532.2,0.013620,0.008683,0.110077,-0.000010,  35.931
   532.4,0.013645,0.008699,0.110283,0.000052,  35.938
   532.6,0.013658,0.008706,0.110446,0.000052,  35.945
   532.8,0.013674,0.008714,0.110557,0.000042,  35.961
   533.0,0.013691,0.008717,0.110636,0.000055,  35.968
   533.2,0.013687,0.008720,0.110676,0.000068,  35.970
   533.4,0.013687,0.008700,0.110683,0.000058,  35.975
   533.6,0.013691,0.008672,0.110697,0.000058,  35.975
   533.8,0.013660,0.008633,0.110697,0.000094,  35.977
   534.0,0.013625,0.008603,0.110665,0.000081,  35.976
   534.2,0.013580,0.008569,0.110703,0.000068,  35.978
   534.4,0.013536,0.008537,0.110779,0.000007,  35.980
   534.6,0.013498,0.008509,0.110874,0.000003,  35.979
   534.8,0.013458,0.008479,0.110931,-0.000071,  35.978
   535.0,0.013420,0.008458,0.111009,-0.000110,  35.985
   535.2,0.013390,0.008430,0.111073,-0.000175,  35.983
   535.4,0.013367,0.008410,0.111132,-0.000214,  35.980
   535.6,0.013336,0.008391,0.111209,-0.000253,  35.982
   535.8,0.013311,0.008375,0.111299,-0.000305,  35.979
   536.0,0.013294,0.008355,0.111389,-0.000331,  35.985
   536.2,0.013266,0.008340,0.111487,-0.000357,  35.985
   536.4,0.013244,0.008324,0.111585,-0.000396,  35.982
   536.6,0.013229,0.008310,0.111671,-0.000409,  35.972
   536.8,0.013203,0.008298,0.111684,-0.000422,  35.963
   537.0,0.013191,0.008292,0.111677,-0.000448,  35.956
   537.2,0.013178,0.008302,0.111618,-0.000461,  35.953
   537.4,0.013196,0.008316,0.111547,-0.000487,  35.951
   537.6,0.013240,0.008336,0.111473,-0.000490,  35.950
   537.8,0.013299,0.008382,0.111334,-0.000538,  35.950
   538.0,0.013368,0.008442,0.111329,-0.000551,  35.950
   538.2,0.013452,0.008512,0.111375,-0.000529,  35.948
   538.4,0.013559,0.008571,0.111468,-0.000525,  35.950
   538.6,0.013639,0.008635,0.111551,-0.000461,  35.951
   538.8,0.013720,0.008696,0.111646,-0.000383,  35.947
   539.0,0.013805,0.008746,0.111772,-0.000318,  35.945
   539.2,0.013866,0.008798,0.111964,-0.000266,  35.942
   539.4,0.013925,0.008845,0.112189,-0.000214,  35.940
   539.6,0.013981,0.008885,0.112441,-0.000162,  35.938
   539.8,0.014024,0.008919,0.112706,-0.000110,  35.940
   540.0,0.014056,0.008947,0.112998,-0.000097,  35.939
   540.2,0.014081,0.008974,0.113316,-0.000071,  35.938
   540.4,0.014104,0.008992,0.113550,-0.000045,  35.929
   540.6,0.014131,0.009010,0.113753,-0.000032,  35.928
   540.8,0.014155,0.009022,0.113936,-0.000006,  35.935
   541.0,0.014180,0.009034,0.114026,0.000007,  35.940
   541.2,0.014196,0.009044,0.114071,0.000019,  35.954
   541.4,0.014209,0.009045,0.114057,0.000045,  35.961
   541.6,0.014229,0.009047,0.114064,0.000058,  35.967
   541.8,0.014225,0.009043,0.114045,0.000058,  35.968
   542.0,0.014215,0.009020,0.113987,0.000071,  35.968
   542.2,0.014198,0.008990,0.114020,0.000058,  35.971
   542.4,0.014162,0.008948,0.114054,0.000058,  35.968
   542.6,0.014122,0.008916,0.114105,0.000045,  35.963
   542.8,0.014072,0.008880,0.114183,0.000019,  35.967
   543.0,0.014025,0.008844,0.114248,-0.000019,  35.966
   543.2,0.013981,0.008820,0.114357,-0.000071,  35.969
   543.4,0.013943,0.008789,0.114422,-0.000110,  35.970
   543.6,0.013904,0.008762,0.114485,-0.000175,  35.969
   543.8,0.013874,0.008735,0.114530,-0.000240,  35.970
   544.0,0.013853,0.008709,0.114608,-0.000279,  35.964
   544.2,0.013820,0.008694,0.114687,-0.000318,  35.968
   544.4,0.013806,0.008676,0.114778,-0.000344,  35.968
   544.6,0.013792,0.008655,0.114864,-0.000370,  35.968
   544.8,0.013766,0.008648,0.114898,-0.000383,  35.962
   545.0,0.013750,0.008636,0.114911,-0.000422,  35.954
   545.2,0.013730,0.008619,0.114909,-0.000448,  35.945
   545.4,0.013705,0.008608,0.114762,-0.000461,  35.927
   545.6,0.013692,0.008619,0.114524,-0.000474,  35.911
   545.8,0.013671,0.008639,0.114186,-0.000487,  35.908
   546.0,0.013707,0.008664,0.114160,-0.000512,  35.906
   546.2,0.013784,0.008708,0.114227,-0.000525,  35.902
   546.4,0.013891,0.008760,0.114400,-0.000512,  35.902
   546.6,0.013968,0.008822,0.114518,-0.000512,  35.903
   546.8,0.014057,0.008899,0.114662,-0.000512,  35.899
   547.0,0.014153,0.008959,0.114806,-0.000461,  35.903
   547.2,0.014228,0.009019,0.114962,-0.000396,  35.901
   547.4,0.014304,0.009080,0.115118,-0.000318,  35.894
   547.6,0.014378,0.009121,0.115293,-0.000266,  35.896
   547.8,0.014431,0.009161,0.115549,-0.000214,  35.897
   548.0,0.014480,0.009198,0.115855,-0.000188,  35.894
   548.2,0.014524,0.009221,0.116195,-0.000149,  35.894
   548.4,0.014556,0.009251,0.116478,-0.000110,  35.893
   548.6,0.014589,0.009279,0.116766,-0.000097,  35.895
   548.8,0.014617,0.009297,0.117060,-0.000071,  35.895
   549.0,0.014638,0.009311,0.117311,-0.000045,  35.895
   549.2,0.014657,0.009325,0.117518,-0.000045,  35.900
   549.4,0.014668,0.009342,0.117730,-0.000019,  35.905
   549.6,0.014676,0.009350,0.117789,0.000007,  35.915
   549.8,0.014690,0.009359,0.117782,0.000019,  35.924
   550.0,0.014701,0.009354,0.117669,0.000032,  35.934
   550.2,0.014705,0.009344,0.117576,0.000058,  35.933
   550.4,0.014691,0.009325,0.117468,0.000045,  35.937
   550.6,0.014675,0.009301,0.117328,0.000010,  35.935
   550.8,0.014640,0.009267,0.117334,0.000010,  35.935
   551.0,0.014598,0.009228,0.117400,-0.000003,  35.939
   551.2,0.014561,0.009197,0.117532,-0.000078,  35.944
   551.4,0.014510,0.009165,0.117611,-0.000130,  35.946
   551.6,0.014466,0.009131,0.117669,-0.000159,  35.945
   551.8,0.014437,0.009102,0.117707,-0.000198,  35.948
   552.0,0.014404,0.009076,0.117778,-0.000237,  35.948
   552.2,0.014368,0.009058,0.117844,-0.000311,  35.948
   552.4,0.014347,0.009040,0.117896,-0.000302,  35.942
   552.6,0.014326,0.009018,0.117969,-0.000363,  35.947
   552.8,0.014298,0.009000,0.118035,-0.000389,  35.946
   553.0,0.014280,0.008986,0.118134,-0.000393,  35.944
   553.2,0.014255,0.008970,0.118208,-0.000418,  35.944
   553.4,0.014232,0.008958,0.118261,-0.000431,  35.932
   553.6,0.014223,0.008948,0.118255,-0.000457,  35.914
   553.8,0.014206,0.008937,0.118261,-0.000470,  35.901
   554.0,0.014197,0.008932,0.118201,-0.000483,  35.891
   554.2,0.014204,0.008952,0.118126,-0.000509,  35.890
   554.4,0.014206,0.008980,0.117972,-0.000522,  35.886
   554.6,0.014260,0.009032,0.117892,-0.000535,  35.889
   554.8,0.014350,0.009093,0.117857,-0.000548,  35.885
   555.0,0.014458,0.009146,0.117803,-0.000487,  35.882
   555.2,0.014539,0.009215,0.117889,-0.000474,  35.885
   555.4,0.014628,0.009287,0.118059,-0.000461,  35.882
   555.6,0.014712,0.009345,0.118296,-0.000373,  35.886
   555.8,0.014779,0.009398,0.118459,-0.000308,  35.881
   556.0,0.014841,0.009444,0.118583,-0.000266,  35.877
   556.2,0.014905,0.009486,0.118725,-0.000214,  35.879
   556.4,0.014950,0.009519,0.118961,-0.000175,  35.879
   556.6,0.014997,0.009547,0.119230,-0.000136,  35.879
   556.8,0.015036,0.009575,0.119539,-0.000084,  35.878
   557.0,0.015062,0.009594,0.119777,-0.000071,  35.880
   557.2,0.015093,0.009613,0.120015,-0.000058,  35.875
   557.4,0.015112,0.009627,0.120246,-0.000032,  35.881
   557.6,0.015125,0.009634,0.120352,-0.000019,  35.889
   557.8,0.015145,0.009645,0.120397,-0.000006,  35.895
   558.0,0.015155,0.009651,0.120394,0.000007,  35.903
   558.2,0.015164,0.009655,0.120407,0.000019,  35.908
   558.4,0.015169,0.009661,0.120407,0.000032,  35.920
   558.6,0.015165,0.009647,0.120381,0.000058,  35.926
   558.8,0.015169,0.009626,0.120376,0.000058,  35.930
   559.0,0.015145,0.009590,0.120385,0.000058,  35.927
   559.2,0.015109,0.009558,0.120394,0.000058,  35.933
   559.4,0.015063,0.009526,0.120441,0.000032,  35.931
   559.6,0.015016,0.009486,0.120480,0.000007,  35.933
   559.8,0.014979,0.009456,0.120564,-0.000032,  35.933
   560.0,0.014933,0.009428,0.120637,-0.000071,  35.933
   560.2,0.014894,0.009400,0.120730,-0.000136,  35.927
   560.4,0.014865,0.009375,0.120817,-0.000175,  35.930
   560.6,0.014833,0.009353,0.120897,-0.000227,  35.935
   560.8,0.014799,0.009331,0.120971,-0.000266,  35.930
   561.0,0.014778,0.009314,0.121050,-0.000292,  35.936
   561.2,0.014754,0.009290,0.121089,-0.000331,  35.934
   561.4,0.014723,0.009266,0.121114,-0.000331,  35.939
   561.6,0.014705,0.009250,0.121124,-0.000357,  35.937
   561.8,0.014681,0.009236,0.121151,-0.000383,  35.925
   562.0,0.014653,0.009219,0.121158,-0.000409,  35.917
   562.2,0.014640,0.009216,0.121160,-0.000422,  35.907
   562.4,0.014621,0.009213,0.121154,-0.000435,  35.899
   562.6,0.014625,0.009225,0.121155,-0.000448,  35.898
   562.8,0.014656,0.009267,0.121129,-0.000474,  35.900
   563.0,0.014694,0.009323,0.121116,-0.000487,  35.902
   563.2,0.014756,0.009402,0.120893,-0.000500,  35.897
   563.4,0.014846,0.009457,0.120596,-0.000512,  35.903
   563.6,0.014949,0.009505,0.120211,-0.000474,  35.906
   563.8,0.015024,0.009552,0.120270,-0.000435,  35.904
   564.0,0.015109,0.009590,0.120508,-0.000396,  35.906
   564.2,0.015183,0.009632,0.120941,-0.000331,  35.908
   564.4,0.015239,0.009681,0.121228,-0.000279,  35.907
   564.6,0.015299,0.009725,0.121535,-0.000227,  35.904
   564.8,0.015343,0.009757,0.121862,-0.000175,  35.905
   565.0,0.015377,0.009783,0.122114,-0.000136,  35.907
   565.2,0.015416,0.009801,0.122345,-0.000110,  35.904
   565.4,0.015444,0.009825,0.122548,-0.000084,  35.904
   565.6,0.015462,0.009841,0.122739,-0.000071,  35.902
   565.8,0.015484,0.009854,0.122871,-0.000058,  35.906
   566.0,0.015507,0.009868,0.122970,-0.000045,  35.910
   566.2,0.015517,0.009876,0.123103,-0.000032,  35.909
   566.4,0.015537,0.009883,0.123218,-0.000006,  35.921
   566.6,0.015551,0.009887,0.123322,0.000007,  35.927
   566.8,0.015548,0.009884,0.123308,0.000019,  35.932
   567.0,0.015549,0.009887,0.123235,0.000019,  35.933
   567.2,0.015535,0.009869,0.123099,0.000032,  35.939
   567.4,0.015516,0.009837,0.122889,0.000045,  35.940
   567.6,0.015485,0.009797,0.122590,0.000032,  35.940
   567.8,0.015453,0.009765,0.122222,0.000019,  35.944
   568.0,0.015413,0.009724,0.122221,-0.000019,  35.949
   568.2,0.015366,0.009684,0.122360,-0.000058,  35.949
   568.4,0.015329,0.009654,0.122643,-0.000097,  35.949
   568.6,0.015280,0.009622,0.122806,-0.000149,  35.950
   568.8,0.015235,0.009596,0.123002,-0.000214,  35.951
   569.0,0.015206,0.009572,0.123199,-0.000253,  35.953
   569.2,0.015174,0.009550,0.123321,-0.000279,  35.953
   569.4,0.015137,0.009530,0.123402,-0.000331,  35.952
   569.6,0.015119,0.009515,0.123455,-0.000357,  35.950
   569.8,0.015098,0.009494,0.123557,-0.000383,  35.950
   570.0,0.015070,0.009472,0.123653,-0.000409,  35.953
   570.2,0.015052,0.009458,0.123761,-0.000422,  35.945
   570.4,0.015027,0.009448,0.123774,-0.000448,  35.931
   570.6,0.015002,0.009432,0.123740,-0.000461,  35.918
   570.8,0.014989,0.009437,0.123651,-0.000474,  35.906
   571.0,0.014970,0.009459,0.123597,-0.000487,  35.903
   571.2,0.014994,0.009496,0.123535,-0.000500,  35.898
   571.4,0.015049,0.009544,0.123441,-0.000512,  35.894
   571.6,0.015117,0.009602,0.123420,-0.000512,  35.893
   571.8,0.015186,0.009678,0.123420,-0.000512,  35.889
   572.0,0.015280,0.009740,0.123433,-0.000525,  35.886
   572.2,0.015377,0.009791,0.123486,-0.000474,  35.890
   572.4,0.015452,0.009848,0.123586,-0.000422,  35.883
   572.6,0.015528,0.009894,0.123740,-0.000344,  35.889
   572.8,0.015599,0.009931,0.123919,-0.000292,  35.884
   573.0,0.015652,0.009970,0.124120,-0.000227,  35.883
   573.2,0.015701,0.009998,0.124361,-0.000188,  35.880
   573.4,0.015746,0.010018,0.124613,-0.000149,  35.880
   573.6,0.015775,0.010030,0.124820,-0.000110,  35.877
   573.8,0.015802,0.010036,0.125033,-0.000097,  35.880
   574.0,0.015827,0.010053,0.125212,-0.000071,  35.875
   574.2,0.015840,0.010062,0.125229,-0.000045,  35.877
   574.4,0.015860,0.010081,0.125171,-0.000045,  35.884
   574.6,0.015877,0.010091,0.125024,-0.000019,  35.887
   574.8,0.015887,0.010103,0.125051,-0.000006,  35.894
   575.0,0.015905,0.010115,0.125119,0.000007,  35.903
   575.2,0.015913,0.010113,0.125261,0.000019,  35.906
   575.4,0.015901,0.010104,0.125331,0.000032,  35.912
   575.6,0.015894,0.010094,0.125376,0.000032,  35.916
   575.8,0.015867,0.010070,0.125426,0.000032,  35.914
   576.0,0.015827,0.010038,0.125454,0.000032,  35.916
   576.2,0.015790,0.010002,0.125487,0.000032,  35.917
   576.4,0.015739,0.009968,0.125472,0.000007,  35.915
   576.6,0.015701,0.009931,0.125548,-0.000032,  35.919
   576.8,0.015664,0.009897,0.125677,-0.000097,  35.918
   577.0,0.015641,0.009871,0.125840,-0.000149,  35.915
   577.2,0.015614,0.009841,0.125921,-0.000188,  35.920
   577.4,0.015577,0.009816,0.125975,-0.000240,  35.919
   577.6,0.015551,0.009792,0.126026,-0.000279,  35.920
   577.8,0.015519,0.009777,0.126066,-0.000318,  35.918
   578.0,0.015488,0.009759,0.126092,-0.000344,  35.920
   578.2,0.015472,0.009736,0.126096,-0.000357,  35.918
   578.4,0.015451,0.009719,0.126143,-0.000383,  35.916
   578.6,0.015423,0.009701,0.126185,-0.000409,  35.908
   578.8,0.015410,0.009681,0.126240,-0.000435,  35.900
   579.0,0.015391,0.009671,0.126234,-0.000461,  35.888
   579.2,0.015371,0.009661,0.126213,-0.000474,  35.877
   579.4,0.015364,0.009685,0.126145,-0.000487,  35.870
   579.6,0.015353,0.009725,0.126097,-0.000500,  35.868
   579.8,0.015393,0.009784,0.126029,-0.000500,  35.870
   580.0,0.015475,0.009847,0.125959,-0.000512,  35.868
   580.2,0.015576,0.009911,0.125978,-0.000500,  35.867
   580.4,0.015653,0.009981,0.126043,-0.000500,  35.866
   580.6,0.015747,0.010039,0.126148,-0.000487,  35.868
   580.8,0.015837,0.010091,0.126227,-0.000422,  35.868
   581.0,0.015904,0.010139,0.126313,-0.000370,  35.867
   581.2,0.015975,0.010181,0.126385,-0.000292,  35.876
   581.4,0.016032,0.010219,0.126471,-0.000227,  35.868
   581.6,0.016072,0.010255,0.126666,-0.000188,  35.869
   581.8,0.016119,0.010276,0.126908,-0.000149,  35.871
   582.0,0.016152,0.010296,0.127190,-0.000097,  35.872
   582.2,0.016173,0.010300,0.127406,-0.000084,  35.873
   582.4,0.016198,0.010307,0.127600,-0.000023,  35.871
   582.6,0.016215,0.010321,0.127788,-0.000032,  35.868
   582.8,0.016225,0.010328,0.127916,-0.000019,  35.876
   583.0,0.016242,0.010342,0.127983,0.000016,  35.880
   583.2,0.016250,0.010350,0.128016,0.000007,  35.882
   583.4,0.016252,0.010350,0.128063,0.000019,  35.898
   583.6,0.016266,0.010356,0.128071,0.000068,  35.903
   583.8,0.016272,0.010346,0.128065,0.000058,  35.902
   584.0,0.016252,0.010328,0.128046,0.000058,  35.907
   584.2,0.016226,0.010307,0.128019,0.000094,  35.910
   584.4,0.016179,0.010278,0.127952,0.000058,  35.913
   584.6,0.016135,0.010244,0.127939,0.000058,  35.913
   584.8,0.016098,0.010209,0.127971,0.000081,  35.914
   585.0,0.016046,0.010174,0.128002,0.000019,  35.909
   585.2,0.016011,0.010138,0.128000,-0.000032,  35.911
   585.4,0.015972,0.010107,0.127978,-0.000075,  35.911
   585.6,0.015954,0.010081,0.127948,-0.000162,  35.912
   585.8,0.015929,0.010051,0.127995,-0.000201,  35.918
   586.0,0.015895,0.010027,0.128077,-0.000204,  35.914
   586.2,0.015866,0.010003,0.128207,-0.000279,  35.915
   586.4,0.015836,0.009985,0.128263,-0.000305,  35.915
   586.6,0.015807,0.009964,0.128310,-0.000295,  35.916
   586.8,0.015786,0.009948,0.128350,-0.000344,  35.916
   587.0,0.015770,0.009928,0.128377,-0.000357,  35.909
   587.2,0.015745,0.009917,0.128370,-0.000347,  35.902
   587.4,0.015732,0.009904,0.128341,-0.000396,  35.890
   587.6,0.015717,0.009894,0.128356,-0.000422,  35.882
   587.8,0.015714,0.009887,0.128387,-0.000399,  35.869
   588.0,0.015722,0.009917,0.128417,-0.000448,  35.867
   588.2,0.015742,0.009968,0.128211,-0.000461,  35.863
   588.4,0.015797,0.010047,0.127894,-0.000487,  35.861
   588.6,0.015869,0.010104,0.127453,-0.000487,  35.859
   588.8,0.015982,0.010162,0.127499,-0.000461,  35.857
   589.0,0.016061,0.010225,0.127735,-0.000435,  35.859
   589.2,0.016128,0.010272,0.128157,-0.000396,  35.858
   589.4,0.016208,0.010310,0.128367,-0.000344,  35.860
   589.6,0.016267,0.010355,0.128551,-0.000279,  35.859
   589.8,0.016313,0.010390,0.128728,-0.000227,  35.863
   590.0,0.016363,0.010409,0.128885,-0.000175,  35.860
   590.2,0.016402,0.010434,0.129075,-0.000123,  35.860
   590.4,0.016427,0.010448,0.129276,-0.000097,  35.860
   590.6,0.016448,0.010460,0.129497,-0.000071,  35.859
   590.8,0.016474,0.010467,0.129632,-0.000045,  35.856
   591.0,0.016490,0.010476,0.129724,-0.000032,  35.857
   591.2,0.016500,0.010484,0.129790,-0.000006,  35.863
   591.4,0.016507,0.010492,0.129621,-0.000006,  35.864
   591.6,0.016509,0.010495,0.129323,0.000007,  35.868
   591.8,0.016514,0.010499,0.128907,0.000019,  35.883
   592.0,0.016513,0.010502,0.128872,0.000032,  35.890
   592.2,0.016510,0.010508,0.128950,0.000032,  35.895
   592.4,0.016513,0.010488,0.129160,0.000045,  35.900
   592.6,0.016486,0.010455,0.129259,0.000058,  35.902
   592.8,0.016445,0.010418,0.129337,0.000071,  35.899
   593.0,0.016385,0.010388,0.129410,0.000058,  35.905
   593.2,0.016342,0.010348,0.129521,0.000032,  35.903
   593.4,0.016295,0.010316,0.129630,-0.000006,  35.903
   593.6,0.016254,0.010282,0.129738,-0.000045,  35.904
   593.8,0.016218,0.010249,0.129826,-0.000097,  35.905
   594.0,0.016174,0.010217,0.129874,-0.000149,  35.904
   594.2,0.016142,0.010187,0.129907,-0.000175,  35.904
   594.4,0.016115,0.010165,0.129545,-0.000227,  35.908
   594.6,0.016087,0.010144,0.128983,-0.000279,  35.909
   594.8,0.016074,0.010117,0.128214,-0.000305,  35.907
   595.0,0.016054,0.010096,0.128201,-0.000331,  35.913
   595.2,0.016026,0.010082,0.128483,-0.000370,  35.913
   595.4,0.016008,0.010061,0.129037,-0.000383,  35.905
   595.6,0.015981,0.010041,0.129245,-0.000396,  35.900
   595.8,0.015955,0.010032,0.129438,-0.000422,  35.887
   596.0,0.015943,0.010034,0.129557,-0.000435,  35.875
   596.2,0.015924,0.010042,0.129641,-0.000448,  35.867
   596.4,0.015943,0.010062,0.129663,-0.000474,  35.849
   596.6,0.015973,0.010107,0.129650,-0.000487,  35.851
   596.8,0.016025,0.010162,0.129541,-0.000500,  35.851
   597.0,0.016091,0.010232,0.129374,-0.000512,  35.851
   597.2,0.016166,0.010291,0.129132,-0.000487,  35.851
   597.4,0.016267,0.010348,0.129212,-0.000474,  35.850
   597.6,0.016341,0.010406,0.129423,-0.000409,  35.849
   597.8,0.016405,0.010449,0.129756,-0.000357,  35.853
   598.0,0.016477,0.010489,0.129809,-0.000305,  35.847
   598.2,0.016531,0.010528,0.129811,-0.000253,  35.846
   598.4,0.016569,0.010556,0.129717,-0.000188,  35.849
   598.6,0.016613,0.010578,0.129553,-0.000123,  35.847
   598.8,0.016646,0.010603,0.129778,-0.000084,  35.851
   599.0,0.016661,0.010619,0.130100,-0.000058,  35.845
   599.2,0.016678,0.010631,0.130512,-0.000032,  35.845
   599.4,0.016695,0.010640,0.130699,-0.000019,  35.844
   599.6,0.016706,0.010645,0.130828,-0.000006,  35.845
   599.8,0.016718,0.010649,0.130908,0.000007,  35.856
   600.0,0.016729,0.010659,0.130999,0.000019,  35.863
   600.2,0.016739,0.010660,0.131054,0.000032,  35.871
   600.4,0.016753,0.010664,0.131076,0.000058,  35.887
   600.6,0.016750,0.010664,0.131104,0.000071,  35.895
   600.8,0.016739,0.010661,0.131106,0.000071,  35.889
   601.0,0.016720,0.010635,0.131087,0.000084,  35.895
   601.2,0.016688,0.010604,0.131081,0.000084,  35.898
   601.4,0.016641,0.010553,0.131087,0.000084,  35.900
   601.6,0.016581,0.010512,0.131079,0.000071,  35.898
   601.8,0.016541,0.010482,0.131114,0.000032,  35.901
   602.0,0.016500,0.010448,0.131168,-0.000019,  35.896
   602.2,0.016462,0.010413,0.131241,-0.000045,  35.904
   602.4,0.016426,0.010388,0.130997,-0.000097,  35.901
   602.6,0.016391,0.010360,0.130579,-0.000162,  35.897
   602.8,0.016355,0.010336,0.130029,-0.000188,  35.903
   603.0,0.016331,0.010309,0.130084,-0.000227,  35.901
   603.2,0.016303,0.010292,0.130341,-0.000279,  35.901
   603.4,0.016292,0.010274,0.130834,-0.000305,  35.904
   603.6,0.016278,0.010254,0.131030,-0.000331,  35.904
   603.8,0.016262,0.010240,0.131189,-0.000357,  35.899
   604.0,0.016240,0.010228,0.131301,-0.000370,  35.892
   604.2,0.016216,0.010209,0.131393,-0.000396,  35.880
   604.4,0.016197,0.010197,0.131462,-0.000409,  35.868
   604.6,0.016168,0.010211,0.131478,-0.000409,  35.864
   604.8,0.016153,0.010241,0.131472,-0.000422,  35.851
   605.0,0.016188,0.010287,0.131431,-0.000448,  35.845
   605.2,0.016242,0.010336,0.131362,-0.000448,  35.847
   605.4,0.016335,0.010390,0.131368,-0.000435,  35.844
   605.6,0.016409,0.010460,0.131407,-0.000448,  35.844
   605.8,0.016481,0.010512,0.131484,-0.000409,  35.840
   606.0,0.016567,0.010556,0.131578,-0.000344,  35.841
   606.2,0.016626,0.010604,0.131681,-0.000266,  35.845
   606.4,0.016686,0.010640,0.131823,-0.000227,  35.843
   606.6,0.016740,0.010672,0.131995,-0.000175,  35.838
   606.8,0.016777,0.010694,0.132186,-0.000149,  35.843
   607.0,0.016810,0.010713,0.132385,-0.000123,  35.841
   607.2,0.016834,0.010733,0.132543,-0.000097,  35.839
   607.4,0.016850,0.010741,0.132709,-0.000058,  35.838
   607.6,0.016861,0.010746,0.132854,-0.000019,  35.843
   607.8,0.016870,0.010759,0.132999,0.000019,  35.840
   608.0,0.016874,0.010766,0.133042,0.000032,  35.840
   608.2,0.016885,0.010769,0.133069,0.000032,  35.848
   608.4,0.016903,0.010779,0.133054,0.000058,  35.858
   608.6,0.016907,0.010789,0.133019,0.000058,  35.864
   608.8,0.016913,0.010787,0.132949,0.000058,  35.874
   609.0,0.016924,0.010781,0.132872,0.000071,  35.885
   609.2,0.016907,0.010772,0.132797,0.000071,  35.887
   609.4,0.016883,0.010758,0.132727,0.000084,  35.893
   609.6,0.016856,0.010725,0.132638,0.000062,  35.889
   609.8,0.016809,0.010687,0.132596,0.000049,  35.900
   610.0,0.016760,0.010638,0.132546,0.000049,  35.892
   610.2,0.016709,0.010599,0.132488,0.000000,  35.896
   610.4,0.016662,0.010570,0.132507,-0.000065,  35.893
   610.6,0.016621,0.010534,0.132555,-0.000094,  35.896
   610.8,0.016589,0.010499,0.132611,-0.000133,  35.898
   611.0,0.016550,0.010473,0.132631,-0.000172,  35.899
   611.2,0.016518,0.010445,0.132637,-0.000224,  35.897
   611.4,0.016491,0.010414,0.132635,-0.000227,  35.897
   611.6,0.016458,0.010393,0.132677,-0.000253,  35.899
   611.8,0.016436,0.010373,0.132755,-0.000305,  35.902
   612.0,0.016421,0.010352,0.132834,-0.000295,  35.901
   612.2,0.016390,0.010330,0.132841,-0.000308,  35.898
   612.4,0.016368,0.010316,0.132834,-0.000370,  35.889
   612.6,0.016350,0.010297,0.132791,-0.000383,  35.884
   612.8,0.016336,0.010283,0.132779,-0.000396,  35.872
   613.0,0.016325,0.010271,0.132793,-0.000422,  35.864
   613.2,0.016320,0.010291,0.132801,-0.000435,  35.852
   613.4,0.016317,0.010335,0.132787,-0.000448,  35.845
   613.6,0.016366,0.010402,0.132760,-0.000474,  35.844
   613.8,0.016443,0.010450,0.132685,-0.000461,  35.844
   614.0,0.016536,0.010513,0.132731,-0.000448,  35.842
   614.2,0.016612,0.010581,0.132826,-0.000409,  35.840
   614.4,0.016683,0.010629,0.132942,-0.000344,  35.842
   614.6,0.016760,0.010672,0.133002,-0.000292,  35.840
   614.8,0.016820,0.010714,0.133049,-0.000227,  35.843
   615.0,0.016865,0.010747,0.133080,-0.000188,  35.844
   615.2,0.016916,0.010768,0.133203,-0.000149,  35.842
   615.4,0.016951,0.010789,0.133362,-0.000123,  35.845
   615.6,0.016969,0.010805,0.133567,-0.000097,  35.842
   615.8,0.016989,0.010815,0.133649,-0.000071,  35.845
   616.0,0.016999,0.010825,0.133668,-0.000045,  35.841
   616.2,0.017004,0.010831,0.133665,-0.000019,  35.845
   616.4,0.017002,0.010835,0.133657,0.000007,  35.847
   616.6,0.017010,0.010838,0.133636,0.000019,  35.848
   616.8,0.017018,0.010844,0.133581,0.000032,  35.856
   617.0,0.017027,0.010848,0.133519,0.000058,  35.861
   617.2,0.017033,0.010854,0.133521,0.000058,  35.871
   617.4,0.017032,0.010844,0.133531,0.000058,  35.886
   617.6,0.017041,0.010817,0.133562,0.000071,  35.891
   617.8,0.017016,0.010787,0.133536,0.000071,  35.893
