Run Name,Run 3
Run Date,05:05:43 PM   02-09-15
Method Name,14% C group 2 April 7 2014.12
Export Format Version, 1.00
Method ID, 2120
Points/Second, 5.00
Number of Records,   3278
Offset from Run Start Time,00:00:00
Run End Time,00:11:00
Time,Second
QuadTec 1, (280.0 nm), AU
QuadTec 2, (260.0 nm), AU
Gradient Pump,<Not Selected>
QuadTec 3, (214.0 nm), AU
QuadTec 4, (405.0 nm), AU
Conductivity,mS/cm
Trace 6,<Not Available>
GP Pressure,<Not Selected>
Volume,<Not Selected>
Fraction,<Not Available>
Time,QuadTec 1,QuadTec 2,QuadTec 3,QuadTec 4,Conductivity
     0.0,0.000627,0.000461,-0.000838,0.000352,  23.486
     0.2,0.000612,0.000454,-0.000788,0.000352,  23.483
     0.4,0.000605,0.000451,-0.000717,0.000330,  23.481
     0.6,0.000592,0.000454,-0.000679,0.000365,  23.481
     0.8,0.000589,0.000454,-0.000635,0.000365,  23.470
     1.0,0.000602,0.000462,-0.000584,0.000330,  23.466
     1.2,0.000621,0.000475,-0.000539,0.000378,  23.468
     1.4,0.000619,0.000477,-0.000520,0.000365,  23.466
     1.6,0.000601,0.000480,-0.000508,0.000365,  23.466
     1.8,0.000584,0.000486,-0.000495,0.000365,  23.465
     2.0,0.000587,0.000490,-0.000495,0.000365,  23.461
     2.2,0.000586,0.000492,-0.000489,0.000365,  23.463
     2.4,0.000598,0.000500,-0.000488,0.000317,  23.459
     2.6,0.000609,0.000495,-0.000487,0.000326,  23.461
     2.8,0.000614,0.000490,-0.000672,0.000326,  23.459
     3.0,0.000625,0.000486,-0.000985,0.000304,  23.460
     3.2,0.000630,0.000470,-0.001399,0.000339,  23.461
     3.4,0.000624,0.000458,-0.001405,0.000339,  23.460
     3.6,0.000530,0.000000,-0.001259,0.000317,  23.459
     3.8,0.000428,0.000000,-0.000960,0.000339,  23.462
     4.0,0.000512,0.000000,-0.000890,0.000339,  23.466
     4.2,0.000528,0.000000,-0.000832,0.000317,  23.468
     4.4,0.000000,0.000000,-0.000806,0.000339,  23.472
     4.6,0.000000,0.000000,-0.000302,0.000339,  23.472
     4.8,0.000000,0.000000,0.000427,0.000330,  23.469
     5.0,0.000000,0.000000,-0.000769,0.000000,  23.468
     5.2,0.000000,0.000000,-0.000769,0.000000,  23.460
     5.4,0.000000,0.000000,-0.000769,0.000000,  23.455
     5.6,0.000000,0.000000,-0.000769,0.000000,  23.449
     5.8,0.000000,0.000000,-0.000769,0.000000,  23.441
     6.0,0.000000,0.000000,0.000000,0.000000,  23.443
     6.2,0.000000,0.000000,0.000000,0.000000,  23.433
     6.4,0.000000,0.000000,0.000000,0.000000,  23.439
     6.6,0.000000,0.000000,0.000000,0.000000,  23.432
     6.8,0.000000,0.000000,0.000000,0.000000,  23.431
     7.0,0.000000,0.000000,0.000000,0.000000,  23.427
     7.2,0.000000,0.000000,0.000000,0.000000,  23.430
     7.4,0.000000,0.000000,0.000000,0.000000,  23.423
     7.6,0.000000,0.000000,0.000000,0.000000,  23.426
     7.8,0.000000,0.000000,0.000000,0.000000,  23.425
     8.0,0.000000,0.000000,0.000000,0.000000,  23.422
     8.2,0.000013,0.000000,0.000000,0.000000,  23.421
     8.4,0.000030,0.000056,0.000000,0.000000,  23.418
     8.6,0.000041,0.000057,0.000000,0.000000,  23.419
     8.8,0.000052,0.000056,0.000000,0.000000,  23.428
     9.0,0.000055,0.000063,0.000000,0.000000,  23.436
     9.2,0.000052,0.000063,0.000000,0.000000,  23.438
     9.4,0.000055,0.000074,0.000000,0.000082,  23.448
     9.6,0.000067,0.000086,-0.000564,0.000095,  23.448
     9.8,0.000074,0.000087,-0.000583,0.000109,  23.450
    10.0,0.000074,0.000087,-0.000602,0.000109,  23.440
    10.2,0.000074,0.000086,-0.000634,0.000135,  23.435
    10.4,0.000068,0.000071,-0.000654,0.000135,  23.429
    10.6,0.000040,0.000049,-0.000685,0.000135,  23.420
    10.8,0.000001,0.000018,-0.000705,0.000148,  23.418
    11.0,-0.000055,-0.000012,-0.000711,0.000161,  23.409
    11.2,-0.000091,-0.000033,-0.000730,0.000148,  23.408
    11.4,-0.000125,-0.000053,-0.000743,0.000135,  23.407
    11.6,-0.000158,-0.000078,-0.000673,0.000135,  23.401
    11.8,-0.000181,-0.000104,-0.000564,0.000109,  23.401
    12.0,-0.000204,-0.000126,-0.000417,0.000082,  23.394
    12.2,-0.000218,-0.000129,-0.000653,0.000056,  23.395
    12.4,-0.000206,-0.000121,-0.001067,0.000017,  23.399
    12.6,-0.000186,-0.000100,-0.001647,-0.000035,  23.397
    12.8,-0.000152,-0.000089,-0.001665,-0.000109,  23.394
    13.0,-0.000126,-0.000071,-0.001493,-0.000126,  23.393
    13.2,-0.000105,-0.000052,-0.001116,-0.000165,  23.390
    13.4,-0.000081,-0.000040,-0.000560,-0.000165,  23.388
    13.6,-0.000065,-0.000026,-0.000446,-0.000165,  23.392
    13.8,-0.000055,-0.000007,-0.000369,-0.000139,  23.403
    14.0,-0.000025,0.000008,-0.000370,-0.000100,  23.413
    14.2,-0.000008,0.000013,-0.000370,-0.000074,  23.425
    14.4,-0.000007,0.000022,-0.000422,-0.000035,  23.436
    14.6,0.000008,0.000023,-0.000474,0.000004,  23.434
    14.8,0.000017,0.000024,-0.000519,-0.000005,  23.430
    15.0,0.000016,0.000035,-0.000558,0.000008,  23.424
    15.2,0.000025,0.000036,-0.000596,0.000035,  23.414
    15.4,0.000006,0.000027,-0.000584,0.000013,  23.408
    15.6,-0.000028,0.000006,-0.000559,0.000061,  23.398
    15.8,-0.000066,-0.000003,-0.000514,0.000074,  23.399
    16.0,-0.000097,-0.000025,-0.000559,0.000074,  23.393
    16.2,-0.000140,-0.000057,-0.000629,0.000109,  23.390
    16.4,-0.000179,-0.000086,-0.000763,0.000122,  23.388
    16.6,-0.000201,-0.000112,-0.000776,0.000087,  23.389
    16.8,-0.000230,-0.000141,-0.000731,0.000074,  23.388
    17.0,-0.000243,-0.000163,-0.000667,0.000061,  23.385
    17.2,-0.000243,-0.000168,-0.000584,-0.000026,  23.385
    17.4,-0.000233,-0.000162,-0.000448,-0.000070,  23.388
    17.6,-0.000207,-0.000143,-0.000313,-0.000109,  23.384
    17.8,-0.000171,-0.000130,-0.000254,-0.000183,  23.389
    18.0,-0.000158,-0.000110,-0.000221,-0.000213,  23.388
    18.2,-0.000135,-0.000091,-0.000240,-0.000213,  23.393
    18.4,-0.000103,-0.000072,-0.000202,-0.000235,  23.390
    18.6,-0.000081,-0.000059,-0.000157,-0.000187,  23.393
    18.8,-0.000068,-0.000040,-0.000120,-0.000161,  23.399
    19.0,-0.000054,-0.000023,-0.000178,-0.000122,  23.413
    19.2,-0.000037,-0.000016,-0.000275,-0.000061,  23.422
    19.4,-0.000026,-0.000002,-0.000435,-0.000022,  23.429
    19.6,-0.000014,0.000008,-0.000494,-0.000018,  23.431
    19.8,-0.000006,0.000019,-0.000513,-0.000040,  23.436
    20.0,-0.000004,0.000025,-0.000520,-0.000013,  23.425
    20.2,-0.000001,0.000022,-0.000597,0.000013,  23.417
    20.4,-0.000018,0.000019,-0.000712,0.000013,  23.408
    20.6,-0.000046,0.000007,-0.000859,0.000026,  23.403
    20.8,-0.000078,-0.000024,-0.000853,0.000039,  23.398
    21.0,-0.000106,-0.000055,-0.000783,0.000039,  23.395
    21.2,-0.000147,-0.000089,-0.000655,0.000039,  23.394
    21.4,-0.000179,-0.000119,-0.000668,0.000052,  23.389
    21.6,-0.000207,-0.000153,-0.000751,0.000052,  23.390
    21.8,-0.000242,-0.000181,-0.000853,0.000039,  23.391
    22.0,-0.000263,-0.000180,-0.000814,0.000013,  23.395
    22.2,-0.000257,-0.000174,-0.000725,-0.000053,  23.394
    22.4,-0.000247,-0.000160,-0.000564,-0.000118,  23.392
    22.6,-0.000207,-0.000147,-0.000371,-0.000157,  23.391
    22.8,-0.000182,-0.000131,-0.000256,-0.000209,  23.394
    23.0,-0.000161,-0.000111,-0.000140,-0.000261,  23.390
    23.2,-0.000123,-0.000090,-0.000023,-0.000261,  23.391
    23.4,-0.000098,-0.000071,-0.000075,-0.000261,  23.393
    23.6,-0.000085,-0.000057,-0.000203,-0.000235,  23.395
    23.8,-0.000062,-0.000037,-0.000421,-0.000209,  23.405
    24.0,-0.000045,-0.000024,-0.000479,-0.000183,  23.419
    24.2,-0.000040,-0.000010,-0.000479,-0.000144,  23.425
    24.4,-0.000035,-0.000008,-0.000448,-0.000105,  23.433
    24.6,-0.000026,-0.000005,-0.000487,-0.000079,  23.437
    24.8,-0.000025,0.000006,-0.000533,-0.000053,  23.434
    25.0,-0.000022,0.000005,-0.000591,-0.000026,  23.421
    25.2,-0.000030,0.000001,-0.000649,-0.000013,  23.417
    25.4,-0.000057,-0.000006,-0.000681,-0.000000,  23.413
    25.6,-0.000081,-0.000018,-0.000732,0.000013,  23.409
    25.8,-0.000103,-0.000046,-0.000719,0.000013,  23.407
    26.0,-0.000131,-0.000078,-0.000694,0.000026,  23.403
    26.2,-0.000166,-0.000113,-0.000630,0.000039,  23.405
    26.4,-0.000192,-0.000147,-0.000624,0.000026,  23.401
    26.6,-0.000223,-0.000178,-0.000637,0.000061,  23.404
    26.8,-0.000262,-0.000214,-0.000662,0.000048,  23.400
    27.0,-0.000297,-0.000220,-0.000611,-0.000053,  23.406
    27.2,-0.000297,-0.000214,-0.000533,-0.000083,  23.398
    27.4,-0.000268,-0.000197,-0.000411,-0.000122,  23.398
    27.6,-0.000228,-0.000180,-0.000262,-0.000196,  23.401
    27.8,-0.000203,-0.000154,-0.000121,-0.000248,  23.402
    28.0,-0.000175,-0.000125,0.000040,-0.000261,  23.401
    28.2,-0.000147,-0.000098,0.000008,-0.000261,  23.398
    28.4,-0.000119,-0.000084,-0.000088,-0.000261,  23.397
    28.6,-0.000103,-0.000069,-0.000313,-0.000235,  23.405
    28.8,-0.000088,-0.000047,-0.000422,-0.000196,  23.412
    29.0,-0.000071,-0.000032,-0.000506,-0.000157,  23.424
    29.2,-0.000060,-0.000024,-0.000589,-0.000131,  23.428
    29.4,-0.000051,-0.000015,-0.000666,-0.000092,  23.439
    29.6,-0.000040,-0.000013,-0.000750,-0.000066,  23.440
    29.8,-0.000032,-0.000010,-0.000808,-0.000040,  23.438
    30.0,-0.000024,-0.000011,-0.000841,-0.000026,  23.430
    30.2,-0.000026,-0.000008,-0.000847,-0.000013,  23.426
    30.4,-0.000037,-0.000005,-0.000828,-0.000013,  23.416
    30.6,-0.000060,-0.000026,-0.000835,-0.000000,  23.411
    30.8,-0.000089,-0.000059,-0.000848,0.000013,  23.410
    31.0,-0.000126,-0.000105,-0.000867,0.000013,  23.410
    31.2,-0.000168,-0.000136,-0.000848,0.000026,  23.409
    31.4,-0.000207,-0.000174,-0.000830,0.000026,  23.410
    31.6,-0.000255,-0.000217,-0.000772,0.000026,  23.409
    31.8,-0.000305,-0.000234,-0.000721,0.000013,  23.410
    32.0,-0.000315,-0.000243,-0.000657,-0.000040,  23.407
    32.2,-0.000298,-0.000244,-0.000547,-0.000070,  23.408
    32.4,-0.000267,-0.000234,-0.000443,-0.000096,  23.409
    32.6,-0.000249,-0.000222,-0.000308,-0.000183,  23.408
    32.8,-0.000225,-0.000201,-0.000173,-0.000235,  23.408
    33.0,-0.000185,-0.000170,0.000001,-0.000248,  23.409
    33.2,-0.000157,-0.000149,-0.000018,-0.000274,  23.413
    33.4,-0.000138,-0.000128,-0.000127,-0.000287,  23.415
    33.6,-0.000115,-0.000104,-0.000338,-0.000274,  23.416
    33.8,-0.000098,-0.000084,-0.000448,-0.000235,  23.423
    34.0,-0.000088,-0.000071,-0.000551,-0.000161,  23.429
    34.2,-0.000079,-0.000059,-0.000680,-0.000122,  23.439
    34.4,-0.000068,-0.000053,-0.000943,-0.000131,  23.446
    34.6,-0.000060,-0.000045,-0.001262,-0.000057,  23.444
    34.8,-0.000051,-0.000044,-0.001665,-0.000018,  23.443
    35.0,-0.000051,-0.000040,-0.001742,-0.000018,  23.437
    35.2,-0.000054,-0.000038,-0.001678,0.000017,  23.434
    35.4,-0.000056,-0.000035,-0.001487,0.000030,  23.422
    35.6,-0.000070,-0.000056,-0.001423,0.000021,  23.425
    35.8,-0.000107,-0.000095,-0.001353,-0.000013,  23.420
    36.0,-0.000149,-0.000144,-0.001277,-0.000000,  23.420
    36.2,-0.000196,-0.000180,-0.001315,0.000013,  23.422
    36.4,-0.000240,-0.000218,-0.001392,0.000013,  23.422
    36.6,-0.000295,-0.000249,-0.001519,-0.000000,  23.423
    36.8,-0.000341,-0.000263,-0.001646,-0.000026,  23.421
    37.0,-0.000349,-0.000265,-0.001786,-0.000079,  23.421
    37.2,-0.000345,-0.000262,-0.001945,-0.000105,  23.424
    37.4,-0.000320,-0.000257,-0.001797,-0.000157,  23.423
    37.6,-0.000297,-0.000232,-0.001516,-0.000187,  23.423
    37.8,-0.000267,-0.000201,-0.001112,-0.000213,  23.424
    38.0,-0.000230,-0.000173,-0.000959,-0.000287,  23.425
    38.2,-0.000200,-0.000150,-0.000857,-0.000291,  23.424
    38.4,-0.000172,-0.000124,-0.000838,-0.000265,  23.425
    38.6,-0.000147,-0.000096,-0.000871,-0.000287,  23.425
    38.8,-0.000121,-0.000074,-0.000961,-0.000200,  23.431
    39.0,-0.000099,-0.000062,-0.001108,-0.000148,  23.447
    39.2,-0.000082,-0.000050,-0.001159,-0.000157,  23.452
    39.4,-0.000065,-0.000042,-0.001230,-0.000083,  23.452
    39.6,-0.000057,-0.000034,-0.001270,-0.000057,  23.455
    39.8,-0.000042,-0.000028,-0.001270,-0.000053,  23.453
    40.0,-0.000039,-0.000036,-0.001271,-0.000005,  23.445
    40.2,-0.000051,-0.000031,-0.001239,-0.000005,  23.441
    40.4,-0.000063,-0.000048,-0.001207,0.000021,  23.440
    40.6,-0.000093,-0.000087,-0.001201,0.000035,  23.444
    40.8,-0.000138,-0.000126,-0.001150,0.000035,  23.434
    41.0,-0.000197,-0.000156,-0.001137,0.000048,  23.435
    41.2,-0.000242,-0.000186,-0.001093,-0.000000,  23.430
    41.4,-0.000289,-0.000206,-0.001042,0.000035,  23.429
    41.6,-0.000339,-0.000231,-0.000972,0.000021,  23.433
    41.8,-0.000353,-0.000250,-0.000972,-0.000040,  23.436
    42.0,-0.000351,-0.000264,-0.000965,-0.000031,  23.435
    42.2,-0.000322,-0.000264,-0.001008,-0.000070,  23.440
    42.4,-0.000299,-0.000253,-0.000944,-0.000157,  23.436
    42.6,-0.000275,-0.000230,-0.000827,-0.000174,  23.437
    42.8,-0.000226,-0.000200,-0.000679,-0.000200,  23.435
    43.0,-0.000193,-0.000175,-0.000595,-0.000287,  23.442
    43.2,-0.000172,-0.000154,-0.000531,-0.000291,  23.435
    43.4,-0.000147,-0.000126,-0.000474,-0.000265,  23.443
    43.6,-0.000124,-0.000105,-0.000532,-0.000287,  23.437
    43.8,-0.000105,-0.000087,-0.000635,-0.000200,  23.444
    44.0,-0.000087,-0.000071,-0.000814,-0.000161,  23.450
    44.2,-0.000073,-0.000056,-0.000879,-0.000135,  23.459
    44.4,-0.000065,-0.000046,-0.000956,-0.000074,  23.465
    44.6,-0.000048,-0.000036,-0.000989,-0.000048,  23.460
    44.8,-0.000042,-0.000035,-0.001021,-0.000057,  23.455
    45.0,-0.000046,-0.000034,-0.001054,-0.000066,  23.451
    45.2,-0.000039,-0.000030,-0.001080,-0.000053,  23.451
    45.4,-0.000045,-0.000046,-0.001086,-0.000026,  23.447
    45.6,-0.000082,-0.000074,-0.001093,-0.000013,  23.441
    45.8,-0.000130,-0.000118,-0.001100,0.000013,  23.439
    46.0,-0.000185,-0.000149,-0.001112,0.000026,  23.434
    46.2,-0.000229,-0.000178,-0.001138,0.000013,  23.434
    46.4,-0.000274,-0.000214,-0.001189,0.000013,  23.433
    46.6,-0.000315,-0.000236,-0.001131,-0.000000,  23.432
    46.8,-0.000332,-0.000248,-0.001048,-0.000005,  23.433
    47.0,-0.000334,-0.000255,-0.000932,-0.000044,  23.434
    47.2,-0.000323,-0.000249,-0.000803,-0.000118,  23.429
    47.4,-0.000298,-0.000228,-0.000668,-0.000183,  23.422
    47.6,-0.000268,-0.000191,-0.000532,-0.000235,  23.427
    47.8,-0.000228,-0.000171,-0.000654,-0.000287,  23.427
    48.0,-0.000197,-0.000147,-0.000890,-0.000326,  23.430
    48.2,-0.000166,-0.000117,-0.001247,-0.000313,  23.427
    48.4,-0.000141,-0.000103,-0.001248,-0.000287,  23.432
    48.6,-0.000116,-0.000080,-0.001133,-0.000248,  23.433
    48.8,-0.000096,-0.000062,-0.000898,-0.000222,  23.438
    49.0,-0.000076,-0.000052,-0.000847,-0.000183,  23.446
    49.2,-0.000059,-0.000039,-0.000829,-0.000157,  23.451
    49.4,-0.000057,-0.000031,-0.000848,-0.000131,  23.457
    49.6,-0.000042,-0.000026,-0.000868,-0.000057,  23.460
    49.8,-0.000030,-0.000012,-0.000894,-0.000044,  23.454
    50.0,-0.000020,-0.000006,-0.000938,-0.000018,  23.442
    50.2,-0.000009,-0.000024,-0.000989,0.000008,  23.443
    50.4,-0.000044,-0.000039,-0.001014,-0.000013,  23.436
    50.6,-0.000086,-0.000075,-0.001072,-0.000000,  23.431
    50.8,-0.000155,-0.000098,-0.001142,0.000013,  23.420
    51.0,-0.000204,-0.000126,-0.001161,0.000013,  23.416
    51.2,-0.000246,-0.000147,-0.001187,0.000026,  23.411
    51.4,-0.000284,-0.000173,-0.001194,0.000039,  23.416
    51.6,-0.000306,-0.000200,-0.001181,0.000026,  23.412
    51.8,-0.000318,-0.000220,-0.001187,0.000013,  23.416
    52.0,-0.000320,-0.000243,-0.001174,-0.000013,  23.415
    52.2,-0.000304,-0.000243,-0.001014,-0.000066,  23.412
    52.4,-0.000276,-0.000229,-0.000783,-0.000157,  23.408
    52.6,-0.000231,-0.000201,-0.000481,-0.000209,  23.409
    52.8,-0.000200,-0.000182,-0.000359,-0.000248,  23.407
    53.0,-0.000172,-0.000165,-0.000307,-0.000278,  23.404
    53.2,-0.000147,-0.000136,-0.000320,-0.000278,  23.398
    53.4,-0.000127,-0.000115,-0.000359,-0.000300,  23.404
    53.6,-0.000108,-0.000100,-0.000423,-0.000226,  23.407
    53.8,-0.000100,-0.000081,-0.000514,-0.000187,  23.418
    54.0,-0.000088,-0.000064,-0.000751,-0.000183,  23.425
    54.2,-0.000078,-0.000048,-0.001084,-0.000144,  23.433
    54.4,-0.000064,-0.000038,-0.001492,-0.000105,  23.444
    54.6,-0.000053,-0.000029,-0.001550,-0.000079,  23.444
    54.8,-0.000042,-0.000016,-0.001480,-0.000053,  23.434
    55.0,-0.000039,-0.000012,-0.001308,-0.000040,  23.427
    55.2,-0.000035,-0.000030,-0.001289,-0.000013,  23.418
    55.4,-0.000060,-0.000046,-0.001296,0.000021,  23.414
    55.6,-0.000102,-0.000080,-0.001328,0.000035,  23.406
    55.8,-0.000161,-0.000113,-0.001290,0.000013,  23.399
    56.0,-0.000203,-0.000140,-0.001226,0.000048,  23.396
    56.2,-0.000249,-0.000173,-0.001131,0.000061,  23.393
    56.4,-0.000297,-0.000208,-0.001143,0.000013,  23.390
    56.6,-0.000325,-0.000236,-0.001188,0.000035,  23.393
    56.8,-0.000345,-0.000262,-0.001257,0.000008,  23.389
    57.0,-0.000362,-0.000265,-0.001129,-0.000092,  23.387
    57.2,-0.000351,-0.000257,-0.000911,-0.000170,  23.388
    57.4,-0.000325,-0.000227,-0.000596,-0.000222,  23.391
    57.6,-0.000277,-0.000203,-0.000449,-0.000248,  23.385
    57.8,-0.000243,-0.000184,-0.000314,-0.000239,  23.384
    58.0,-0.000222,-0.000156,-0.000230,-0.000265,  23.388
    58.2,-0.000182,-0.000132,-0.000230,-0.000265,  23.390
    58.4,-0.000153,-0.000115,-0.000301,-0.000265,  23.388
    58.6,-0.000132,-0.000098,-0.000455,-0.000252,  23.397
    58.8,-0.000106,-0.000086,-0.000500,-0.000213,  23.407
    59.0,-0.000089,-0.000073,-0.000539,-0.000196,  23.414
    59.2,-0.000077,-0.000062,-0.000553,-0.000157,  23.430
    59.4,-0.000073,-0.000057,-0.000560,-0.000131,  23.432
    59.6,-0.000069,-0.000048,-0.000656,-0.000092,  23.435
    59.8,-0.000060,-0.000042,-0.000791,-0.000079,  23.432
    60.0,-0.000055,-0.000040,-0.000951,-0.000053,  23.415
    60.2,-0.000078,-0.000046,-0.001040,-0.000040,  23.411
    60.4,-0.000113,-0.000059,-0.001117,0.000008,  23.403
    60.6,-0.000148,-0.000073,-0.001181,0.000035,  23.395
    60.8,-0.000182,-0.000094,-0.001213,-0.000000,  23.391
    61.0,-0.000221,-0.000125,-0.001239,-0.000000,  23.390
    61.2,-0.000256,-0.000166,-0.001264,0.000013,  23.388
    61.4,-0.000287,-0.000202,-0.001207,-0.000000,  23.386
    61.6,-0.000324,-0.000230,-0.001124,-0.000000,  23.385
    61.8,-0.000359,-0.000262,-0.001009,-0.000026,  23.388
    62.0,-0.000351,-0.000271,-0.000894,-0.000079,  23.386
    62.2,-0.000331,-0.000260,-0.000765,-0.000157,  23.387
    62.4,-0.000282,-0.000239,-0.000643,-0.000209,  23.388
    62.6,-0.000260,-0.000222,-0.000539,-0.000248,  23.391
    62.8,-0.000242,-0.000200,-0.000468,-0.000313,  23.387
    63.0,-0.000216,-0.000166,-0.000403,-0.000313,  23.390
    63.2,-0.000188,-0.000141,-0.000422,-0.000313,  23.389
    63.4,-0.000163,-0.000118,-0.000499,-0.000252,  23.394
    63.6,-0.000138,-0.000094,-0.000647,-0.000213,  23.397
    63.8,-0.000103,-0.000079,-0.000750,-0.000209,  23.410
    64.0,-0.000084,-0.000062,-0.000872,-0.000135,  23.417
    64.2,-0.000077,-0.000048,-0.001025,-0.000109,  23.429
    64.4,-0.000064,-0.000043,-0.001038,-0.000105,  23.438
    64.6,-0.000053,-0.000027,-0.001001,-0.000044,  23.437
    64.8,-0.000049,-0.000023,-0.000925,-0.000018,  23.433
    65.0,-0.000036,-0.000030,-0.000977,-0.000040,  23.424
    65.2,-0.000050,-0.000031,-0.001072,-0.000026,  23.416
    65.4,-0.000079,-0.000044,-0.001232,-0.000000,  23.415
    65.6,-0.000109,-0.000070,-0.001283,0.000013,  23.408
    65.8,-0.000143,-0.000098,-0.001290,0.000013,  23.406
    66.0,-0.000186,-0.000139,-0.001277,0.000026,  23.407
    66.2,-0.000221,-0.000175,-0.001220,0.000026,  23.407
    66.4,-0.000257,-0.000210,-0.001124,0.000026,  23.405
    66.6,-0.000303,-0.000248,-0.000996,-0.000000,  23.404
    66.8,-0.000339,-0.000260,-0.000855,-0.000026,  23.407
    67.0,-0.000339,-0.000256,-0.000695,-0.000079,  23.406
    67.2,-0.000323,-0.000240,-0.000528,-0.000144,  23.407
    67.4,-0.000285,-0.000226,-0.000424,-0.000183,  23.409
    67.6,-0.000257,-0.000199,-0.000353,-0.000235,  23.402
    67.8,-0.000230,-0.000168,-0.000340,-0.000287,  23.410
    68.0,-0.000190,-0.000152,-0.000339,-0.000313,  23.412
    68.2,-0.000165,-0.000128,-0.000333,-0.000313,  23.410
    68.4,-0.000147,-0.000108,-0.000333,-0.000300,  23.414
    68.6,-0.000120,-0.000096,-0.000372,-0.000287,  23.421
    68.8,-0.000103,-0.000086,-0.000718,-0.000248,  23.429
    69.0,-0.000096,-0.000075,-0.001223,-0.000183,  23.437
    69.2,-0.000078,-0.000074,-0.001906,-0.000144,  23.444
    69.4,-0.000064,-0.000063,-0.002008,-0.000118,  23.450
    69.6,-0.000056,-0.000050,-0.001920,-0.000070,  23.445
    69.8,-0.000046,-0.000038,-0.001639,-0.000031,  23.445
    70.0,-0.000052,-0.000038,-0.001557,-0.000040,  23.438
    70.2,-0.000069,-0.000040,-0.001500,-0.000005,  23.430
    70.4,-0.000097,-0.000051,-0.001455,0.000021,  23.425
    70.6,-0.000127,-0.000079,-0.001385,-0.000000,  23.421
    70.8,-0.000176,-0.000112,-0.001328,0.000035,  23.423
    71.0,-0.000226,-0.000158,-0.001264,0.000048,  23.424
    71.2,-0.000266,-0.000197,-0.001188,0.000013,  23.418
    71.4,-0.000321,-0.000233,-0.001118,0.000048,  23.425
    71.6,-0.000363,-0.000273,-0.001054,0.000035,  23.427
    71.8,-0.000371,-0.000282,-0.000971,-0.000053,  23.424
    72.0,-0.000366,-0.000273,-0.000868,-0.000118,  23.425
    72.2,-0.000353,-0.000251,-0.000771,-0.000157,  23.426
    72.4,-0.000310,-0.000232,-0.000687,-0.000209,  23.423
    72.6,-0.000279,-0.000206,-0.000623,-0.000226,  23.426
    72.8,-0.000246,-0.000169,-0.000550,-0.000252,  23.425
    73.0,-0.000202,-0.000140,-0.000480,-0.000300,  23.426
    73.2,-0.000172,-0.000118,-0.000403,-0.000278,  23.424
    73.4,-0.000147,-0.000095,-0.000359,-0.000252,  23.425
    73.6,-0.000117,-0.000078,-0.000436,-0.000248,  23.435
    73.8,-0.000098,-0.000066,-0.000590,-0.000161,  23.439
    74.0,-0.000091,-0.000058,-0.000833,-0.000109,  23.444
    74.2,-0.000082,-0.000051,-0.000904,-0.000118,  23.451
    74.4,-0.000071,-0.000045,-0.000943,-0.000057,  23.460
    74.6,-0.000065,-0.000041,-0.000956,-0.000018,  23.458
    74.8,-0.000057,-0.000039,-0.000969,-0.000040,  23.450
    75.0,-0.000060,-0.000036,-0.000983,0.000008,  23.448
    75.2,-0.000074,-0.000038,-0.000977,0.000035,  23.442
    75.4,-0.000089,-0.000064,-0.001015,-0.000000,  23.443
    75.6,-0.000123,-0.000095,-0.001086,0.000035,  23.438
    75.8,-0.000172,-0.000144,-0.001169,0.000048,  23.441
    76.0,-0.000221,-0.000187,-0.001143,0.000026,  23.435
    76.2,-0.000266,-0.000221,-0.001112,0.000048,  23.434
    76.4,-0.000320,-0.000262,-0.001029,0.000048,  23.434
    76.6,-0.000358,-0.000280,-0.000971,-0.000013,  23.433
    76.8,-0.000361,-0.000282,-0.000901,-0.000053,  23.432
    77.0,-0.000353,-0.000269,-0.000843,-0.000105,  23.432
    77.2,-0.000320,-0.000251,-0.000785,-0.000144,  23.434
    77.4,-0.000292,-0.000227,-0.000694,-0.000183,  23.432
    77.6,-0.000261,-0.000192,-0.000610,-0.000248,  23.434
    77.8,-0.000225,-0.000171,-0.000518,-0.000274,  23.433
    78.0,-0.000200,-0.000154,-0.000461,-0.000300,  23.431
    78.2,-0.000168,-0.000140,-0.000435,-0.000326,  23.428
    78.4,-0.000141,-0.000131,-0.000423,-0.000300,  23.439
    78.6,-0.000122,-0.000114,-0.000827,-0.000274,  23.444
    78.8,-0.000108,-0.000096,-0.001485,-0.000222,  23.452
    79.0,-0.000094,-0.000081,-0.002346,-0.000170,  23.460
    79.2,-0.000076,-0.000070,-0.002429,-0.000131,  23.460
    79.4,-0.000064,-0.000059,-0.002238,-0.000105,  23.467
    79.6,-0.000050,-0.000052,-0.001780,-0.000066,  23.460
    79.8,-0.000047,-0.000048,-0.001723,-0.000040,  23.461
    80.0,-0.000054,-0.000046,-0.001717,-0.000040,  23.450
    80.2,-0.000073,-0.000036,-0.001786,-0.000026,  23.447
    80.4,-0.000108,-0.000062,-0.001729,-0.000000,  23.446
    80.6,-0.000153,-0.000104,-0.001640,0.000021,  23.444
    80.8,-0.000211,-0.000151,-0.001532,0.000035,  23.437
    81.0,-0.000257,-0.000190,-0.001482,0.000013,  23.436
    81.2,-0.000303,-0.000219,-0.001456,0.000048,  23.431
    81.4,-0.000334,-0.000252,-0.001444,0.000035,  23.432
    81.6,-0.000370,-0.000272,-0.001348,-0.000026,  23.430
    81.8,-0.000373,-0.000276,-0.001220,-0.000066,  23.429
    82.0,-0.000362,-0.000276,-0.001040,-0.000105,  23.425
    82.2,-0.000339,-0.000269,-0.000899,-0.000157,  23.426
    82.4,-0.000314,-0.000241,-0.000719,-0.000222,  23.427
    82.6,-0.000281,-0.000205,-0.000545,-0.000248,  23.421
    82.8,-0.000235,-0.000180,-0.000455,-0.000287,  23.426
    83.0,-0.000204,-0.000158,-0.000404,-0.000291,  23.426
    83.2,-0.000176,-0.000130,-0.000391,-0.000265,  23.423
    83.4,-0.000147,-0.000111,-0.000456,-0.000287,  23.426
    83.6,-0.000122,-0.000091,-0.000591,-0.000235,  23.428
    83.8,-0.000100,-0.000077,-0.000770,-0.000196,  23.436
    84.0,-0.000083,-0.000067,-0.000899,-0.000157,  23.442
    84.2,-0.000069,-0.000054,-0.001027,-0.000131,  23.450
    84.4,-0.000055,-0.000038,-0.001142,-0.000092,  23.457
    84.6,-0.000052,-0.000035,-0.001175,-0.000066,  23.454
    84.8,-0.000049,-0.000026,-0.001150,-0.000053,  23.443
    85.0,-0.000049,-0.000023,-0.001086,-0.000026,  23.438
    85.2,-0.000055,-0.000050,-0.001074,-0.000013,  23.429
    85.4,-0.000086,-0.000077,-0.001093,-0.000000,  23.426
    85.6,-0.000133,-0.000122,-0.001125,-0.000000,  23.420
    85.8,-0.000195,-0.000159,-0.001138,0.000013,  23.417
    86.0,-0.000239,-0.000196,-0.001170,0.000026,  23.412
    86.2,-0.000290,-0.000225,-0.001195,0.000026,  23.407
    86.4,-0.000337,-0.000242,-0.001163,0.000026,  23.412
    86.6,-0.000348,-0.000259,-0.001105,-0.000000,  23.407
    86.8,-0.000343,-0.000261,-0.001016,-0.000040,  23.404
    87.0,-0.000320,-0.000257,-0.000900,-0.000079,  23.407
    87.2,-0.000295,-0.000247,-0.000784,-0.000118,  23.404
    87.4,-0.000271,-0.000223,-0.000668,-0.000196,  23.402
    87.6,-0.000226,-0.000196,-0.000545,-0.000235,  23.401
    87.8,-0.000193,-0.000175,-0.000493,-0.000287,  23.403
    88.0,-0.000169,-0.000141,-0.000467,-0.000326,  23.400
    88.2,-0.000134,-0.000113,-0.000487,-0.000300,  23.399
    88.4,-0.000109,-0.000098,-0.000538,-0.000287,  23.403
    88.6,-0.000096,-0.000084,-0.000635,-0.000235,  23.407
    88.8,-0.000076,-0.000070,-0.000750,-0.000183,  23.418
    89.0,-0.000059,-0.000060,-0.000770,-0.000157,  23.431
    89.2,-0.000048,-0.000056,-0.000783,-0.000118,  23.438
    89.4,-0.000032,-0.000040,-0.000778,-0.000079,  23.442
    89.6,-0.000024,-0.000030,-0.000822,-0.000053,  23.444
    89.8,-0.000021,-0.000021,-0.000899,-0.000040,  23.438
    90.0,-0.000024,-0.000010,-0.001001,-0.000013,  23.420
    90.2,-0.000044,-0.000024,-0.001033,-0.000000,  23.415
    90.4,-0.000072,-0.000055,-0.001059,-0.000000,  23.408
    90.6,-0.000114,-0.000099,-0.001065,0.000013,  23.405
    90.8,-0.000164,-0.000128,-0.001052,0.000013,  23.401
    91.0,-0.000213,-0.000161,-0.001040,0.000013,  23.398
    91.2,-0.000253,-0.000198,-0.001028,0.000013,  23.398
    91.4,-0.000304,-0.000222,-0.001277,0.000013,  23.396
    91.6,-0.000314,-0.000239,-0.001640,-0.000013,  23.394
    91.8,-0.000319,-0.000250,-0.002155,-0.000040,  23.394
    92.0,-0.000314,-0.000245,-0.002090,-0.000092,  23.394
    92.2,-0.000291,-0.000228,-0.001790,-0.000170,  23.391
    92.4,-0.000263,-0.000197,-0.001285,-0.000222,  23.386
    92.6,-0.000225,-0.000178,-0.001029,-0.000261,  23.387
    92.8,-0.000201,-0.000151,-0.000792,-0.000313,  23.385
    93.0,-0.000176,-0.000129,-0.000569,-0.000313,  23.383
    93.2,-0.000144,-0.000112,-0.000549,-0.000287,  23.385
    93.4,-0.000115,-0.000095,-0.000652,-0.000213,  23.391
    93.6,-0.000101,-0.000078,-0.000863,-0.000174,  23.400
    93.8,-0.000090,-0.000060,-0.000858,-0.000157,  23.408
    94.0,-0.000069,-0.000052,-0.000833,-0.000096,  23.419
    94.2,-0.000058,-0.000045,-0.000764,-0.000070,  23.428
    94.4,-0.000059,-0.000034,-0.000739,-0.000079,  23.436
    94.6,-0.000048,-0.000029,-0.000739,-0.000031,  23.425
    94.8,-0.000042,-0.000029,-0.000739,-0.000031,  23.417
    95.0,-0.000040,-0.000049,-0.001015,-0.000040,  23.403
    95.2,-0.000062,-0.000067,-0.001436,-0.000026,  23.393
    95.4,-0.000107,-0.000096,-0.001997,-0.000013,  23.391
    95.6,-0.000168,-0.000129,-0.002099,0.000013,  23.382
    95.8,-0.000214,-0.000161,-0.002017,0.000026,  23.378
    96.0,-0.000259,-0.000188,-0.001794,0.000013,  23.370
    96.2,-0.000301,-0.000216,-0.001393,0.000026,  23.375
    96.4,-0.000330,-0.000236,-0.001310,0.000013,  23.368
    96.6,-0.000353,-0.000257,-0.001226,-0.000000,  23.368
    96.8,-0.000352,-0.000273,-0.001175,-0.000026,  23.370
    97.0,-0.000335,-0.000267,-0.001002,-0.000092,  23.365
    97.2,-0.000310,-0.000254,-0.000803,-0.000170,  23.364
    97.4,-0.000262,-0.000224,-0.000539,-0.000222,  23.361
    97.6,-0.000227,-0.000200,-0.000308,-0.000274,  23.360
    97.8,-0.000196,-0.000176,-0.000084,-0.000304,  23.357
    98.0,-0.000171,-0.000151,0.000134,-0.000304,  23.360
    98.2,-0.000142,-0.000139,0.000102,-0.000313,  23.354
    98.4,-0.000122,-0.000114,-0.000052,-0.000239,  23.360
    98.6,-0.000112,-0.000094,-0.000366,-0.000200,  23.372
    98.8,-0.000096,-0.000084,-0.000527,-0.000183,  23.390
    99.0,-0.000084,-0.000069,-0.000694,-0.000157,  23.399
    99.2,-0.000076,-0.000058,-0.000847,-0.000131,  23.413
    99.4,-0.000068,-0.000053,-0.000905,-0.000092,  23.418
    99.6,-0.000066,-0.000046,-0.000938,-0.000079,  23.411
    99.8,-0.000063,-0.000035,-0.000901,-0.000053,  23.394
   100.0,-0.000056,-0.000046,-0.001565,-0.000040,  23.380
   100.2,-0.000082,-0.000061,-0.002585,-0.000026,  23.372
   100.4,-0.000115,-0.000084,-0.003917,-0.000000,  23.369
   100.6,-0.000163,-0.000115,-0.003980,-0.000000,  23.361
   100.8,-0.000196,-0.000137,-0.003607,-0.000000,  23.353
   101.0,-0.000235,-0.000176,-0.002756,0.000013,  23.354
   101.2,-0.000277,-0.000212,-0.002654,-0.000000,  23.352
   101.4,-0.000305,-0.000237,-0.002730,-0.000000,  23.352
   101.6,-0.000325,-0.000271,-0.002933,-0.000026,  23.352
   101.8,-0.000347,-0.000278,-0.002621,-0.000092,  23.356
   102.0,-0.000343,-0.000255,-0.002143,-0.000170,  23.352
   102.2,-0.000315,-0.000225,-0.001479,-0.000222,  23.353
   102.4,-0.000270,-0.000207,-0.001185,-0.000274,  23.356
   102.6,-0.000243,-0.000181,-0.000993,-0.000339,  23.348
   102.8,-0.000215,-0.000150,-0.000890,-0.000352,  23.356
   103.0,-0.000175,-0.000128,-0.000781,-0.000339,  23.356
   103.2,-0.000140,-0.000111,-0.000756,-0.000265,  23.354
   103.4,-0.000121,-0.000089,-0.000750,-0.000239,  23.365
   103.6,-0.000104,-0.000077,-0.000732,-0.000248,  23.371
   103.8,-0.000080,-0.000065,-0.000758,-0.000209,  23.385
   104.0,-0.000069,-0.000055,-0.000797,-0.000183,  23.401
   104.2,-0.000068,-0.000047,-0.000849,-0.000157,  23.411
   104.4,-0.000056,-0.000034,-0.000938,-0.000118,  23.411
   104.6,-0.000048,-0.000027,-0.001047,-0.000092,  23.403
   104.8,-0.000040,-0.000029,-0.001105,-0.000053,  23.398
   105.0,-0.000054,-0.000031,-0.001150,-0.000040,  23.385
   105.2,-0.000084,-0.000037,-0.001156,-0.000026,  23.375
   105.4,-0.000129,-0.000049,-0.001163,-0.000000,  23.373
   105.6,-0.000169,-0.000077,-0.001367,0.000013,  23.368
   105.8,-0.000213,-0.000113,-0.001667,0.000013,  23.363
   106.0,-0.000254,-0.000154,-0.002037,0.000026,  23.358
   106.2,-0.000292,-0.000189,-0.001929,0.000026,  23.358
   106.4,-0.000320,-0.000219,-0.001597,0.000013,  23.358
   106.6,-0.000334,-0.000253,-0.001055,-0.000013,  23.358
   106.8,-0.000322,-0.000255,-0.000843,-0.000066,  23.356
   107.0,-0.000297,-0.000245,-0.000714,-0.000144,  23.358
   107.2,-0.000258,-0.000224,-0.000662,-0.000196,  23.358
   107.4,-0.000230,-0.000202,-0.000590,-0.000248,  23.353
   107.6,-0.000199,-0.000177,-0.000570,-0.000300,  23.352
   107.8,-0.000169,-0.000144,-0.000595,-0.000326,  23.354
   108.0,-0.000139,-0.000128,-0.000582,-0.000326,  23.352
   108.2,-0.000119,-0.000106,-0.000570,-0.000265,  23.356
   108.4,-0.000093,-0.000087,-0.000577,-0.000239,  23.363
   108.6,-0.000069,-0.000074,-0.000648,-0.000235,  23.372
   108.8,-0.000062,-0.000055,-0.000758,-0.000148,  23.384
   109.0,-0.000054,-0.000043,-0.000911,-0.000109,  23.398
   109.2,-0.000048,-0.000031,-0.000944,-0.000118,  23.404
   109.4,-0.000037,-0.000020,-0.000938,-0.000092,  23.414
   109.6,-0.000028,-0.000009,-0.000881,-0.000053,  23.405
   109.8,-0.000023,-0.000012,-0.000926,-0.000040,  23.391
   110.0,-0.000038,-0.000014,-0.001008,-0.000005,  23.379
   110.2,-0.000058,-0.000017,-0.001110,0.000021,  23.371
   110.4,-0.000086,-0.000048,-0.001149,-0.000000,  23.363
   110.6,-0.000116,-0.000077,-0.001162,0.000035,  23.359
   110.8,-0.000155,-0.000118,-0.001162,0.000048,  23.358
   111.0,-0.000193,-0.000157,-0.001181,0.000013,  23.355
   111.2,-0.000222,-0.000186,-0.001219,0.000061,  23.357
   111.4,-0.000260,-0.000222,-0.001270,0.000048,  23.350
   111.6,-0.000291,-0.000235,-0.001193,-0.000053,  23.352
   111.8,-0.000295,-0.000225,-0.001084,-0.000083,  23.353
   112.0,-0.000286,-0.000203,-0.000930,-0.000122,  23.352
   112.2,-0.000248,-0.000191,-0.000808,-0.000209,  23.348
   112.4,-0.000234,-0.000165,-0.000698,-0.000274,  23.356
   112.6,-0.000200,-0.000136,-0.000581,-0.000287,  23.354
   112.8,-0.000164,-0.000113,-0.000498,-0.000300,  23.355
   113.0,-0.000139,-0.000089,-0.000448,-0.000287,  23.357
   113.2,-0.000114,-0.000067,-0.000423,-0.000287,  23.355
   113.4,-0.000084,-0.000053,-0.000423,-0.000248,  23.362
   113.6,-0.000055,-0.000034,-0.000456,-0.000222,  23.373
   113.8,-0.000041,-0.000022,-0.000514,-0.000170,  23.390
   114.0,-0.000037,-0.000012,-0.000603,-0.000144,  23.400
   114.2,-0.000023,0.000001,-0.000706,-0.000105,  23.404
   114.4,-0.000015,0.000009,-0.000828,-0.000079,  23.413
   114.6,-0.000009,0.000015,-0.000981,-0.000053,  23.405
   114.8,-0.000012,0.000017,-0.000995,-0.000026,  23.390
   115.0,-0.000023,0.000015,-0.000937,-0.000013,  23.378
   115.2,-0.000045,0.000012,-0.000822,0.000013,  23.373
   115.4,-0.000080,-0.000014,-0.000836,0.000026,  23.369
   115.6,-0.000116,-0.000052,-0.000835,0.000026,  23.366
   115.8,-0.000167,-0.000096,-0.000893,0.000039,  23.357
   116.0,-0.000213,-0.000137,-0.000937,0.000039,  23.360
   116.2,-0.000260,-0.000171,-0.000976,0.000039,  23.359
   116.4,-0.000301,-0.000214,-0.001020,0.000026,  23.362
   116.6,-0.000304,-0.000227,-0.000956,-0.000026,  23.359
   116.8,-0.000287,-0.000221,-0.000828,-0.000092,  23.364
   117.0,-0.000253,-0.000207,-0.000629,-0.000118,  23.360
   117.2,-0.000225,-0.000194,-0.000513,-0.000170,  23.366
   117.4,-0.000192,-0.000171,-0.000435,-0.000222,  23.363
   117.6,-0.000158,-0.000141,-0.000350,-0.000235,  23.363
   117.8,-0.000129,-0.000125,-0.000318,-0.000248,  23.366
   118.0,-0.000119,-0.000111,-0.000331,-0.000274,  23.364
   118.2,-0.000098,-0.000087,-0.000363,-0.000261,  23.367
   118.4,-0.000090,-0.000067,-0.000703,-0.000222,  23.374
   118.6,-0.000076,-0.000057,-0.001247,-0.000183,  23.382
   118.8,-0.000059,-0.000041,-0.001948,-0.000157,  23.398
   119.0,-0.000045,-0.000030,-0.001987,-0.000118,  23.403
   119.2,-0.000031,-0.000019,-0.001809,-0.000066,  23.412
   119.4,-0.000020,-0.000009,-0.001395,-0.000040,  23.416
   119.6,-0.000015,-0.000007,-0.001319,-0.000026,  23.407
   119.8,-0.000018,0.000002,-0.001319,0.000008,  23.405
   120.0,-0.000024,0.000005,-0.001369,0.000035,  23.389
   120.2,-0.000035,-0.000026,-0.001312,0.000013,  23.386
   120.4,-0.000066,-0.000056,-0.001223,0.000048,  23.384
   120.6,-0.000108,-0.000109,-0.001102,0.000061,  23.383
   120.8,-0.000160,-0.000149,-0.001064,0.000026,  23.379
   121.0,-0.000205,-0.000184,-0.001051,0.000061,  23.378
   121.2,-0.000252,-0.000220,-0.001064,0.000048,  23.380
   121.4,-0.000306,-0.000233,-0.001006,-0.000026,  23.375
   121.6,-0.000312,-0.000233,-0.000942,-0.000079,  23.375
   121.8,-0.000301,-0.000216,-0.000871,-0.000118,  23.374
   122.0,-0.000266,-0.000198,-0.000698,-0.000144,  23.382
   122.2,-0.000231,-0.000180,-0.000454,-0.000183,  23.385
   122.4,-0.000201,-0.000154,-0.000172,-0.000209,  23.381
   122.6,-0.000168,-0.000134,-0.000056,-0.000235,  23.382
   122.8,-0.000143,-0.000108,0.000002,-0.000274,  23.382
   123.0,-0.000113,-0.000084,-0.000024,-0.000300,  23.382
   123.2,-0.000088,-0.000072,-0.000108,-0.000287,  23.386
   123.4,-0.000075,-0.000055,-0.000146,-0.000248,  23.393
   123.6,-0.000056,-0.000037,-0.000217,-0.000196,  23.399
   123.8,-0.000043,-0.000027,-0.000326,-0.000144,  23.407
   124.0,-0.000033,-0.000017,-0.000397,-0.000118,  23.421
   124.2,-0.000022,-0.000017,-0.000487,-0.000092,  23.422
   124.4,-0.000011,-0.000009,-0.000583,-0.000053,  23.423
   124.6,-0.000016,-0.000002,-0.000879,-0.000040,  23.418
   124.8,-0.000018,0.000005,-0.001271,-0.000040,  23.415
   125.0,-0.000024,0.000012,-0.001778,-0.000013,  23.399
   125.2,-0.000059,-0.000017,-0.001797,-0.000000,  23.395
   125.4,-0.000113,-0.000050,-0.001605,-0.000000,  23.392
   125.6,-0.000168,-0.000096,-0.001239,0.000013,  23.387
   125.8,-0.000213,-0.000133,-0.001136,0.000013,  23.385
   126.0,-0.000260,-0.000169,-0.001078,0.000026,  23.386
   126.2,-0.000301,-0.000206,-0.001065,0.000026,  23.387
   126.4,-0.000312,-0.000226,-0.001006,-0.000000,  23.384
   126.6,-0.000306,-0.000230,-0.000935,-0.000040,  23.385
   126.8,-0.000281,-0.000226,-0.000870,-0.000079,  23.385
   127.0,-0.000264,-0.000217,-0.000677,-0.000118,  23.388
   127.2,-0.000245,-0.000190,-0.000446,-0.000183,  23.390
   127.4,-0.000217,-0.000157,-0.000151,-0.000235,  23.384
   127.6,-0.000186,-0.000139,-0.000009,-0.000274,  23.386
   127.8,-0.000165,-0.000113,0.000048,-0.000300,  23.388
   128.0,-0.000130,-0.000087,0.000042,-0.000287,  23.387
   128.2,-0.000097,-0.000069,0.000035,-0.000248,  23.387
   128.4,-0.000074,-0.000052,-0.000004,-0.000196,  23.397
   128.6,-0.000055,-0.000040,-0.000100,-0.000144,  23.399
   128.8,-0.000041,-0.000032,-0.000146,-0.000131,  23.408
   129.0,-0.000024,-0.000016,-0.000172,-0.000083,  23.421
   129.2,-0.000016,-0.000007,-0.000223,-0.000044,  23.423
   129.4,-0.000010,-0.000003,-0.000243,-0.000066,  23.424
   129.6,-0.000004,0.000004,-0.000262,-0.000018,  23.417
   129.8,-0.000006,0.000008,-0.000275,0.000008,  23.411
   130.0,-0.000008,-0.000010,-0.000333,-0.000013,  23.402
   130.2,-0.000032,-0.000042,-0.000397,0.000035,  23.394
   130.4,-0.000077,-0.000083,-0.000460,0.000048,  23.392
   130.6,-0.000132,-0.000120,-0.000441,0.000013,  23.390
   130.8,-0.000173,-0.000152,-0.000371,0.000026,  23.391
   131.0,-0.000220,-0.000186,-0.000256,0.000013,  23.383
   131.2,-0.000275,-0.000205,-0.000179,0.000013,  23.390
   131.4,-0.000286,-0.000220,-0.000089,-0.000013,  23.388
   131.6,-0.000286,-0.000223,-0.000038,-0.000026,  23.383
   131.8,-0.000269,-0.000215,0.000008,-0.000079,  23.388
   132.0,-0.000251,-0.000194,0.000047,-0.000131,  23.390
   132.2,-0.000217,-0.000163,0.000086,-0.000196,  23.390
   132.4,-0.000169,-0.000145,0.000101,-0.000235,  23.389
   132.6,-0.000143,-0.000124,0.000159,-0.000287,  23.391
   132.8,-0.000115,-0.000089,0.000211,-0.000339,  23.390
   133.0,-0.000080,-0.000070,0.000256,-0.000326,  23.385
   133.2,-0.000055,-0.000053,0.000262,-0.000287,  23.396
   133.4,-0.000032,-0.000040,0.000255,-0.000248,  23.396
   133.6,-0.000016,-0.000032,0.000203,-0.000209,  23.401
   133.8,0.000004,-0.000019,0.000151,-0.000157,  23.411
   134.0,0.000015,0.000001,0.000107,-0.000131,  23.420
   134.2,0.000026,0.000020,0.000042,-0.000105,  23.422
   134.4,0.000047,0.000036,0.000049,-0.000079,  23.425
   134.6,0.000055,0.000044,0.000074,-0.000066,  23.414
   134.8,0.000061,0.000046,0.000099,-0.000053,  23.412
   135.0,0.000043,0.000025,-0.000061,-0.000026,  23.403
   135.2,0.000001,0.000002,-0.000297,-0.000013,  23.396
   135.4,-0.000070,-0.000029,-0.000642,0.000013,  23.397
   135.6,-0.000119,-0.000059,-0.000604,0.000026,  23.389
   135.8,-0.000168,-0.000091,-0.000412,0.000013,  23.394
   136.0,-0.000213,-0.000119,-0.000079,0.000026,  23.388
   136.2,-0.000239,-0.000143,0.000042,0.000013,  23.392
   136.4,-0.000257,-0.000160,0.000145,-0.000000,  23.392
   136.6,-0.000250,-0.000177,0.000197,-0.000026,  23.390
   136.8,-0.000235,-0.000168,0.000089,-0.000092,  23.387
   137.0,-0.000219,-0.000147,-0.000141,-0.000170,  23.396
   137.2,-0.000179,-0.000107,-0.000472,-0.000222,  23.391
   137.4,-0.000130,-0.000087,-0.000421,-0.000274,  23.390
   137.6,-0.000090,-0.000063,-0.000209,-0.000326,  23.392
   137.8,-0.000056,-0.000033,0.000131,-0.000326,  23.392
   138.0,-0.000026,-0.000012,0.000298,-0.000300,  23.391
   138.2,-0.000001,0.000010,0.000457,-0.000248,  23.398
   138.4,0.000022,0.000031,0.000611,-0.000209,  23.401
   138.6,0.000032,0.000045,0.000682,-0.000170,  23.409
   138.8,0.000045,0.000057,0.000714,-0.000144,  23.417
   139.0,0.000055,0.000068,0.000682,-0.000118,  23.419
   139.2,0.000072,0.000078,0.000637,-0.000092,  23.427
   139.4,0.000088,0.000088,0.000586,-0.000066,  23.427
   139.6,0.000097,0.000101,0.000509,-0.000053,  23.419
   139.8,0.000109,0.000092,0.000541,-0.000040,  23.411
   140.0,0.000087,0.000071,0.000625,-0.000026,  23.408
   140.2,0.000048,0.000047,0.000734,-0.000013,  23.399
   140.4,-0.000004,0.000021,0.000773,-0.000013,  23.398
   140.6,-0.000044,-0.000012,0.000780,0.000035,  23.395
   140.8,-0.000080,-0.000041,0.000748,0.000035,  23.394
   141.0,-0.000116,-0.000069,0.000768,0.000048,  23.391
   141.2,-0.000135,-0.000094,0.000806,0.000035,  23.396
   141.4,-0.000146,-0.000113,0.000852,0.000021,  23.394
   141.6,-0.000153,-0.000113,0.000917,-0.000018,  23.394
   141.8,-0.000136,-0.000094,0.001020,-0.000105,  23.394
   142.0,-0.000106,-0.000058,0.001111,-0.000148,  23.394
   142.2,-0.000067,-0.000041,0.001227,-0.000200,  23.393
   142.4,-0.000044,-0.000025,0.001331,-0.000287,  23.395
   142.6,-0.000007,-0.000002,0.001415,-0.000326,  23.397
   142.8,0.000032,0.000020,0.001493,-0.000313,  23.395
   143.0,0.000059,0.000045,0.001563,-0.000300,  23.393
   143.2,0.000080,0.000071,0.001627,-0.000274,  23.397
   143.4,0.000112,0.000101,0.001697,-0.000235,  23.402
   143.6,0.000134,0.000129,0.001755,-0.000183,  23.414
   143.8,0.000154,0.000148,0.001781,-0.000157,  23.416
   144.0,0.000172,0.000165,0.001819,-0.000131,  23.420
   144.2,0.000186,0.000175,0.001871,-0.000092,  23.421
   144.4,0.000190,0.000191,0.001922,-0.000079,  23.422
   144.6,0.000201,0.000202,0.001980,-0.000053,  23.417
   144.8,0.000187,0.000193,0.002026,-0.000074,  23.414
   145.0,0.000154,0.000187,0.002065,-0.000061,  23.410
   145.2,0.000116,0.000169,0.002098,-0.000035,  23.406
   145.4,0.000088,0.000140,0.002143,-0.000035,  23.402
   145.6,0.000065,0.000120,0.002182,-0.000000,  23.398
   145.8,0.000040,0.000091,0.002196,0.000013,  23.398
   146.0,0.000021,0.000060,0.002209,-0.000000,  23.397
   146.2,-0.000008,0.000033,0.002197,-0.000000,  23.399
   146.4,-0.000027,0.000005,0.002158,-0.000026,  23.398
   146.6,-0.000049,0.000007,0.002210,-0.000092,  23.400
   146.8,-0.000038,0.000021,0.002308,-0.000170,  23.400
   147.0,-0.000010,0.000048,0.002444,-0.000222,  23.399
   147.2,0.000035,0.000075,0.002232,-0.000261,  23.393
   147.4,0.000071,0.000105,0.001840,-0.000313,  23.396
   147.6,0.000107,0.000142,0.001287,-0.000313,  23.396
   147.8,0.000147,0.000165,0.001352,-0.000300,  23.392
   148.0,0.000187,0.000197,0.001615,-0.000274,  23.395
   148.2,0.000215,0.000225,0.002085,-0.000235,  23.394
   148.4,0.000237,0.000244,0.002271,-0.000196,  23.392
   148.6,0.000269,0.000277,0.002426,-0.000170,  23.394
   148.8,0.000289,0.000301,0.002536,-0.000144,  23.400
   149.0,0.000299,0.000317,0.002627,-0.000105,  23.407
   149.2,0.000316,0.000334,0.002678,-0.000079,  23.405
   149.4,0.000332,0.000346,0.002705,-0.000066,  23.404
   149.6,0.000346,0.000348,0.002841,-0.000040,  23.400
   149.8,0.000338,0.000346,0.002983,-0.000040,  23.390
   150.0,0.000316,0.000338,0.003190,-0.000040,  23.391
   150.2,0.000285,0.000314,0.003242,-0.000013,  23.388
   150.4,0.000256,0.000284,0.003243,-0.000013,  23.381
   150.6,0.000218,0.000248,0.003179,-0.000013,  23.374
   150.8,0.000185,0.000218,0.003185,-0.000000,  23.374
   151.0,0.000150,0.000197,0.003244,0.000013,  23.369
   151.2,0.000122,0.000176,0.003264,0.000013,  23.370
   151.4,0.000107,0.000172,0.003329,-0.000013,  23.367
   151.6,0.000123,0.000176,0.003504,-0.000053,  23.366
   151.8,0.000145,0.000196,0.003698,-0.000131,  23.364
   152.0,0.000190,0.000223,0.003957,-0.000170,  23.357
   152.2,0.000223,0.000244,0.003841,-0.000209,  23.356
   152.4,0.000257,0.000276,0.003583,-0.000274,  23.355
   152.6,0.000289,0.000310,0.003144,-0.000287,  23.354
   152.8,0.000316,0.000335,0.002634,-0.000274,  23.351
   153.0,0.000344,0.000367,0.002048,-0.000274,  23.351
   153.2,0.000379,0.000398,0.001321,-0.000261,  23.346
   153.4,0.000414,0.000420,0.001437,-0.000222,  23.346
   153.6,0.000436,0.000448,0.001932,-0.000183,  23.347
   153.8,0.000456,0.000469,0.002770,-0.000157,  23.351
   154.0,0.000482,0.000488,0.003119,-0.000131,  23.359
   154.2,0.000502,0.000516,0.003404,-0.000092,  23.352
   154.4,0.000509,0.000542,0.003617,-0.000053,  23.353
   154.6,0.000512,0.000552,0.003870,-0.000040,  23.346
   154.8,0.000502,0.000556,0.004090,-0.000026,  23.341
   155.0,0.000491,0.000562,0.004311,-0.000013,  23.330
   155.2,0.000478,0.000542,0.004454,-0.000000,  23.327
   155.4,0.000449,0.000517,0.004519,-0.000013,  23.323
   155.6,0.000421,0.000480,0.004545,-0.000000,  23.317
   155.8,0.000384,0.000449,0.004623,0.000013,  23.306
   156.0,0.000350,0.000423,0.004663,0.000013,  23.302
   156.2,0.000316,0.000403,0.004702,-0.000013,  23.298
   156.4,0.000292,0.000405,0.004832,-0.000053,  23.296
   156.6,0.000304,0.000416,0.005008,-0.000096,  23.293
   156.8,0.000327,0.000445,0.005216,-0.000135,  23.286
   157.0,0.000366,0.000475,0.004729,-0.000196,  23.278
   157.2,0.000406,0.000512,0.003913,-0.000248,  23.276
   157.4,0.000443,0.000551,0.002796,-0.000261,  23.270
   157.6,0.000481,0.000580,0.002803,-0.000261,  23.268
   157.8,0.000517,0.000615,0.003210,-0.000274,  23.263
   158.0,0.000551,0.000655,0.004025,-0.000261,  23.251
   158.2,0.000579,0.000682,0.004349,-0.000222,  23.257
   158.4,0.000603,0.000706,0.004614,-0.000148,  23.253
   158.6,0.000631,0.000730,0.004841,-0.000122,  23.258
   158.8,0.000656,0.000757,0.005030,-0.000131,  23.264
   159.0,0.000672,0.000785,0.005160,-0.000118,  23.261
   159.2,0.000689,0.000804,0.005238,-0.000092,  23.262
   159.4,0.000709,0.000823,0.005316,-0.000079,  23.254
   159.6,0.000718,0.000838,0.005362,-0.000053,  23.248
   159.8,0.000715,0.000847,0.005394,-0.000040,  23.241
   160.0,0.000706,0.000827,0.005395,-0.000013,  23.231
   160.2,0.000690,0.000806,0.005447,-0.000000,  23.226
   160.4,0.000652,0.000774,0.005479,-0.000000,  23.218
   160.6,0.000613,0.000754,0.005532,0.000013,  23.215
   160.8,0.000582,0.000735,0.005590,0.000013,  23.207
   161.0,0.000542,0.000721,0.005636,0.000026,  23.196
   161.2,0.000512,0.000715,0.005688,0.000013,  23.191
   161.4,0.000512,0.000709,0.005766,-0.000026,  23.186
   161.6,0.000522,0.000720,0.005851,-0.000066,  23.178
   161.8,0.000563,0.000730,0.005949,-0.000105,  23.173
   162.0,0.000591,0.000748,0.006093,-0.000144,  23.166
   162.2,0.000630,0.000772,0.006263,-0.000183,  23.156
   162.4,0.000678,0.000813,0.006466,-0.000209,  23.149
   162.6,0.000719,0.000847,0.006518,-0.000235,  23.144
   162.8,0.000752,0.000892,0.006505,-0.000261,  23.131
   163.0,0.000783,0.000937,0.006407,-0.000235,  23.124
   163.2,0.000814,0.000974,0.006427,-0.000209,  23.121
   163.4,0.000842,0.001005,0.006446,-0.000170,  23.119
   163.6,0.000863,0.001033,0.006485,-0.000144,  23.122
   163.8,0.000876,0.001066,0.006439,-0.000118,  23.124
   164.0,0.000893,0.001095,0.006328,-0.000092,  23.121
   164.2,0.000907,0.001114,0.006185,-0.000066,  23.117
   164.4,0.000919,0.001135,0.005944,-0.000053,  23.111
   164.6,0.000924,0.001154,0.005612,-0.000026,  23.101
   164.8,0.000936,0.001174,0.005208,-0.000000,  23.095
   165.0,0.000939,0.001158,0.005241,0.000013,  23.083
   165.2,0.000922,0.001136,0.005429,0.000048,  23.077
   165.4,0.000886,0.001104,0.005787,0.000061,  23.068
   165.6,0.000838,0.001079,0.004698,0.000026,  23.059
   165.8,0.000807,0.001059,0.002980,0.000048,  23.048
   166.0,0.000771,0.001046,0.000599,0.000048,  23.038
   166.2,0.000737,0.001042,0.000606,-0.000013,  23.034
   166.4,0.000740,0.001049,0.001449,-0.000018,  23.017
   166.6,0.000745,0.001066,0.003148,-0.000057,  23.015
   166.8,0.000775,0.001091,0.003845,-0.000131,  22.999
   167.0,0.000809,0.001130,0.004452,-0.000183,  22.986
   167.2,0.000845,0.001181,0.004982,-0.000222,  22.975
   167.4,0.000897,0.001220,0.005350,-0.000248,  22.966
   167.6,0.000936,0.001257,0.005584,-0.000274,  22.956
   167.8,0.000973,0.001291,0.005712,-0.000274,  22.943
   168.0,0.001009,0.001325,0.005826,-0.000248,  22.930
   168.2,0.001040,0.001357,0.005874,-0.000222,  22.924
   168.4,0.001068,0.001389,0.005869,-0.000183,  22.920
   168.6,0.001096,0.001419,0.005851,-0.000157,  22.921
   168.8,0.001121,0.001447,0.005787,-0.000118,  22.922
   169.0,0.001144,0.001479,0.005703,-0.000092,  22.919
   169.2,0.001166,0.001505,0.005566,-0.000053,  22.919
   169.4,0.001186,0.001522,0.005547,-0.000040,  22.910
   169.6,0.001197,0.001539,0.005541,-0.000026,  22.900
   169.8,0.001203,0.001553,0.005548,-0.000000,  22.888
   170.0,0.001183,0.001544,0.005509,0.000013,  22.867
   170.2,0.001147,0.001526,0.005431,0.000026,  22.858
   170.4,0.001088,0.001502,0.005327,0.000039,  22.850
   170.6,0.001052,0.001478,0.005209,0.000039,  22.838
   170.8,0.001010,0.001457,0.005092,0.000039,  22.823
   171.0,0.000963,0.001439,0.004943,0.000052,  22.811
   171.2,0.000961,0.001433,0.004871,0.000026,  22.801
   171.4,0.000972,0.001427,0.004839,-0.000000,  22.785
   171.6,0.000988,0.001428,0.004819,-0.000026,  22.772
   171.8,0.001015,0.001452,0.004852,-0.000079,  22.756
   172.0,0.001062,0.001491,0.004930,-0.000144,  22.737
   172.2,0.001119,0.001541,0.005048,-0.000183,  22.727
   172.4,0.001151,0.001579,0.005035,-0.000222,  22.710
   172.6,0.001178,0.001625,0.004989,-0.000274,  22.694
   172.8,0.001213,0.001668,0.004918,-0.000274,  22.680
   173.0,0.001238,0.001704,0.004573,-0.000235,  22.664
   173.2,0.001268,0.001745,0.004054,-0.000196,  22.658
   173.4,0.001299,0.001775,0.003393,-0.000157,  22.654
   173.6,0.001333,0.001802,0.003237,-0.000131,  22.649
   173.8,0.001364,0.001841,0.003230,-0.000092,  22.650
   174.0,0.001389,0.001870,0.003410,-0.000053,  22.645
   174.2,0.001416,0.001897,0.003383,-0.000026,  22.638
   174.4,0.001438,0.001926,0.003311,-0.000013,  22.626
   174.6,0.001458,0.001954,0.003226,0.000013,  22.610
   174.8,0.001475,0.001958,0.003251,0.000039,  22.599
   175.0,0.001462,0.001941,0.003308,0.000039,  22.581
   175.2,0.001423,0.001912,0.003398,0.000065,  22.566
   175.4,0.001361,0.001888,0.003358,0.000065,  22.553
   175.6,0.001310,0.001864,0.003280,0.000065,  22.530
   175.8,0.001247,0.001829,0.003137,0.000065,  22.512
   176.0,0.001171,0.001800,0.003013,0.000065,  22.494
   176.2,0.001144,0.001783,0.002883,0.000052,  22.474
   176.4,0.001143,0.001769,0.002734,0.000026,  22.453
   176.6,0.001176,0.001787,0.002663,-0.000013,  22.442
   176.8,0.001213,0.001818,0.002618,-0.000053,  22.422
   177.0,0.001259,0.001874,0.002612,-0.000118,  22.397
   177.2,0.001333,0.001919,0.002580,-0.000170,  22.379
   177.4,0.001387,0.001961,0.002554,-0.000235,  22.369
   177.6,0.001433,0.002013,0.002541,-0.000300,  22.346
   177.8,0.001490,0.002055,0.002521,-0.000300,  22.325
   178.0,0.001535,0.002094,0.002217,-0.000274,  22.304
   178.2,0.001565,0.002133,0.001798,-0.000209,  22.294
   178.4,0.001596,0.002165,0.001263,-0.000157,  22.289
   178.6,0.001633,0.002192,0.001101,-0.000118,  22.277
   178.8,0.001669,0.002207,0.001054,-0.000079,  22.284
   179.0,0.001700,0.002225,0.001124,-0.000026,  22.277
   179.2,0.001731,0.002250,0.001026,-0.000000,  22.270
   179.4,0.001763,0.002282,0.000909,0.000013,  22.255
   179.6,0.001792,0.002315,0.000741,0.000052,  22.237
   179.8,0.001779,0.002320,0.000092,0.000065,  22.217
   180.0,0.001731,0.002316,-0.000798,0.000065,  22.199
   180.2,0.001661,0.002305,-0.001960,0.000078,  22.183
   180.4,0.001598,0.002271,-0.002063,0.000091,  22.162
   180.6,0.001513,0.002220,-0.001790,0.000091,  22.137
   180.8,0.001409,0.002162,-0.001102,0.000091,  22.120
   181.0,0.001371,0.002121,-0.001008,0.000104,  22.096
   181.2,0.001361,0.002091,-0.001047,0.000104,  22.080
   181.4,0.001384,0.002063,-0.001189,0.000065,  22.060
   181.6,0.001425,0.002077,-0.001171,-0.000013,  22.038
   181.8,0.001495,0.002119,-0.001158,-0.000083,  22.014
   182.0,0.001604,0.002188,-0.001120,-0.000161,  21.983
   182.2,0.001672,0.002242,-0.001108,-0.000274,  21.971
   182.4,0.001719,0.002297,-0.001089,-0.000365,  21.951
   182.6,0.001779,0.002361,-0.001077,-0.000365,  21.929
   182.8,0.001821,0.002413,-0.001117,-0.000326,  21.908
   183.0,0.001872,0.002456,-0.001169,-0.000261,  21.881
   183.2,0.001920,0.002493,-0.001253,-0.000209,  21.875
   183.4,0.001970,0.002524,-0.001388,-0.000144,  21.867
   183.6,0.002012,0.002554,-0.001556,-0.000044,  21.869
   183.8,0.002049,0.002572,-0.001748,0.000021,  21.866
   184.0,0.002082,0.002602,-0.001877,-0.000009,  21.861
   184.2,0.002116,0.002625,-0.001992,0.000030,  21.846
   184.4,0.002144,0.002654,-0.002075,0.000069,  21.830
   184.6,0.002172,0.002671,-0.002140,0.000060,  21.813
   184.8,0.002147,0.002671,-0.002204,0.000095,  21.796
   185.0,0.002094,0.002660,-0.002248,0.000108,  21.768
   185.2,0.002012,0.002596,-0.002288,0.000086,  21.748
   185.4,0.001905,0.002501,-0.002320,0.000121,  21.727
   185.6,0.001771,0.002377,-0.002328,0.000121,  21.701
   185.8,0.001611,0.002300,-0.002501,0.000121,  21.679
   186.0,0.001554,0.002231,-0.002750,0.000121,  21.655
   186.2,0.001538,0.002185,-0.003076,0.000156,  21.638
   186.4,0.001557,0.002214,-0.003223,0.000104,  21.614
   186.6,0.001622,0.002274,-0.003338,-0.000000,  21.596
   186.8,0.001731,0.002381,-0.003390,-0.000118,  21.564
   187.0,0.001883,0.002445,-0.003480,-0.000222,  21.539
   187.2,0.001995,0.002509,-0.003557,-0.000352,  21.523
   187.4,0.002099,0.002575,-0.003659,-0.000496,  21.497
   187.6,0.002203,0.002636,-0.003729,-0.000509,  21.476
   187.8,0.002288,0.002696,-0.003654,-0.000457,  21.448
   188.0,0.002352,0.002747,-0.003527,-0.000365,  21.424
   188.2,0.002412,0.002803,-0.003344,-0.000287,  21.418
   188.4,0.002465,0.002845,-0.003299,-0.000183,  21.415
   188.6,0.002515,0.002880,-0.003325,-0.000079,  21.414
   188.8,0.002563,0.002901,-0.003388,0.000013,  21.414
   189.0,0.002605,0.002921,-0.003362,0.000065,  21.410
   189.2,0.002639,0.002955,-0.003311,0.000117,  21.395
   189.4,0.002667,0.002979,-0.003221,0.000169,  21.376
   189.6,0.002639,0.002982,-0.003157,0.000195,  21.359
   189.8,0.002577,0.002977,-0.003086,0.000208,  21.341
   190.0,0.002479,0.002966,-0.003002,0.000234,  21.313
   190.2,0.002362,0.002868,-0.002893,0.000247,  21.296
   190.4,0.002226,0.002728,-0.002778,0.000261,  21.270
   190.6,0.002072,0.002538,-0.002644,0.000274,  21.252
   190.8,0.001898,0.002409,-0.002708,0.000261,  21.230
   191.0,0.001809,0.002296,-0.002860,0.000261,  21.208
   191.2,0.001760,0.002182,-0.003108,0.000195,  21.191
   191.4,0.001736,0.002206,-0.003274,0.000065,  21.171
   191.6,0.001823,0.002302,-0.003460,-0.000105,  21.154
   191.8,0.001980,0.002469,-0.003671,-0.000248,  21.132
   192.0,0.002205,0.002579,-0.003793,-0.000417,  21.104
   192.2,0.002362,0.002705,-0.003870,-0.000626,  21.086
   192.4,0.002510,0.002844,-0.003922,-0.000652,  21.074
   192.6,0.002662,0.002938,-0.005015,-0.000613,  21.052
   192.8,0.002781,0.003021,-0.006589,-0.000522,  21.039
   193.0,0.002876,0.003085,-0.008685,-0.000430,  21.026
   193.2,0.002956,0.003143,-0.008454,-0.000287,  21.019
   193.4,0.003032,0.003188,-0.007301,-0.000131,  21.017
   193.6,0.003097,0.003217,-0.005239,-0.000026,  21.022
   193.8,0.003151,0.003243,-0.004363,0.000065,  21.023
   194.0,0.003198,0.003272,-0.003635,0.000143,  21.024
   194.2,0.003234,0.003293,-0.003037,0.000208,  21.016
   194.4,0.003265,0.003287,-0.002388,0.000247,  21.001
   194.6,0.003234,0.003273,-0.001786,0.000274,  20.993
   194.8,0.003172,0.003255,-0.001233,0.000274,  20.972
   195.0,0.003080,0.003139,-0.000962,0.000313,  20.953
   195.2,0.002924,0.002965,-0.000828,0.000326,  20.947
   195.4,0.002707,0.002744,-0.000868,0.000326,  20.934
   195.6,0.002437,0.002607,-0.001056,0.000339,  20.923
   195.8,0.002310,0.002486,-0.000777,0.000339,  20.913
   196.0,0.002220,0.002372,-0.000396,0.000326,  20.897
   196.2,0.002171,0.002283,0.000094,0.000247,  20.888
   196.4,0.002255,0.002328,0.000197,0.000082,  20.879
   196.6,0.002432,0.002432,0.000159,-0.000087,  20.866
   196.8,0.002700,0.002608,-0.000021,-0.000257,  20.859
   197.0,0.002884,0.002739,0.000023,-0.000487,  20.847
   197.2,0.003062,0.002876,0.000074,-0.000674,  20.840
   197.4,0.003236,0.003026,0.000149,-0.000726,  20.837
   197.6,0.003375,0.003128,0.000342,-0.000713,  20.834
   197.8,0.003482,0.003213,0.000634,-0.000587,  20.829
   198.0,0.003560,0.003280,0.000984,-0.000496,  20.826
   198.2,0.003642,0.003338,0.001470,-0.000365,  20.831
   198.4,0.003715,0.003376,0.002047,-0.000183,  20.833
   198.6,0.003772,0.003410,0.002728,-0.000079,  20.842
   198.8,0.003816,0.003440,0.003378,0.000026,  20.855
   199.0,0.003855,0.003464,0.004042,0.000104,  20.857
   199.2,0.003877,0.003479,0.004707,0.000169,  20.853
   199.4,0.003901,0.003472,0.005295,0.000208,  20.844
   199.6,0.003868,0.003457,0.005838,0.000208,  20.838
   199.8,0.003818,0.003430,0.006329,0.000234,  20.829
   200.0,0.003738,0.003321,0.006945,0.000247,  20.827
   200.2,0.003608,0.003176,0.007588,0.000261,  20.822
   200.4,0.003430,0.002992,0.008271,0.000274,  20.825
   200.6,0.003210,0.002850,0.008764,0.000261,  20.820
   200.8,0.003086,0.002707,0.009146,0.000247,  20.822
   201.0,0.002992,0.002576,0.009456,0.000182,  20.828
   201.2,0.002920,0.002585,0.009528,0.000078,  20.825
   201.4,0.002984,0.002662,0.009429,-0.000079,  20.832
   201.6,0.003134,0.002813,0.009165,-0.000196,  20.832
   201.8,0.003365,0.002915,0.008988,-0.000374,  20.831
   202.0,0.003520,0.003029,0.008777,-0.000544,  20.840
   202.2,0.003675,0.003159,0.008521,-0.000596,  20.847
   202.4,0.003833,0.003245,0.008764,-0.000644,  20.851
   202.6,0.003957,0.003315,0.009212,-0.000609,  20.855
   202.8,0.004064,0.003380,0.009891,-0.000544,  20.864
   203.0,0.004152,0.003434,0.010618,-0.000452,  20.875
   203.2,0.004242,0.003476,0.011452,-0.000287,  20.886
   203.4,0.004321,0.003511,0.012434,-0.000209,  20.899
   203.6,0.004392,0.003545,0.013218,-0.000179,  20.909
   203.8,0.004462,0.003566,0.013958,-0.000105,  20.919
   204.0,0.004517,0.003587,0.014665,-0.000114,  20.931
   204.2,0.004568,0.003590,0.015326,-0.000074,  20.936
   204.4,0.004571,0.003582,0.015955,-0.000035,  20.935
   204.6,0.004537,0.003559,0.016538,-0.000009,  20.932
   204.8,0.004482,0.003518,0.017094,0.000030,  20.932
   205.0,0.004403,0.003467,0.017826,0.000008,  20.935
   205.2,0.004318,0.003387,0.018600,0.000043,  20.942
   205.4,0.004211,0.003305,0.019436,0.000056,  20.953
   205.6,0.004142,0.003248,0.020118,0.000021,  20.957
   205.8,0.004094,0.003193,0.020761,0.000030,  20.965
   206.0,0.004067,0.003147,0.021357,-0.000022,  20.977
   206.2,0.004117,0.003154,0.020990,-0.000087,  20.989
   206.4,0.004200,0.003193,0.020123,-0.000144,  21.003
   206.6,0.004333,0.003253,0.018752,-0.000196,  21.016
   206.8,0.004424,0.003292,0.018584,-0.000235,  21.031
   207.0,0.004519,0.003350,0.018773,-0.000274,  21.048
   207.2,0.004613,0.003409,0.019292,-0.000300,  21.060
   207.4,0.004691,0.003449,0.019839,-0.000326,  21.075
   207.6,0.004773,0.003483,0.020563,-0.000352,  21.088
   207.8,0.004840,0.003515,0.021465,-0.000339,  21.103
   208.0,0.004898,0.003549,0.022354,-0.000313,  21.119
   208.2,0.004960,0.003581,0.023334,-0.000261,  21.140
   208.4,0.005004,0.003611,0.024404,-0.000235,  21.154
   208.6,0.005056,0.003637,0.025429,-0.000222,  21.167
   208.8,0.005109,0.003665,0.026492,-0.000222,  21.179
   209.0,0.005175,0.003689,0.027584,-0.000209,  21.195
   209.2,0.005240,0.003700,0.028520,-0.000196,  21.202
   209.4,0.005263,0.003702,0.029382,-0.000183,  21.203
   209.6,0.005266,0.003698,0.030162,-0.000170,  21.202
   209.8,0.005246,0.003679,0.031076,-0.000170,  21.207
   210.0,0.005240,0.003638,0.032027,-0.000170,  21.222
   210.2,0.005222,0.003588,0.033009,-0.000170,  21.228
   210.4,0.005202,0.003603,0.033782,-0.000205,  21.244
   210.6,0.005222,0.003650,0.034452,-0.000218,  21.249
   210.8,0.005259,0.003719,0.035039,-0.000231,  21.267
   211.0,0.005311,0.003735,0.035242,-0.000292,  21.290
   211.2,0.005339,0.003746,0.035180,-0.000270,  21.300
   211.4,0.005361,0.003741,0.034886,-0.000244,  21.312
   211.6,0.005384,0.003741,0.034747,-0.000240,  21.336
   211.8,0.005418,0.003733,0.034544,-0.000166,  21.349
   212.0,0.005451,0.003724,0.034286,-0.000140,  21.372
   212.2,0.005503,0.003720,0.034524,-0.000161,  21.388
   212.4,0.005551,0.003722,0.034993,-0.000127,  21.401
   212.6,0.005598,0.003735,0.035658,-0.000140,  21.420
   212.8,0.005664,0.003752,0.036359,-0.000166,  21.437
   213.0,0.005735,0.003774,0.037186,-0.000192,  21.455
   213.2,0.005809,0.003811,0.038135,-0.000231,  21.470
   213.4,0.005895,0.003837,0.038895,-0.000257,  21.488
   213.6,0.005968,0.003867,0.039643,-0.000331,  21.497
   213.8,0.006033,0.003902,0.040343,-0.000335,  21.509
   214.0,0.006103,0.003921,0.041030,-0.000348,  21.529
   214.2,0.006140,0.003936,0.041932,-0.000396,  21.531
   214.4,0.006151,0.003942,0.042908,-0.000374,  21.533
   214.6,0.006160,0.003951,0.043950,-0.000361,  21.537
   214.8,0.006174,0.003931,0.044682,-0.000396,  21.540
   215.0,0.006183,0.003908,0.045257,-0.000361,  21.551
   215.2,0.006198,0.003877,0.045722,-0.000348,  21.556
   215.4,0.006255,0.003935,0.046546,-0.000348,  21.571
   215.6,0.006334,0.004029,0.047433,-0.000313,  21.583
   215.8,0.006437,0.004166,0.048446,-0.000300,  21.598
   216.0,0.006473,0.004205,0.048723,-0.000313,  21.616
   216.2,0.006485,0.004206,0.048680,-0.000326,  21.626
   216.4,0.006471,0.004183,0.048321,-0.000274,  21.644
   216.6,0.006500,0.004174,0.048164,-0.000222,  21.657
   216.8,0.006526,0.004148,0.047984,-0.000144,  21.673
   217.0,0.006554,0.004120,0.047741,-0.000092,  21.691
   217.2,0.006595,0.004114,0.047972,-0.000053,  21.703
   217.4,0.006628,0.004112,0.048384,-0.000026,  21.716
   217.6,0.006668,0.004117,0.048990,-0.000040,  21.733
   217.8,0.006713,0.004134,0.049757,-0.000092,  21.748
   218.0,0.006774,0.004164,0.050685,-0.000170,  21.764
   218.2,0.006854,0.004201,0.051774,-0.000222,  21.776
   218.4,0.006945,0.004237,0.052779,-0.000261,  21.786
   218.6,0.007023,0.004280,0.053824,-0.000313,  21.802
   218.8,0.007105,0.004327,0.054901,-0.000339,  21.811
   219.0,0.007190,0.004363,0.055892,-0.000352,  21.821
   219.2,0.007250,0.004388,0.056855,-0.000330,  21.833
   219.4,0.007302,0.004415,0.057776,-0.000317,  21.833
   219.6,0.007343,0.004414,0.058750,-0.000352,  21.829
   219.8,0.007354,0.004389,0.059748,-0.000352,  21.828
   220.0,0.007340,0.004345,0.060732,-0.000339,  21.834
   220.2,0.007312,0.004390,0.061556,-0.000352,  21.843
   220.4,0.007349,0.004467,0.062320,-0.000352,  21.844
   220.6,0.007399,0.004572,0.062996,-0.000339,  21.855
   220.8,0.007472,0.004610,0.063214,-0.000326,  21.865
   221.0,0.007512,0.004631,0.063134,-0.000313,  21.881
   221.2,0.007537,0.004630,0.062809,-0.000287,  21.889
   221.4,0.007554,0.004629,0.062532,-0.000261,  21.904
   221.6,0.007600,0.004633,0.062128,-0.000235,  21.910
   221.8,0.007651,0.004625,0.061604,-0.000196,  21.923
   222.0,0.007711,0.004633,0.061567,-0.000144,  21.936
   222.2,0.007782,0.004656,0.061694,-0.000105,  21.944
   222.4,0.007856,0.004681,0.062014,-0.000066,  21.953
   222.6,0.007945,0.004718,0.062499,-0.000066,  21.967
   222.8,0.008037,0.004758,0.063177,-0.000092,  21.976
   223.0,0.008131,0.004808,0.064021,-0.000157,  21.991
   223.2,0.008240,0.004855,0.065074,-0.000183,  21.998
   223.4,0.008352,0.004898,0.065742,-0.000196,  22.018
   223.6,0.008455,0.004943,0.066362,-0.000248,  22.031
   223.8,0.008563,0.004986,0.066866,-0.000261,  22.041
   224.0,0.008649,0.005026,0.067807,-0.000274,  22.049
   224.2,0.008720,0.005070,0.068941,-0.000287,  22.050
   224.4,0.008773,0.005117,0.070250,-0.000287,  22.051
   224.6,0.008761,0.005110,0.071479,-0.000261,  22.042
   224.8,0.008715,0.005082,0.072757,-0.000248,  22.045
   225.0,0.008639,0.005029,0.074103,-0.000235,  22.044
   225.2,0.008622,0.005033,0.075172,-0.000235,  22.046
   225.4,0.008613,0.005046,0.076144,-0.000235,  22.061
   225.6,0.008619,0.005080,0.077000,-0.000222,  22.063
   225.8,0.008633,0.005097,0.077286,-0.000235,  22.075
   226.0,0.008656,0.005110,0.077224,-0.000235,  22.087
   226.2,0.008688,0.005128,0.076791,-0.000222,  22.088
   226.4,0.008730,0.005154,0.076450,-0.000235,  22.100
   226.6,0.008804,0.005185,0.075956,-0.000235,  22.111
   226.8,0.008898,0.005220,0.075315,-0.000209,  22.116
   227.0,0.009015,0.005265,0.075285,-0.000196,  22.123
   227.2,0.009123,0.005318,0.075455,-0.000170,  22.134
   227.4,0.009231,0.005374,0.075828,-0.000170,  22.141
   227.6,0.009352,0.005429,0.076474,-0.000170,  22.144
   227.8,0.009466,0.005488,0.077350,-0.000183,  22.152
   228.0,0.009574,0.005551,0.078429,-0.000196,  22.165
   228.2,0.009695,0.005615,0.079483,-0.000196,  22.168
   228.4,0.009815,0.005679,0.080656,-0.000183,  22.183
   228.6,0.009926,0.005751,0.081887,-0.000170,  22.194
   228.8,0.010053,0.005812,0.082456,-0.000157,  22.202
   229.0,0.010153,0.005866,0.082696,-0.000157,  22.205
   229.2,0.010232,0.005921,0.082645,-0.000144,  22.208
   229.4,0.010316,0.005923,0.083729,-0.000118,  22.201
   229.6,0.010308,0.005900,0.085221,-0.000131,  22.198
   229.8,0.010241,0.005844,0.087157,-0.000118,  22.201
   230.0,0.010141,0.005815,0.088473,-0.000105,  22.194
   230.2,0.010084,0.005785,0.089705,-0.000105,  22.197
   230.4,0.010017,0.005757,0.090852,-0.000092,  22.200
   230.6,0.009964,0.005746,0.091337,-0.000092,  22.205
   230.8,0.009970,0.005746,0.091413,-0.000079,  22.207
   231.0,0.009997,0.005761,0.091117,-0.000079,  22.215
   231.2,0.010067,0.005795,0.090935,-0.000092,  22.217
   231.4,0.010164,0.005853,0.090649,-0.000131,  22.220
   231.6,0.010287,0.005932,0.090217,-0.000170,  22.226
   231.8,0.010447,0.005987,0.089650,-0.000183,  22.232
   232.0,0.010582,0.006041,0.089589,-0.000196,  22.231
   232.2,0.010725,0.006093,0.089655,-0.000209,  22.238
   232.4,0.010875,0.006149,0.089834,-0.000209,  22.241
   232.6,0.011010,0.006213,0.090413,-0.000209,  22.245
   232.8,0.011132,0.006289,0.091228,-0.000183,  22.251
   233.0,0.011265,0.006369,0.092336,-0.000170,  22.259
   233.2,0.011397,0.006442,0.093423,-0.000144,  22.265
   233.4,0.011520,0.006518,0.094612,-0.000131,  22.275
   233.6,0.011659,0.006596,0.095925,-0.000105,  22.287
   233.8,0.011771,0.006660,0.097121,-0.000079,  22.293
   234.0,0.011865,0.006719,0.098294,-0.000079,  22.296
   234.2,0.011960,0.006777,0.099431,-0.000053,  22.295
   234.4,0.011957,0.006786,0.100646,-0.000040,  22.285
   234.6,0.011890,0.006769,0.101887,-0.000040,  22.280
   234.8,0.011782,0.006728,0.103133,-0.000013,  22.276
   235.0,0.011719,0.006687,0.104234,-0.000000,  22.276
   235.2,0.011653,0.006627,0.105252,-0.000000,  22.280
   235.4,0.011581,0.006551,0.106224,0.000013,  22.275
   235.6,0.011513,0.006516,0.106041,-0.000035,  22.278
   235.8,0.011498,0.006495,0.105218,-0.000035,  22.285
   236.0,0.011506,0.006487,0.103785,-0.000048,  22.283
   236.2,0.011541,0.006528,0.103474,-0.000100,  22.286
   236.4,0.011641,0.006585,0.103377,-0.000118,  22.286
   236.6,0.011778,0.006681,0.103521,-0.000144,  22.287
   236.8,0.011969,0.006765,0.103468,-0.000183,  22.293
   237.0,0.012124,0.006851,0.103425,-0.000222,  22.293
   237.2,0.012279,0.006951,0.103385,-0.000222,  22.298
   237.4,0.012452,0.007037,0.104066,-0.000222,  22.303
   237.6,0.012605,0.007121,0.105103,-0.000222,  22.304
   237.8,0.012745,0.007203,0.106502,-0.000196,  22.307
   238.0,0.012880,0.007283,0.107186,-0.000157,  22.313
   238.2,0.013024,0.007368,0.107700,-0.000131,  22.318
   238.4,0.013169,0.007448,0.108026,-0.000092,  22.330
   238.6,0.013310,0.007519,0.109208,-0.000066,  22.337
   238.8,0.013434,0.007585,0.110723,-0.000053,  22.339
   239.0,0.013544,0.007647,0.112577,-0.000026,  22.343
   239.2,0.013651,0.007673,0.114064,-0.000013,  22.342
   239.4,0.013666,0.007670,0.115557,-0.000000,  22.335
   239.6,0.013624,0.007652,0.117004,0.000013,  22.330
   239.8,0.013535,0.007606,0.118317,0.000026,  22.326
   240.0,0.013451,0.007535,0.119587,0.000039,  22.330
   240.2,0.013344,0.007445,0.120741,0.000039,  22.325
   240.4,0.013212,0.007395,0.121444,0.000052,  22.325
   240.6,0.013163,0.007358,0.121875,0.000039,  22.326
   240.8,0.013146,0.007327,0.122012,0.000039,  22.327
   241.0,0.013160,0.007338,0.121899,0.000026,  22.330
   241.2,0.013252,0.007373,0.121602,-0.000013,  22.329
   241.4,0.013399,0.007438,0.121073,-0.000079,  22.331
   241.6,0.013598,0.007526,0.120306,-0.000105,  22.332
   241.8,0.013766,0.007607,0.119737,-0.000179,  22.334
   242.0,0.013939,0.007702,0.119145,-0.000231,  22.335
   242.2,0.014118,0.007818,0.118550,-0.000231,  22.339
   242.4,0.014283,0.007918,0.118950,-0.000279,  22.344
   242.6,0.014436,0.008013,0.119817,-0.000257,  22.340
   242.8,0.014581,0.008106,0.121177,-0.000218,  22.341
   243.0,0.014734,0.008194,0.122336,-0.000227,  22.347
   243.2,0.014882,0.008274,0.123652,-0.000153,  22.354
   243.4,0.015026,0.008353,0.125106,-0.000114,  22.365
   243.6,0.015160,0.008428,0.126382,-0.000122,  22.367
   243.8,0.015278,0.008499,0.127633,-0.000061,  22.384
   244.0,0.015398,0.008568,0.128884,-0.000035,  22.380
   244.2,0.015444,0.008601,0.130189,-0.000057,  22.380
   244.4,0.015443,0.008616,0.131519,-0.000022,  22.374
   244.6,0.015421,0.008612,0.132852,-0.000009,  22.363
   244.8,0.015349,0.008566,0.133433,-0.000031,  22.361
   245.0,0.015261,0.008487,0.133648,0.000017,  22.358
   245.2,0.015145,0.008383,0.133475,0.000030,  22.360
   245.4,0.015007,0.008322,0.134165,0.000008,  22.362
   245.6,0.014949,0.008275,0.135111,0.000043,  22.359
   245.8,0.014908,0.008234,0.136308,0.000017,  22.358
   246.0,0.014906,0.008262,0.136431,-0.000022,  22.359
   246.2,0.014998,0.008325,0.136126,-0.000066,  22.362
   246.4,0.015149,0.008431,0.135377,-0.000118,  22.362
   246.6,0.015364,0.008522,0.135020,-0.000157,  22.365
   246.8,0.015538,0.008624,0.134669,-0.000196,  22.360
   247.0,0.015714,0.008741,0.134267,-0.000196,  22.367
   247.2,0.015903,0.008844,0.134636,-0.000209,  22.364
   247.4,0.016071,0.008944,0.135347,-0.000222,  22.365
   247.6,0.016227,0.009042,0.136421,-0.000196,  22.366
   247.8,0.016387,0.009133,0.137639,-0.000170,  22.363
   248.0,0.016544,0.009217,0.139090,-0.000109,  22.373
   248.2,0.016698,0.009301,0.140764,-0.000083,  22.375
   248.4,0.016853,0.009382,0.142098,-0.000092,  22.382
   248.6,0.016993,0.009451,0.143409,-0.000031,  22.394
   248.8,0.017120,0.009531,0.144665,-0.000018,  22.400
   249.0,0.017239,0.009572,0.145789,0.000008,  22.398
   249.2,0.017283,0.009596,0.146813,0.000021,  22.392
   249.4,0.017289,0.009606,0.147766,0.000048,  22.387
   249.6,0.017252,0.009582,0.148613,0.000061,  22.380
   249.8,0.017176,0.009542,0.149867,0.000039,  22.378
   250.0,0.017056,0.009472,0.151227,0.000087,  22.374
   250.2,0.016892,0.009386,0.152702,0.000100,  22.371
   250.4,0.016816,0.009328,0.153396,0.000065,  22.373
   250.6,0.016764,0.009267,0.153751,0.000065,  22.368
   250.8,0.016733,0.009204,0.153752,0.000052,  22.362
   251.0,0.016812,0.009219,0.153594,0.000026,  22.365
   251.2,0.016944,0.009279,0.153176,-0.000026,  22.371
   251.4,0.017158,0.009377,0.152489,-0.000066,  22.367
   251.6,0.017329,0.009465,0.152016,-0.000153,  22.367
   251.8,0.017506,0.009569,0.151500,-0.000205,  22.365
   252.0,0.017701,0.009692,0.150955,-0.000231,  22.366
   252.2,0.017873,0.009794,0.151252,-0.000292,  22.369
   252.4,0.018045,0.009896,0.151916,-0.000270,  22.366
   252.6,0.018215,0.009997,0.153011,-0.000257,  22.368
   252.8,0.018355,0.010090,0.153945,-0.000253,  22.368
   253.0,0.018477,0.010174,0.154986,-0.000166,  22.375
   253.2,0.018594,0.010264,0.156130,-0.000127,  22.382
   253.4,0.018691,0.010353,0.157402,-0.000087,  22.394
   253.6,0.018815,0.010433,0.158839,-0.000040,  22.397
   253.8,0.018959,0.010517,0.160353,-0.000013,  22.402
   254.0,0.019112,0.010574,0.161791,0.000013,  22.395
   254.2,0.019182,0.010613,0.163253,0.000026,  22.397
   254.4,0.019211,0.010637,0.164725,0.000052,  22.385
   254.6,0.019201,0.010601,0.166128,0.000052,  22.376
   254.8,0.019134,0.010534,0.167455,0.000065,  22.374
   255.0,0.019020,0.010435,0.168772,0.000078,  22.372
   255.2,0.018860,0.010360,0.169814,0.000078,  22.371
   255.4,0.018770,0.010291,0.170686,0.000065,  22.369
   255.6,0.018687,0.010224,0.171400,0.000052,  22.367
   255.8,0.018629,0.010226,0.171463,0.000026,  22.364
   256.0,0.018691,0.010271,0.171066,-0.000000,  22.368
   256.2,0.018819,0.010359,0.170275,-0.000040,  22.366
   256.4,0.019016,0.010441,0.169701,-0.000092,  22.369
   256.6,0.019185,0.010549,0.168957,-0.000144,  22.366
   256.8,0.019378,0.010677,0.168132,-0.000183,  22.365
   257.0,0.019589,0.010783,0.168227,-0.000209,  22.367
   257.2,0.019770,0.010884,0.168702,-0.000187,  22.368
   257.4,0.019946,0.010995,0.169592,-0.000213,  22.365
   257.6,0.020110,0.011086,0.170230,-0.000235,  22.367
   257.8,0.020271,0.011178,0.170958,-0.000196,  22.367
   258.0,0.020430,0.011268,0.171732,-0.000157,  22.373
   258.2,0.020576,0.011360,0.172617,-0.000131,  22.380
   258.4,0.020732,0.011447,0.173989,-0.000092,  22.393
   258.6,0.020873,0.011528,0.175595,-0.000066,  22.394
   258.8,0.021011,0.011587,0.177427,-0.000040,  22.404
   259.0,0.021096,0.011635,0.178944,-0.000026,  22.402
   259.2,0.021155,0.011658,0.180388,-0.000000,  22.394
   259.4,0.021172,0.011672,0.181765,0.000026,  22.385
   259.6,0.021109,0.011633,0.183075,0.000039,  22.383
   259.8,0.020991,0.011571,0.184257,0.000039,  22.382
   260.0,0.020828,0.011482,0.185371,0.000052,  22.376
   260.2,0.020734,0.011418,0.186486,0.000052,  22.375
   260.4,0.020642,0.011343,0.187544,0.000052,  22.377
   260.6,0.020566,0.011262,0.188572,0.000052,  22.372
   260.8,0.020615,0.011260,0.188605,0.000039,  22.373
   261.0,0.020730,0.011294,0.188114,0.000013,  22.369
   261.2,0.020919,0.011366,0.187134,-0.000013,  22.371
   261.4,0.021051,0.011445,0.186486,-0.000066,  22.373
   261.6,0.021185,0.011551,0.185720,-0.000122,  22.369
   261.8,0.021344,0.011687,0.184863,-0.000161,  22.371
   262.0,0.021500,0.011796,0.184903,-0.000222,  22.374
   262.2,0.021661,0.011900,0.185324,-0.000274,  22.372
   262.4,0.021840,0.012010,0.186149,-0.000274,  22.377
   262.6,0.022032,0.012107,0.187128,-0.000235,  22.375
   262.8,0.022197,0.012201,0.188367,-0.000183,  22.377
   263.0,0.022352,0.012295,0.189896,-0.000157,  22.386
   263.2,0.022512,0.012386,0.191077,-0.000118,  22.392
   263.4,0.022665,0.012474,0.192193,-0.000079,  22.401
   263.6,0.022809,0.012562,0.193245,-0.000040,  22.404
   263.8,0.022960,0.012634,0.194515,-0.000026,  22.411
   264.0,0.023057,0.012688,0.195869,0.000008,  22.407
   264.2,0.023134,0.012743,0.197255,0.000035,  22.401
   264.4,0.023185,0.012723,0.198748,0.000013,  22.396
   264.6,0.023138,0.012667,0.200335,0.000061,  22.389
   264.8,0.023032,0.012574,0.201975,0.000087,  22.387
   265.0,0.022864,0.012505,0.203307,0.000052,  22.382
   265.2,0.022770,0.012429,0.204491,0.000100,  22.384
   265.4,0.022673,0.012346,0.205547,0.000100,  22.383
   265.6,0.022579,0.012336,0.205714,0.000065,  22.385
   265.8,0.022618,0.012360,0.205362,0.000087,  22.381
   266.0,0.022712,0.012408,0.204486,0.000061,  22.384
   266.2,0.022864,0.012483,0.204072,0.000021,  22.381
   266.4,0.023024,0.012595,0.203591,-0.000044,  22.382
   266.6,0.023215,0.012730,0.203076,-0.000109,  22.386
   266.8,0.023437,0.012816,0.202513,-0.000148,  22.381
   267.0,0.023616,0.012909,0.202657,-0.000235,  22.382
   267.2,0.023799,0.012978,0.203028,-0.000287,  22.384
   267.4,0.023979,0.013051,0.203619,-0.000287,  22.388
   267.6,0.024144,0.013145,0.204534,-0.000261,  22.381
   267.8,0.024310,0.013240,0.205706,-0.000187,  22.388
   268.0,0.024473,0.013345,0.207159,-0.000148,  22.396
   268.2,0.024630,0.013437,0.207772,-0.000144,  22.401
   268.4,0.024771,0.013526,0.208140,-0.000092,  22.408
   268.6,0.024917,0.013620,0.208228,-0.000040,  22.410
   268.8,0.025029,0.013697,0.209583,-0.000026,  22.419
   269.0,0.025118,0.013758,0.211463,-0.000000,  22.418
   269.2,0.025196,0.013815,0.213878,0.000026,  22.413
   269.4,0.025170,0.013809,0.215644,0.000026,  22.404
   269.6,0.025072,0.013764,0.217338,0.000026,  22.397
   269.8,0.024912,0.013688,0.218940,0.000039,  22.392
   270.0,0.024833,0.013624,0.220348,0.000039,  22.393
   270.2,0.024746,0.013548,0.221617,0.000052,  22.390
   270.4,0.024679,0.013463,0.222752,0.000052,  22.395
   270.6,0.024608,0.013446,0.223041,0.000039,  22.388
   270.8,0.024634,0.013450,0.222797,0.000061,  22.394
   271.0,0.024705,0.013481,0.222085,0.000035,  22.391
   271.2,0.024814,0.013549,0.221590,-0.000087,  22.393
   271.4,0.024955,0.013645,0.220931,-0.000166,  22.393
   271.6,0.025135,0.013774,0.220130,-0.000205,  22.395
   271.8,0.025361,0.013876,0.220116,-0.000244,  22.393
   272.0,0.025545,0.013986,0.220411,-0.000274,  22.394
   272.2,0.025722,0.014107,0.221028,-0.000274,  22.396
   272.4,0.025910,0.014213,0.221896,-0.000235,  22.392
   272.6,0.026079,0.014307,0.223045,-0.000196,  22.394
   272.8,0.026243,0.014392,0.224465,-0.000157,  22.406
   273.0,0.026407,0.014489,0.225780,-0.000118,  22.407
   273.2,0.026564,0.014576,0.227172,-0.000079,  22.409
   273.4,0.026713,0.014660,0.228626,-0.000026,  22.419
   273.6,0.026856,0.014735,0.229953,-0.000013,  22.431
   273.8,0.026979,0.014803,0.231224,-0.000000,  22.429
   274.0,0.027080,0.014866,0.232490,0.000013,  22.427
   274.2,0.027163,0.014868,0.233889,0.000039,  22.422
   274.4,0.027149,0.014838,0.235294,0.000039,  22.419
   274.6,0.027069,0.014771,0.236778,0.000052,  22.413
   274.8,0.026919,0.014709,0.237879,0.000052,  22.413
   275.0,0.026814,0.014637,0.238805,0.000065,  22.403
   275.2,0.026706,0.014554,0.239582,0.000078,  22.406
   275.4,0.026590,0.014523,0.240165,0.000091,  22.405
   275.6,0.026590,0.014515,0.240283,0.000069,  22.399
   275.8,0.026642,0.014516,0.240072,0.000043,  22.405
   276.0,0.026769,0.014549,0.239590,0.000004,  22.406
   276.2,0.026906,0.014610,0.239203,-0.000048,  22.406
   276.4,0.027077,0.014704,0.238713,-0.000092,  22.403
   276.6,0.027299,0.014828,0.238112,-0.000144,  22.403
   276.8,0.027477,0.014931,0.238045,-0.000231,  22.404
   277.0,0.027646,0.015031,0.238179,-0.000283,  22.406
   277.2,0.027832,0.015146,0.238512,-0.000283,  22.407
   277.4,0.027999,0.015245,0.239266,-0.000292,  22.404
   277.6,0.028147,0.015332,0.240357,-0.000218,  22.405
   277.8,0.028300,0.015425,0.241738,-0.000192,  22.409
   278.0,0.028450,0.015510,0.242965,-0.000188,  22.416
   278.2,0.028589,0.015593,0.244270,-0.000114,  22.423
   278.4,0.028731,0.015672,0.245655,-0.000061,  22.431
   278.6,0.028838,0.015744,0.246968,-0.000070,  22.432
   278.8,0.028924,0.015815,0.248292,-0.000022,  22.437
   279.0,0.028997,0.015874,0.249627,0.000004,  22.433
   279.2,0.029047,0.015886,0.250907,-0.000018,  22.428
   279.4,0.029017,0.015871,0.252180,0.000017,  22.421
   279.6,0.028958,0.015824,0.253411,0.000030,  22.419
   279.8,0.028857,0.015773,0.254507,-0.000005,  22.420
   280.0,0.028777,0.015703,0.255502,0.000030,  22.416
   280.2,0.028675,0.015616,0.256366,0.000043,  22.418
   280.4,0.028559,0.015580,0.256659,0.000043,  22.416
   280.6,0.028554,0.015565,0.256633,0.000065,  22.417
   280.8,0.028586,0.015577,0.256234,0.000026,  22.418
   281.0,0.028654,0.015623,0.255941,-0.000026,  22.416
   281.2,0.028774,0.015700,0.255532,-0.000105,  22.417
   281.4,0.028935,0.015813,0.254995,-0.000157,  22.416
   281.6,0.029142,0.015905,0.254872,-0.000209,  22.414
   281.8,0.029309,0.015999,0.254902,-0.000261,  22.417
   282.0,0.029480,0.016107,0.255114,-0.000261,  22.413
   282.2,0.029650,0.016201,0.255751,-0.000248,  22.416
   282.4,0.029805,0.016289,0.256709,-0.000222,  22.418
   282.6,0.029955,0.016380,0.257973,-0.000196,  22.414
   282.8,0.030096,0.016466,0.259097,-0.000170,  22.418
   283.0,0.030236,0.016542,0.260247,-0.000131,  22.423
   283.2,0.030373,0.016627,0.261460,-0.000105,  22.430
   283.4,0.030515,0.016701,0.262475,-0.000066,  22.431
   283.6,0.030635,0.016763,0.263455,-0.000040,  22.438
   283.8,0.030740,0.016829,0.264355,-0.000013,  22.446
   284.0,0.030839,0.016861,0.265203,0.000013,  22.436
   284.2,0.030851,0.016869,0.266305,0.000039,  22.428
   284.4,0.030812,0.016861,0.267447,0.000039,  22.430
   284.6,0.030729,0.016831,0.268656,0.000065,  22.424
   284.8,0.030651,0.016782,0.269801,0.000065,  22.418
   285.0,0.030548,0.016713,0.270894,0.000065,  22.416
   285.2,0.030421,0.016631,0.271959,0.000078,  22.417
   285.4,0.030391,0.016593,0.272449,0.000091,  22.413
   285.6,0.030400,0.016562,0.272607,0.000091,  22.411
   285.8,0.030449,0.016553,0.272423,0.000052,  22.408
   286.0,0.030548,0.016590,0.272213,-0.000000,  22.410
   286.2,0.030698,0.016659,0.271819,-0.000079,  22.410
   286.4,0.030900,0.016763,0.271210,-0.000118,  22.406
   286.6,0.031068,0.016849,0.271076,-0.000183,  22.411
   286.8,0.031236,0.016947,0.271087,-0.000235,  22.407
   287.0,0.031413,0.017055,0.271242,-0.000235,  22.403
   287.2,0.031549,0.017150,0.271724,-0.000248,  22.402
   287.4,0.031662,0.017240,0.272425,-0.000200,  22.404
   287.6,0.031761,0.017329,0.273358,-0.000161,  22.401
   287.8,0.031846,0.017413,0.274369,-0.000205,  22.406
   288.0,0.031975,0.017490,0.275505,-0.000153,  22.412
   288.2,0.032111,0.017570,0.276742,-0.000114,  22.421
   288.4,0.032262,0.017640,0.277968,-0.000074,  22.427
   288.6,0.032379,0.017702,0.279266,-0.000013,  22.436
   288.8,0.032475,0.017769,0.280605,0.000013,  22.435
   289.0,0.032575,0.017795,0.281746,0.000026,  22.431
   289.2,0.032596,0.017802,0.282829,0.000061,  22.422
   289.4,0.032572,0.017791,0.283836,0.000087,  22.416
   289.6,0.032513,0.017754,0.284549,0.000052,  22.414
   289.8,0.032450,0.017695,0.285058,0.000065,  22.407
   290.0,0.032360,0.017609,0.285321,0.000078,  22.396
   290.2,0.032248,0.017567,0.285826,0.000091,  22.398
   290.4,0.032219,0.017531,0.286298,0.000091,  22.391
   290.6,0.032210,0.017507,0.286780,0.000065,  22.391
   290.8,0.032218,0.017533,0.286846,0.000013,  22.386
   291.0,0.032302,0.017585,0.286670,-0.000053,  22.383
   291.2,0.032437,0.017680,0.286268,-0.000105,  22.384
   291.4,0.032618,0.017762,0.286242,-0.000131,  22.390
   291.6,0.032772,0.017852,0.286265,-0.000183,  22.384
   291.8,0.032929,0.017959,0.286338,-0.000209,  22.385
   292.0,0.033099,0.018050,0.286606,-0.000209,  22.383
   292.2,0.033247,0.018139,0.287006,-0.000222,  22.386
   292.4,0.033385,0.018227,0.287501,-0.000222,  22.384
   292.6,0.033509,0.018299,0.288103,-0.000183,  22.380
   292.8,0.033635,0.018359,0.288981,-0.000157,  22.386
   293.0,0.033765,0.018411,0.290018,-0.000118,  22.394
   293.2,0.033895,0.018454,0.291203,-0.000079,  22.399
   293.4,0.034010,0.018513,0.292296,-0.000040,  22.413
   293.6,0.034113,0.018573,0.293392,-0.000013,  22.423
   293.8,0.034204,0.018634,0.294471,0.000013,  22.421
   294.0,0.034237,0.018667,0.295610,0.000039,  22.408
   294.2,0.034237,0.018686,0.296688,0.000039,  22.407
   294.4,0.034198,0.018693,0.297793,0.000052,  22.394
   294.6,0.034147,0.018663,0.298768,0.000052,  22.392
   294.8,0.034059,0.018600,0.299662,0.000087,  22.391
   295.0,0.033948,0.018520,0.300494,0.000100,  22.389
   295.2,0.033915,0.018473,0.301106,0.000043,  22.386
   295.4,0.033894,0.018436,0.301558,0.000056,  22.382
   295.6,0.033887,0.018410,0.301874,0.000043,  22.387
   295.8,0.033929,0.018433,0.301867,0.000004,  22.389
   296.0,0.033992,0.018482,0.301621,-0.000040,  22.389
   296.2,0.034095,0.018565,0.301111,-0.000092,  22.389
   296.4,0.034235,0.018635,0.300866,-0.000131,  22.389
   296.6,0.034365,0.018723,0.300609,-0.000183,  22.387
   296.8,0.034510,0.018825,0.300340,-0.000209,  22.387
   297.0,0.034668,0.018904,0.300611,-0.000222,  22.390
   297.2,0.034797,0.018984,0.301127,-0.000209,  22.391
   297.4,0.034924,0.019069,0.301877,-0.000170,  22.390
   297.6,0.035054,0.019149,0.302453,-0.000144,  22.392
   297.8,0.035175,0.019220,0.303006,-0.000105,  22.396
   298.0,0.035296,0.019284,0.303624,-0.000053,  22.407
   298.2,0.035422,0.019353,0.304611,-0.000026,  22.417
   298.4,0.035528,0.019413,0.305756,-0.000000,  22.421
   298.6,0.035626,0.019466,0.307101,0.000026,  22.423
   298.8,0.035711,0.019495,0.308253,0.000039,  22.430
   299.0,0.035756,0.019522,0.309402,0.000052,  22.422
   299.2,0.035768,0.019533,0.310501,0.000065,  22.417
   299.4,0.035755,0.019502,0.311577,0.000078,  22.411
   299.6,0.035707,0.019453,0.312635,0.000091,  22.399
   299.8,0.035625,0.019373,0.313637,0.000104,  22.401
   300.0,0.035516,0.019328,0.314295,0.000104,  22.400
   300.2,0.035471,0.019285,0.314781,0.000104,  22.400
   300.4,0.035438,0.019250,0.315068,0.000091,  22.400
   300.6,0.035417,0.019258,0.315194,0.000078,  22.405
   300.8,0.035475,0.019286,0.315208,0.000052,  22.400
   301.0,0.035569,0.019351,0.315008,0.000013,  22.399
   301.2,0.035696,0.019413,0.314641,-0.000026,  22.404
   301.4,0.035811,0.019491,0.314515,-0.000066,  22.406
   301.6,0.035947,0.019587,0.314348,-0.000131,  22.399
   301.8,0.036093,0.019654,0.314175,-0.000157,  22.402
   302.0,0.036217,0.019717,0.314082,-0.000183,  22.405
   302.2,0.036345,0.019769,0.313983,-0.000209,  22.404
   302.4,0.036470,0.019823,0.313937,-0.000183,  22.408
   302.6,0.036586,0.019888,0.314576,-0.000170,  22.404
   302.8,0.036695,0.019957,0.315562,-0.000118,  22.409
   303.0,0.036796,0.020026,0.316911,-0.000079,  22.416
   303.2,0.036890,0.020078,0.317977,-0.000040,  22.424
   303.4,0.036982,0.020137,0.319072,-0.000013,  22.436
   303.6,0.037067,0.020194,0.320197,0.000013,  22.437
   303.8,0.037116,0.020226,0.321203,0.000004,  22.440
   304.0,0.037146,0.020261,0.322198,0.000017,  22.434
   304.2,0.037155,0.020287,0.323114,0.000030,  22.426
   304.4,0.037137,0.020267,0.323984,0.000008,  22.420
   304.6,0.037094,0.020218,0.324808,0.000056,  22.415
   304.8,0.037030,0.020144,0.325538,0.000082,  22.412
   305.0,0.036936,0.020104,0.326118,0.000047,  22.410
   305.2,0.036896,0.020065,0.326631,0.000082,  22.403
   305.4,0.036864,0.020019,0.326980,0.000069,  22.407
   305.6,0.036827,0.020026,0.327014,0.000008,  22.410
   305.8,0.036870,0.020052,0.326774,0.000017,  22.411
   306.0,0.036949,0.020096,0.326315,-0.000022,  22.409
   306.2,0.037058,0.020152,0.325849,-0.000109,  22.411
   306.4,0.037168,0.020223,0.325247,-0.000140,  22.412
   306.6,0.037290,0.020307,0.324468,-0.000166,  22.411
   306.8,0.037424,0.020378,0.324604,-0.000227,  22.409
   307.0,0.037536,0.020451,0.325095,-0.000231,  22.412
   307.2,0.037639,0.020529,0.325957,-0.000205,  22.413
   307.4,0.037749,0.020588,0.326710,-0.000214,  22.415
   307.6,0.037843,0.020643,0.327601,-0.000140,  22.417
   307.8,0.037941,0.020704,0.328612,-0.000087,  22.421
   308.0,0.038040,0.020756,0.329473,-0.000061,  22.432
   308.2,0.038129,0.020797,0.330349,-0.000000,  22.431
   308.4,0.038205,0.020844,0.331219,0.000013,  22.444
   308.6,0.038275,0.020882,0.332092,0.000052,  22.447
   308.8,0.038327,0.020908,0.332911,0.000052,  22.447
   309.0,0.038354,0.020931,0.333732,0.000065,  22.440
   309.2,0.038372,0.020915,0.334393,0.000078,  22.436
   309.4,0.038338,0.020870,0.334958,0.000091,  22.427
   309.6,0.038271,0.020810,0.335433,0.000104,  22.427
   309.8,0.038186,0.020775,0.335809,0.000117,  22.425
   310.0,0.038137,0.020737,0.336306,0.000117,  22.422
   310.2,0.038085,0.020714,0.336811,0.000117,  22.417
   310.4,0.038042,0.020684,0.337309,0.000117,  22.422
   310.6,0.038063,0.020681,0.337436,0.000056,  22.423
   310.8,0.038115,0.020697,0.337366,0.000030,  22.418
   311.0,0.038207,0.020721,0.337094,-0.000009,  22.417
   311.2,0.038302,0.020770,0.336522,-0.000096,  22.420
   311.4,0.038409,0.020830,0.335719,-0.000127,  22.422
   311.6,0.038541,0.020910,0.334631,-0.000166,  22.421
   311.8,0.038654,0.020970,0.334728,-0.000253,  22.418
   312.0,0.038755,0.021039,0.335239,-0.000257,  22.422
   312.2,0.038853,0.021111,0.336172,-0.000244,  22.423
   312.4,0.038948,0.021164,0.336796,-0.000218,  22.418
   312.6,0.039034,0.021225,0.337490,-0.000144,  22.421
   312.8,0.039109,0.021274,0.338193,-0.000105,  22.428
   313.0,0.039173,0.021315,0.338975,-0.000100,  22.429
   313.2,0.039231,0.021366,0.339850,-0.000061,  22.434
   313.4,0.039283,0.021410,0.340764,-0.000035,  22.442
   313.6,0.039327,0.021443,0.341515,-0.000009,  22.449
   313.8,0.039366,0.021467,0.342139,0.000039,  22.450
   314.0,0.039413,0.021496,0.342755,0.000065,  22.443
   314.2,0.039449,0.021489,0.343453,0.000078,  22.440
   314.4,0.039428,0.021460,0.344123,0.000078,  22.431
   314.6,0.039373,0.021414,0.344794,0.000091,  22.428
   314.8,0.039284,0.021381,0.345381,0.000104,  22.426
   315.0,0.039235,0.021341,0.345875,0.000078,  22.421
   315.2,0.039186,0.021296,0.346313,0.000078,  22.423
   315.4,0.039137,0.021285,0.346457,0.000078,  22.420
   315.6,0.039146,0.021281,0.346342,0.000065,  22.415
   315.8,0.039183,0.021296,0.346062,0.000026,  22.419
   316.0,0.039244,0.021328,0.346049,-0.000026,  22.419
   316.2,0.039318,0.021379,0.346007,-0.000092,  22.418
   316.4,0.039416,0.021445,0.346029,-0.000131,  22.418
   316.6,0.039526,0.021501,0.346071,-0.000183,  22.415
   316.8,0.039621,0.021561,0.346111,-0.000222,  22.413
   317.0,0.039709,0.021628,0.346171,-0.000235,  22.413
   317.2,0.039801,0.021680,0.346515,-0.000222,  22.417
   317.4,0.039884,0.021724,0.346989,-0.000183,  22.419
   317.6,0.039954,0.021773,0.347559,-0.000144,  22.415
   317.8,0.040028,0.021816,0.347983,-0.000105,  22.423
   318.0,0.040099,0.021851,0.348450,-0.000066,  22.431
   318.2,0.040150,0.021892,0.348853,-0.000026,  22.432
   318.4,0.040212,0.021923,0.349270,-0.000000,  22.443
   318.6,0.040258,0.021949,0.349834,0.000026,  22.449
   318.8,0.040285,0.021971,0.350463,0.000052,  22.447
   319.0,0.040316,0.021974,0.351109,0.000065,  22.441
   319.2,0.040298,0.021965,0.351676,0.000078,  22.436
   319.4,0.040245,0.021942,0.352249,0.000091,  22.426
   319.6,0.040178,0.021914,0.352708,0.000104,  22.420
   319.8,0.040132,0.021880,0.353063,0.000117,  22.416
   320.0,0.040080,0.021845,0.353316,0.000104,  22.417
   320.2,0.040040,0.021801,0.353473,0.000104,  22.413
   320.4,0.040034,0.021781,0.353515,0.000104,  22.412
   320.6,0.040043,0.021771,0.353464,0.000091,  22.410
   320.8,0.040086,0.021759,0.353267,0.000052,  22.407
   321.0,0.040145,0.021776,0.353260,-0.000000,  22.405
   321.2,0.040224,0.021821,0.353312,-0.000079,  22.407
   321.4,0.040335,0.021883,0.353356,-0.000118,  22.407
   321.6,0.040428,0.021934,0.353177,-0.000183,  22.407
   321.8,0.040508,0.021988,0.352886,-0.000235,  22.405
   322.0,0.040588,0.022051,0.352483,-0.000222,  22.408
   322.2,0.040656,0.022098,0.352789,-0.000196,  22.406
   322.4,0.040707,0.022145,0.353376,-0.000157,  22.407
   322.6,0.040750,0.022183,0.354253,-0.000118,  22.405
   322.8,0.040784,0.022214,0.354751,-0.000066,  22.414
   323.0,0.040837,0.022252,0.355174,-0.000040,  22.428
   323.2,0.040889,0.022282,0.355581,-0.000013,  22.435
   323.4,0.040938,0.022307,0.356094,0.000013,  22.440
   323.6,0.040971,0.022326,0.356579,0.000026,  22.450
   323.8,0.041002,0.022342,0.357117,0.000052,  22.440
   324.0,0.041023,0.022344,0.357626,0.000052,  22.434
   324.2,0.041007,0.022331,0.358076,0.000065,  22.423
   324.4,0.040970,0.022311,0.358498,0.000078,  22.424
   324.6,0.040915,0.022286,0.358822,0.000069,  22.425
   324.8,0.040878,0.022250,0.359072,0.000069,  22.419
   325.0,0.040835,0.022213,0.359180,0.000069,  22.417
   325.2,0.040792,0.022186,0.359262,0.000047,  22.420
   325.4,0.040777,0.022161,0.359291,0.000069,  22.417
   325.6,0.040771,0.022148,0.359249,0.000030,  22.415
   325.8,0.040787,0.022164,0.359347,-0.000057,  22.414
   326.0,0.040827,0.022191,0.359504,-0.000100,  22.413
   326.2,0.040891,0.022240,0.359690,-0.000153,  22.415
   326.4,0.040974,0.022283,0.359904,-0.000214,  22.415
   326.6,0.041042,0.022325,0.360059,-0.000231,  22.410
   326.8,0.041103,0.022366,0.360233,-0.000270,  22.414
   327.0,0.041173,0.022404,0.360335,-0.000257,  22.413
   327.2,0.041235,0.022443,0.360431,-0.000244,  22.413
   327.4,0.041284,0.022482,0.360474,-0.000205,  22.413
   327.6,0.041336,0.022509,0.360487,-0.000166,  22.415
   327.8,0.041380,0.022532,0.360694,-0.000161,  22.422
   328.0,0.041420,0.022545,0.360954,-0.000087,  22.434
   328.2,0.041457,0.022557,0.361303,-0.000061,  22.438
   328.4,0.041485,0.022572,0.361646,-0.000035,  22.447
   328.6,0.041509,0.022592,0.361966,0.000026,  22.453
   328.8,0.041531,0.022607,0.362316,0.000052,  22.453
   329.0,0.041522,0.022602,0.362069,0.000030,  22.440
   329.2,0.041490,0.022597,0.361467,0.000043,  22.437
   329.4,0.041450,0.022585,0.360588,0.000056,  22.429
   329.6,0.041420,0.022559,0.360743,0.000082,  22.424
   329.8,0.041383,0.022525,0.361252,0.000104,  22.419
   330.0,0.041343,0.022486,0.362140,0.000104,  22.420
   330.2,0.041325,0.022460,0.362427,0.000117,  22.416
   330.4,0.041310,0.022438,0.362631,0.000104,  22.419
   330.6,0.041295,0.022412,0.362700,0.000065,  22.419
   330.8,0.041304,0.022411,0.362503,0.000013,  22.421
   331.0,0.041335,0.022431,0.362114,-0.000066,  22.419
   331.2,0.041365,0.022467,0.361500,-0.000118,  22.421
   331.4,0.041420,0.022496,0.361549,-0.000205,  22.418
   331.6,0.041463,0.022536,0.361823,-0.000257,  22.418
   331.8,0.041525,0.022582,0.362337,-0.000257,  22.418
   332.0,0.041589,0.022615,0.362676,-0.000279,  22.421
   332.2,0.041639,0.022650,0.363026,-0.000218,  22.428
   332.4,0.041685,0.022678,0.363356,-0.000192,  22.419
   332.6,0.041722,0.022707,0.363667,-0.000188,  22.423
   332.8,0.041759,0.022730,0.363938,-0.000114,  22.427
   333.0,0.041786,0.022752,0.364193,-0.000061,  22.437
   333.2,0.041811,0.022760,0.364488,-0.000070,  22.446
   333.4,0.041833,0.022774,0.364827,-0.000022,  22.451
   333.6,0.041848,0.022783,0.365165,0.000017,  22.457
   333.8,0.041857,0.022785,0.365368,-0.000005,  22.451
   334.0,0.041864,0.022787,0.365495,0.000030,  22.446
   334.2,0.041849,0.022789,0.365598,0.000043,  22.445
   334.4,0.041830,0.022772,0.365794,0.000034,  22.433
   334.6,0.041812,0.022741,0.365924,0.000069,  22.431
   334.8,0.041772,0.022697,0.366084,0.000082,  22.430
   335.0,0.041719,0.022667,0.366184,0.000095,  22.427
   335.2,0.041688,0.022647,0.366247,0.000095,  22.425
   335.4,0.041657,0.022620,0.366263,0.000130,  22.428
   335.6,0.041638,0.022615,0.366353,0.000104,  22.423
   335.8,0.041644,0.022627,0.366457,0.000052,  22.427
   336.0,0.041671,0.022650,0.366544,-0.000013,  22.425
   336.2,0.041728,0.022667,0.366730,-0.000053,  22.425
   336.4,0.041765,0.022701,0.366917,-0.000140,  22.427
   336.6,0.041801,0.022736,0.367194,-0.000205,  22.425
   336.8,0.041851,0.022760,0.367435,-0.000218,  22.424
   337.0,0.041887,0.022776,0.367068,-0.000253,  22.431
   337.2,0.041912,0.022792,0.366464,-0.000205,  22.424
   337.4,0.041939,0.022808,0.365612,-0.000179,  22.429
   337.6,0.041961,0.022816,0.365542,-0.000174,  22.427
   337.8,0.041976,0.022829,0.365672,-0.000087,  22.435
   338.0,0.041989,0.022842,0.366044,-0.000061,  22.440
   338.2,0.041998,0.022848,0.366334,-0.000070,  22.456
   338.4,0.041995,0.022852,0.366641,-0.000009,  22.460
   338.6,0.041995,0.022866,0.367001,0.000017,  22.460
   338.8,0.041992,0.022868,0.367208,-0.000005,  22.458
   339.0,0.041989,0.022871,0.367301,0.000043,  22.448
   339.2,0.041980,0.022868,0.367331,0.000056,  22.445
   339.4,0.041961,0.022851,0.367348,0.000034,  22.442
   339.6,0.041936,0.022823,0.367341,0.000056,  22.435
   339.8,0.041912,0.022783,0.367258,0.000069,  22.436
   340.0,0.041881,0.022754,0.367198,0.000034,  22.433
   340.2,0.041847,0.022731,0.367138,0.000082,  22.433
   340.4,0.041826,0.022701,0.367061,0.000056,  22.436
   340.6,0.041802,0.022682,0.367151,-0.000018,  22.432
   340.8,0.041802,0.022687,0.367331,-0.000048,  22.437
   341.0,0.041808,0.022694,0.367519,-0.000087,  22.433
   341.2,0.041829,0.022705,0.367943,-0.000161,  22.434
   341.4,0.041854,0.022725,0.368452,-0.000192,  22.435
   341.6,0.041879,0.022754,0.369099,-0.000218,  22.434
   341.8,0.041910,0.022772,0.369076,-0.000253,  22.441
   342.0,0.041934,0.022787,0.368801,-0.000218,  22.441
   342.2,0.041949,0.022808,0.368191,-0.000205,  22.444
   342.4,0.041958,0.022820,0.367987,-0.000201,  22.443
   342.6,0.041970,0.022826,0.367873,-0.000114,  22.448
   342.8,0.041973,0.022842,0.367806,-0.000061,  22.447
   343.0,0.041967,0.022844,0.367763,-0.000070,  22.458
   343.2,0.041967,0.022839,0.367749,-0.000022,  22.465
   343.4,0.041964,0.022840,0.367789,0.000004,  22.469
   343.6,0.041958,0.022837,0.367706,-0.000018,  22.473
   343.8,0.041952,0.022831,0.367569,0.000043,  22.469
   344.0,0.041946,0.022832,0.367331,0.000043,  22.462
   344.2,0.041943,0.022811,0.367188,0.000056,  22.455
   344.4,0.041922,0.022773,0.367074,0.000056,  22.457
   344.6,0.041884,0.022737,0.366924,0.000069,  22.454
   344.8,0.041841,0.022712,0.366804,0.000069,  22.452
   345.0,0.041814,0.022693,0.366630,0.000082,  22.452
   345.2,0.041782,0.022680,0.366404,0.000104,  22.450
   345.4,0.041758,0.022667,0.366160,0.000091,  22.449
   345.6,0.041746,0.022656,0.365937,0.000052,  22.450
   345.8,0.041740,0.022652,0.365691,-0.000000,  22.446
   346.0,0.041746,0.022647,0.365442,-0.000040,  22.448
   346.2,0.041756,0.022644,0.365795,-0.000092,  22.452
   346.4,0.041771,0.022662,0.366437,-0.000144,  22.450
   346.6,0.041793,0.022684,0.367362,-0.000170,  22.446
   346.8,0.041808,0.022696,0.367562,-0.000183,  22.448
   347.0,0.041817,0.022707,0.367522,-0.000196,  22.446
   347.2,0.041823,0.022723,0.367255,-0.000170,  22.444
   347.4,0.041823,0.022730,0.367098,-0.000144,  22.447
   347.6,0.041817,0.022734,0.366834,-0.000105,  22.443
   347.8,0.041808,0.022738,0.366477,-0.000053,  22.451
   348.0,0.041799,0.022733,0.366297,-0.000061,  22.460
   348.2,0.041789,0.022728,0.366117,-0.000035,  22.464
   348.4,0.041780,0.022725,0.365967,0.000004,  22.466
   348.6,0.041768,0.022725,0.365269,-0.000005,  22.472
   348.8,0.041755,0.022723,0.364313,0.000043,  22.471
   349.0,0.041753,0.022718,0.363087,0.000069,  22.460
   349.2,0.041746,0.022701,0.362902,0.000047,  22.452
   349.4,0.041725,0.022673,0.363066,0.000082,  22.453
   349.6,0.041691,0.022631,0.363564,0.000095,  22.446
   349.8,0.041651,0.022603,0.363514,0.000060,  22.440
   350.0,0.041626,0.022583,0.363379,0.000095,  22.438
   350.2,0.041595,0.022563,0.363068,0.000082,  22.434
   350.4,0.041570,0.022542,0.362689,0.000021,  22.432
   350.6,0.041549,0.022528,0.362212,0.000017,  22.432
   350.8,0.041524,0.022514,0.361633,-0.000022,  22.429
   351.0,0.041509,0.022514,0.362088,-0.000109,  22.428
   351.2,0.041509,0.022517,0.363011,-0.000140,  22.434
   351.4,0.041511,0.022540,0.364397,-0.000166,  22.429
   351.6,0.041530,0.022549,0.364801,-0.000240,  22.430
   351.8,0.041533,0.022556,0.364943,-0.000218,  22.426
   352.0,0.041530,0.022572,0.364764,-0.000231,  22.423
   352.2,0.041533,0.022575,0.364641,-0.000205,  22.426
   352.4,0.041524,0.022570,0.364388,-0.000179,  22.423
   352.6,0.041499,0.022568,0.364037,-0.000140,  22.431
   352.8,0.041484,0.022564,0.363897,-0.000087,  22.431
   353.0,0.041463,0.022548,0.363781,-0.000083,  22.442
   353.2,0.041431,0.022535,0.363738,-0.000022,  22.453
   353.4,0.041404,0.022528,0.363681,0.000017,  22.460
   353.6,0.041388,0.022524,0.363436,-0.000005,  22.460
   353.8,0.041373,0.022512,0.363122,0.000030,  22.460
   354.0,0.041367,0.022507,0.362778,0.000043,  22.448
   354.2,0.041343,0.022484,0.362444,0.000021,  22.445
   354.4,0.041302,0.022458,0.362087,0.000056,  22.434
   354.6,0.041269,0.022429,0.361701,0.000056,  22.432
   354.8,0.041244,0.022407,0.361368,0.000034,  22.430
   355.0,0.041213,0.022387,0.361072,0.000069,  22.423
   355.2,0.041201,0.022366,0.360812,0.000056,  22.426
   355.4,0.041173,0.022340,0.360782,0.000008,  22.422
   355.6,0.041133,0.022313,0.360884,0.000017,  22.422
   355.8,0.041103,0.022284,0.361142,-0.000022,  22.421
   356.0,0.041087,0.022273,0.361520,-0.000122,  22.419
   356.2,0.041071,0.022270,0.362012,-0.000153,  22.420
   356.4,0.041081,0.022279,0.362593,-0.000179,  22.417
   356.6,0.041075,0.022286,0.362623,-0.000266,  22.419
   356.8,0.041065,0.022291,0.362421,-0.000270,  22.417
   357.0,0.041063,0.022297,0.361995,-0.000257,  22.418
   357.2,0.041060,0.022299,0.361669,-0.000253,  22.420
   357.4,0.041041,0.022297,0.361210,-0.000166,  22.419
   357.6,0.041019,0.022288,0.360707,-0.000127,  22.420
   357.8,0.041001,0.022279,0.360345,-0.000122,  22.431
   358.0,0.040971,0.022268,0.359983,-0.000061,  22.438
   358.2,0.040940,0.022248,0.359651,-0.000035,  22.444
   358.4,0.040907,0.022235,0.359267,-0.000022,  22.457
   358.6,0.040882,0.022224,0.358868,0.000026,  22.456
   358.8,0.040857,0.022208,0.358446,0.000052,  22.449
   359.0,0.040838,0.022190,0.358004,0.000030,  22.442
   359.2,0.040814,0.022172,0.357556,0.000043,  22.434
   359.4,0.040779,0.022150,0.357086,0.000056,  22.425
   359.6,0.040752,0.022134,0.356704,0.000047,  22.424
   359.8,0.040731,0.022114,0.356294,0.000069,  22.422
   360.0,0.040712,0.022100,0.355890,0.000069,  22.422
   360.2,0.040704,0.022071,0.355838,0.000021,  22.419
   360.4,0.040670,0.022033,0.355933,0.000030,  22.420
   360.6,0.040630,0.021998,0.356187,0.000004,  22.418
   360.8,0.040581,0.021979,0.356584,-0.000070,  22.417
   361.0,0.040556,0.021972,0.357093,-0.000074,  22.420
   361.2,0.040534,0.021976,0.357765,-0.000140,  22.421
   361.4,0.040528,0.021974,0.357912,-0.000192,  22.418
   361.6,0.040513,0.021979,0.357860,-0.000231,  22.424
   361.8,0.040488,0.021976,0.357651,-0.000283,  22.417
   362.0,0.040469,0.021977,0.357214,-0.000270,  22.419
   362.2,0.040448,0.021972,0.356855,-0.000266,  22.422
   362.4,0.040420,0.021966,0.356343,-0.000192,  22.418
   362.6,0.040386,0.021957,0.355773,-0.000153,  22.423
   362.8,0.040350,0.021946,0.355305,-0.000135,  22.432
   363.0,0.040316,0.021926,0.354815,-0.000074,  22.441
   363.2,0.040277,0.021901,0.354316,-0.000048,  22.446
   363.4,0.040243,0.021880,0.353804,-0.000057,  22.456
   363.6,0.040209,0.021869,0.353294,-0.000009,  22.452
   363.8,0.040181,0.021852,0.352725,0.000017,  22.448
   364.0,0.040157,0.021831,0.352180,-0.000018,  22.438
   364.2,0.040123,0.021821,0.351613,0.000030,  22.430
   364.4,0.040095,0.021803,0.351069,0.000043,  22.424
   364.6,0.040080,0.021785,0.350651,0.000021,  22.420
   364.8,0.040067,0.021773,0.350255,0.000056,  22.419
   365.0,0.040058,0.021762,0.349917,0.000056,  22.413
   365.2,0.040034,0.021733,0.349868,0.000021,  22.415
   365.4,0.040003,0.021696,0.349999,0.000043,  22.411
   365.6,0.039967,0.021656,0.350310,0.000004,  22.409
   365.8,0.039918,0.021636,0.350650,-0.000083,  22.407
   366.0,0.039880,0.021617,0.351078,-0.000127,  22.411
   366.2,0.039859,0.021610,0.351635,-0.000166,  22.410
   366.4,0.039838,0.021598,0.351780,-0.000266,  22.409
   366.6,0.039824,0.021593,0.351774,-0.000270,  22.407
   366.8,0.039799,0.021594,0.351577,-0.000257,  22.412
   367.0,0.039778,0.021582,0.351290,-0.000266,  22.411
   367.2,0.039757,0.021576,0.350873,-0.000192,  22.412
   367.4,0.039720,0.021563,0.350305,-0.000153,  22.411
   367.6,0.039674,0.021540,0.349763,-0.000135,  22.417
   367.8,0.039624,0.021520,0.349090,-0.000074,  22.423
   368.0,0.039571,0.021493,0.348330,-0.000048,  22.440
   368.2,0.039519,0.021471,0.347667,-0.000057,  22.442
   368.4,0.039473,0.021452,0.346989,-0.000009,  22.454
   368.6,0.039432,0.021437,0.346313,0.000017,  22.453
   368.8,0.039409,0.021423,0.345690,-0.000005,  22.441
   369.0,0.039384,0.021405,0.345083,0.000043,  22.435
   369.2,0.039356,0.021400,0.344498,0.000056,  22.433
   369.4,0.039345,0.021390,0.344000,0.000034,  22.426
   369.6,0.039329,0.021374,0.343560,0.000069,  22.423
   369.8,0.039313,0.021357,0.343141,0.000069,  22.425
   370.0,0.039311,0.021326,0.342799,0.000082,  22.417
   370.2,0.039274,0.021293,0.342491,0.000069,  22.419
   370.4,0.039215,0.021248,0.342202,0.000069,  22.419
   370.6,0.039155,0.021223,0.341942,0.000030,  22.419
   370.8,0.039115,0.021203,0.342326,-0.000035,  22.417
   371.0,0.039072,0.021193,0.342961,-0.000092,  22.414
   371.2,0.039042,0.021184,0.343890,-0.000144,  22.414
   371.4,0.039008,0.021172,0.344017,-0.000196,  22.411
   371.6,0.038974,0.021165,0.343843,-0.000248,  22.414
   371.8,0.038953,0.021158,0.343410,-0.000248,  22.415
   372.0,0.038919,0.021144,0.342847,-0.000222,  22.417
   372.2,0.038882,0.021135,0.342073,-0.000183,  22.414
   372.4,0.038849,0.021120,0.341101,-0.000144,  22.420
   372.6,0.038807,0.021100,0.340060,-0.000140,  22.424
   372.8,0.038745,0.021075,0.338929,-0.000087,  22.434
   373.0,0.038684,0.021053,0.337652,-0.000048,  22.439
   373.2,0.038635,0.021028,0.337269,-0.000022,  22.443
   373.4,0.038582,0.020999,0.337288,0.000026,  22.455
   373.6,0.038540,0.020973,0.337611,0.000052,  22.451
   373.8,0.038513,0.020958,0.337369,0.000065,  22.447
   374.0,0.038487,0.020951,0.337042,0.000078,  22.437
   374.2,0.038488,0.020950,0.336567,0.000091,  22.431
   374.4,0.038479,0.020938,0.336219,0.000117,  22.427
   374.6,0.038463,0.020918,0.335787,0.000104,  22.422
   374.8,0.038470,0.020902,0.335369,0.000104,  22.419
   375.0,0.038467,0.020875,0.335131,0.000117,  22.417
   375.2,0.038420,0.020837,0.334907,0.000104,  22.418
   375.4,0.038365,0.020800,0.334765,0.000065,  22.421
   375.6,0.038305,0.020773,0.335016,0.000013,  22.418
   375.8,0.038256,0.020744,0.335421,-0.000066,  22.419
   376.0,0.038213,0.020724,0.336079,-0.000118,  22.419
   376.2,0.038177,0.020709,0.336429,-0.000170,  22.417
   376.4,0.038140,0.020701,0.336731,-0.000222,  22.420
   376.6,0.038107,0.020688,0.336955,-0.000209,  22.420
   376.8,0.038073,0.020666,0.336661,-0.000183,  22.421
   377.0,0.038034,0.020652,0.336060,-0.000157,  22.417
   377.2,0.037985,0.020629,0.335159,-0.000118,  22.418
   377.4,0.037933,0.020603,0.334489,-0.000100,  22.419
   377.6,0.037878,0.020569,0.333779,-0.000074,  22.425
   377.8,0.037811,0.020541,0.333013,-0.000048,  22.432
   378.0,0.037741,0.020510,0.332410,-0.000044,  22.447
   378.2,0.037689,0.020483,0.331857,0.000004,  22.451
   378.4,0.037631,0.020451,0.331380,0.000017,  22.455
   378.6,0.037573,0.020431,0.330716,0.000043,  22.453
   378.8,0.037546,0.020422,0.329929,0.000056,  22.443
   379.0,0.037527,0.020422,0.329053,0.000056,  22.435
   379.2,0.037517,0.020409,0.328448,0.000069,  22.433
   379.4,0.037501,0.020386,0.327981,0.000082,  22.425
   379.6,0.037486,0.020366,0.327521,0.000104,  22.429
   379.8,0.037490,0.020346,0.327179,0.000117,  22.423
   380.0,0.037453,0.020322,0.326974,0.000130,  22.418
   380.2,0.037392,0.020294,0.326844,0.000130,  22.423
   380.4,0.037325,0.020263,0.326824,0.000104,  22.418
   380.6,0.037273,0.020227,0.327016,0.000052,  22.414
   380.8,0.037209,0.020194,0.327351,-0.000040,  22.413
   381.0,0.037151,0.020162,0.327810,-0.000092,  22.413
   381.2,0.037105,0.020135,0.328098,-0.000131,  22.409
   381.4,0.037060,0.020120,0.328393,-0.000196,  22.412
   381.6,0.037027,0.020109,0.328613,-0.000196,  22.410
   381.8,0.036984,0.020092,0.328269,-0.000196,  22.410
   382.0,0.036919,0.020072,0.327652,-0.000170,  22.411
   382.2,0.036870,0.020057,0.326720,-0.000144,  22.411
   382.4,0.036812,0.020030,0.325996,-0.000105,  22.412
   382.6,0.036745,0.019998,0.325265,-0.000044,  22.417
   382.8,0.036686,0.019962,0.324480,-0.000005,  22.423
   383.0,0.036631,0.019933,0.323445,-0.000048,  22.432
   383.2,0.036576,0.019900,0.322209,-0.000009,  22.444
   383.4,0.036543,0.019874,0.320815,0.000030,  22.450
   383.6,0.036503,0.019856,0.319440,0.000008,  22.445
   383.8,0.036472,0.019838,0.317948,0.000056,  22.440
   384.0,0.036460,0.019827,0.316376,0.000082,  22.428
   384.2,0.036461,0.019809,0.315822,0.000047,  22.424
   384.4,0.036448,0.019787,0.315676,0.000082,  22.424
   384.6,0.036426,0.019770,0.315942,0.000095,  22.419
   384.8,0.036414,0.019750,0.315962,0.000060,  22.418
   385.0,0.036377,0.019722,0.316082,0.000095,  22.413
   385.2,0.036325,0.019688,0.316196,0.000069,  22.412
   385.4,0.036275,0.019654,0.315171,0.000017,  22.415
   385.6,0.036220,0.019618,0.313645,-0.000026,  22.415
   385.8,0.036150,0.019580,0.311495,-0.000079,  22.410
   386.0,0.036090,0.019549,0.311978,-0.000131,  22.413
   386.2,0.036038,0.019530,0.313460,-0.000183,  22.410
   386.4,0.035980,0.019517,0.315965,-0.000196,  22.406
   386.6,0.035941,0.019492,0.316436,-0.000209,  22.405
   386.8,0.035889,0.019471,0.316402,-0.000196,  22.408
   387.0,0.035831,0.019446,0.315866,-0.000183,  22.405
   387.2,0.035780,0.019416,0.315592,-0.000157,  22.406
   387.4,0.035716,0.019385,0.315185,-0.000118,  22.411
   387.6,0.035642,0.019355,0.314692,-0.000066,  22.408
   387.8,0.035573,0.019324,0.314052,-0.000026,  22.422
   388.0,0.035506,0.019288,0.313507,-0.000000,  22.436
   388.2,0.035433,0.019247,0.312917,0.000013,  22.440
   388.4,0.035363,0.019227,0.312281,0.000052,  22.442
   388.6,0.035327,0.019211,0.311428,0.000065,  22.438
   388.8,0.035309,0.019202,0.310426,0.000065,  22.430
   389.0,0.035306,0.019197,0.309275,0.000078,  22.425
   389.2,0.035291,0.019179,0.308553,0.000104,  22.416
   389.4,0.035266,0.019158,0.307930,0.000104,  22.409
   389.6,0.035258,0.019132,0.307411,0.000104,  22.403
   389.8,0.035228,0.019105,0.307012,0.000117,  22.402
   390.0,0.035183,0.019076,0.306692,0.000104,  22.397
   390.2,0.035132,0.019055,0.306450,0.000091,  22.398
   390.4,0.035075,0.019024,0.306612,0.000052,  22.401
   390.6,0.035012,0.018981,0.307011,-0.000000,  22.395
   390.8,0.034933,0.018943,0.307652,-0.000040,  22.395
   391.0,0.034872,0.018914,0.308131,-0.000127,  22.393
   391.2,0.034823,0.018888,0.308617,-0.000192,  22.395
   391.4,0.034778,0.018873,0.309143,-0.000218,  22.388
   391.6,0.034732,0.018849,0.308913,-0.000253,  22.393
   391.8,0.034686,0.018820,0.308342,-0.000231,  22.391
   392.0,0.034647,0.018802,0.307346,-0.000205,  22.387
   392.2,0.034610,0.018774,0.306054,-0.000214,  22.388
   392.4,0.034546,0.018735,0.304435,-0.000127,  22.395
   392.6,0.034467,0.018707,0.302463,-0.000087,  22.396
   392.8,0.034388,0.018672,0.301687,-0.000096,  22.404
   393.0,0.034312,0.018632,0.301266,-0.000048,  22.417
   393.2,0.034242,0.018595,0.301268,-0.000022,  22.425
   393.4,0.034177,0.018571,0.300757,-0.000031,  22.430
   393.6,0.034131,0.018546,0.300182,0.000004,  22.429
   393.8,0.034097,0.018529,0.299512,0.000030,  22.420
   394.0,0.034082,0.018500,0.298760,0.000008,  22.406
   394.2,0.034058,0.018478,0.297921,0.000043,  22.403
   394.4,0.034027,0.018451,0.296949,0.000056,  22.398
   394.6,0.034016,0.018428,0.296405,0.000034,  22.394
   394.8,0.033992,0.018401,0.296052,0.000056,  22.387
   395.0,0.033952,0.018385,0.295832,0.000043,  22.390
   395.2,0.033915,0.018355,0.295907,-0.000018,  22.391
   395.4,0.033861,0.018316,0.296251,-0.000022,  22.391
   395.6,0.033791,0.018271,0.296813,-0.000061,  22.382
   395.8,0.033716,0.018240,0.297306,-0.000087,  22.387
   396.0,0.033656,0.018220,0.297883,-0.000127,  22.384
   396.2,0.033596,0.018199,0.298473,-0.000144,  22.383
   396.4,0.033548,0.018172,0.298320,-0.000170,  22.387
   396.6,0.033490,0.018147,0.297826,-0.000196,  22.383
   396.8,0.033429,0.018130,0.296956,-0.000209,  22.383
   397.0,0.033368,0.018101,0.296387,-0.000183,  22.384
   397.2,0.033302,0.018062,0.295812,-0.000157,  22.386
   397.4,0.033232,0.018036,0.295193,-0.000105,  22.391
   397.6,0.033167,0.018007,0.294563,-0.000066,  22.394
   397.8,0.033094,0.017976,0.293775,-0.000026,  22.405
   398.0,0.033019,0.017950,0.292919,-0.000013,  22.416
   398.2,0.032944,0.017921,0.291978,0.000013,  22.421
   398.4,0.032902,0.017887,0.291063,0.000039,  22.430
   398.6,0.032863,0.017866,0.290139,0.000052,  22.423
   398.8,0.032836,0.017842,0.289148,0.000065,  22.415
   399.0,0.032812,0.017820,0.288296,0.000078,  22.400
   399.2,0.032788,0.017793,0.287474,0.000091,  22.399
   399.4,0.032760,0.017771,0.286691,0.000117,  22.397
   399.6,0.032726,0.017753,0.286079,0.000117,  22.395
   399.8,0.032699,0.017733,0.285535,0.000117,  22.390
   400.0,0.032673,0.017718,0.285067,0.000104,  22.391
   400.2,0.032630,0.017688,0.285090,0.000078,  22.392
   400.4,0.032572,0.017646,0.285407,0.000052,  22.391
   400.6,0.032522,0.017596,0.285998,0.000013,  22.390
   400.8,0.032449,0.017565,0.286491,-0.000074,  22.393
   401.0,0.032385,0.017536,0.287047,-0.000140,  22.391
   401.2,0.032321,0.017509,0.287711,-0.000166,  22.389
   401.4,0.032268,0.017482,0.287574,-0.000240,  22.390
   401.6,0.032211,0.017455,0.287076,-0.000257,  22.396
   401.8,0.032150,0.017433,0.286185,-0.000244,  22.396
   402.0,0.032096,0.017405,0.285167,-0.000240,  22.393
   402.2,0.032037,0.017374,0.283868,-0.000166,  22.394
   402.4,0.031964,0.017336,0.282289,-0.000127,  22.396
   402.6,0.031893,0.017301,0.281419,-0.000122,  22.401
   402.8,0.031827,0.017264,0.280787,-0.000074,  22.414
   403.0,0.031748,0.017223,0.280331,-0.000048,  22.416
   403.2,0.031669,0.017195,0.279676,-0.000057,  22.426
   403.4,0.031608,0.017164,0.279029,-0.000009,  22.426
   403.6,0.031556,0.017132,0.278365,0.000017,  22.421
   403.8,0.031527,0.017108,0.277550,-0.000018,  22.422
   404.0,0.031494,0.017085,0.276635,0.000030,  22.414
   404.2,0.031461,0.017070,0.275596,0.000043,  22.405
   404.4,0.031446,0.017052,0.274615,0.000021,  22.406
   404.6,0.031428,0.017038,0.273577,0.000043,  22.402
   404.8,0.031400,0.017037,0.272490,0.000043,  22.403
   405.0,0.031386,0.017008,0.272445,-0.000005,  22.399
   405.2,0.031335,0.016964,0.272875,0.000030,  22.399
   405.4,0.031266,0.016910,0.273770,0.000004,  22.400
   405.6,0.031182,0.016880,0.274235,-0.000022,  22.401
   405.8,0.031129,0.016851,0.274708,-0.000087,  22.405
   406.0,0.031069,0.016822,0.275145,-0.000118,  22.403
   406.2,0.031009,0.016798,0.275596,-0.000157,  22.406
   406.4,0.030959,0.016778,0.275607,-0.000231,  22.409
   406.6,0.030905,0.016761,0.275424,-0.000283,  22.402
   406.8,0.030838,0.016748,0.275063,-0.000270,  22.407
   407.0,0.030768,0.016720,0.274400,-0.000266,  22.407
   407.2,0.030696,0.016684,0.273485,-0.000192,  22.408
   407.4,0.030621,0.016656,0.272320,-0.000153,  22.411
   407.6,0.030539,0.016623,0.271434,-0.000135,  22.417
   407.8,0.030464,0.016582,0.270549,-0.000074,  22.422
   408.0,0.030387,0.016540,0.269673,-0.000048,  22.431
   408.2,0.030324,0.016505,0.268875,-0.000044,  22.438
   408.4,0.030266,0.016475,0.268112,0.000004,  22.437
   408.6,0.030218,0.016442,0.267368,0.000030,  22.436
   408.8,0.030185,0.016425,0.266438,0.000008,  22.432
   409.0,0.030155,0.016405,0.265458,0.000043,  22.423
   409.2,0.030146,0.016394,0.264429,0.000056,  22.424
   409.4,0.030128,0.016381,0.263674,0.000069,  22.421
   409.6,0.030110,0.016367,0.263038,0.000078,  22.416
   409.8,0.030101,0.016351,0.262509,0.000078,  22.417
   410.0,0.030095,0.016313,0.262401,0.000078,  22.417
   410.2,0.030044,0.016269,0.262512,0.000065,  22.415
   410.4,0.029978,0.016224,0.262873,0.000026,  22.413
   410.6,0.029900,0.016191,0.263211,-0.000026,  22.415
   410.8,0.029838,0.016153,0.263691,-0.000105,  22.417
   411.0,0.029765,0.016122,0.264243,-0.000157,  22.415
   411.2,0.029709,0.016095,0.264297,-0.000196,  22.416
   411.4,0.029649,0.016071,0.264169,-0.000248,  22.416
   411.6,0.029586,0.016045,0.263820,-0.000235,  22.413
   411.8,0.029530,0.016017,0.263197,-0.000196,  22.415
   412.0,0.029464,0.015986,0.262323,-0.000157,  22.413
   412.2,0.029388,0.015952,0.261208,-0.000118,  22.413
   412.4,0.029317,0.015915,0.260284,-0.000100,  22.415
   412.6,0.029239,0.015868,0.259381,-0.000074,  22.417
   412.8,0.029148,0.015820,0.258451,-0.000048,  22.427
   413.0,0.029068,0.015777,0.257539,-0.000044,  22.437
   413.2,0.029003,0.015739,0.256659,0.000004,  22.436
   413.4,0.028933,0.015711,0.255811,0.000030,  22.443
   413.6,0.028886,0.015686,0.254985,0.000008,  22.437
   413.8,0.028850,0.015668,0.254163,0.000043,  22.430
   414.0,0.028826,0.015669,0.253372,0.000056,  22.427
   414.2,0.028821,0.015656,0.252540,0.000021,  22.426
   414.4,0.028806,0.015641,0.251723,0.000056,  22.422
   414.6,0.028794,0.015636,0.250898,0.000043,  22.417
   414.8,0.028785,0.015603,0.250520,0.000043,  22.416
   415.0,0.028737,0.015562,0.250396,0.000043,  22.414
   415.2,0.028669,0.015509,0.250432,0.000043,  22.413
   415.4,0.028585,0.015464,0.250705,0.000004,  22.417
   415.6,0.028519,0.015423,0.250981,-0.000083,  22.416
   415.8,0.028444,0.015385,0.251402,-0.000127,  22.409
   416.0,0.028375,0.015354,0.251961,-0.000179,  22.407
   416.2,0.028312,0.015334,0.251706,-0.000266,  22.403
   416.4,0.028239,0.015305,0.251099,-0.000283,  22.406
   416.6,0.028180,0.015297,0.250121,-0.000283,  22.407
   416.8,0.028117,0.015269,0.249564,-0.000292,  22.399
   417.0,0.028054,0.015241,0.249069,-0.000218,  22.396
   417.2,0.027989,0.015215,0.248550,-0.000192,  22.399
   417.4,0.027918,0.015183,0.247893,-0.000188,  22.403
   417.6,0.027837,0.015146,0.247175,-0.000100,  22.405
   417.8,0.027754,0.015102,0.246374,-0.000061,  22.411
   418.0,0.027685,0.015059,0.245659,-0.000070,  22.424
   418.2,0.027617,0.015022,0.244935,-0.000022,  22.431
   418.4,0.027551,0.014983,0.244206,0.000004,  22.428
   418.6,0.027515,0.014959,0.243108,0.000017,  22.421
   418.8,0.027497,0.014948,0.241851,0.000052,  22.414
   419.0,0.027494,0.014949,0.240407,0.000065,  22.396
   419.2,0.027480,0.014936,0.239616,0.000078,  22.396
   419.4,0.027471,0.014913,0.239083,0.000078,  22.391
   419.6,0.027468,0.014893,0.238773,0.000091,  22.389
   419.8,0.027462,0.014859,0.238621,0.000104,  22.380
   420.0,0.027405,0.014824,0.238639,0.000091,  22.375
   420.2,0.027340,0.014780,0.238836,0.000052,  22.368
   420.4,0.027259,0.014743,0.239129,-0.000000,  22.373
   420.6,0.027197,0.014704,0.239503,-0.000066,  22.375
   420.8,0.027128,0.014667,0.239996,-0.000118,  22.370
   421.0,0.027057,0.014636,0.240259,-0.000183,  22.372
   421.2,0.026994,0.014608,0.240452,-0.000235,  22.374
   421.4,0.026935,0.014589,0.240548,-0.000235,  22.367
   421.6,0.026872,0.014565,0.240061,-0.000222,  22.369
   421.8,0.026810,0.014531,0.239245,-0.000183,  22.371
   422.0,0.026740,0.014509,0.238051,-0.000192,  22.364
   422.2,0.026675,0.014473,0.237219,-0.000153,  22.366
   422.4,0.026601,0.014429,0.236360,-0.000135,  22.366
   422.6,0.026523,0.014387,0.235496,-0.000096,  22.377
   422.8,0.026447,0.014343,0.234624,-0.000070,  22.384
   423.0,0.026373,0.014307,0.233768,-0.000022,  22.404
   423.2,0.026301,0.014271,0.232911,-0.000009,  22.406
   423.4,0.026237,0.014249,0.232082,0.000017,  22.404
   423.6,0.026198,0.014231,0.231270,0.000017,  22.396
   423.8,0.026171,0.014230,0.230503,0.000017,  22.389
   424.0,0.026171,0.014213,0.229801,0.000030,  22.375
   424.2,0.026157,0.014189,0.229188,0.000043,  22.369
   424.4,0.026140,0.014168,0.228561,0.000056,  22.365
   424.6,0.026140,0.014133,0.228028,0.000069,  22.368
   424.8,0.026095,0.014093,0.227642,0.000034,  22.360
   425.0,0.026032,0.014052,0.227322,0.000056,  22.360
   425.2,0.025947,0.014020,0.227089,0.000030,  22.361
   425.4,0.025878,0.013989,0.227213,-0.000022,  22.359
   425.6,0.025803,0.013959,0.227534,-0.000053,  22.360
   425.8,0.025722,0.013933,0.228072,-0.000105,  22.358
   426.0,0.025656,0.013904,0.228378,-0.000157,  22.357
   426.2,0.025600,0.013878,0.228653,-0.000222,  22.359
   426.4,0.025550,0.013853,0.228892,-0.000235,  22.361
   426.6,0.025491,0.013826,0.227974,-0.000235,  22.364
   426.8,0.025426,0.013792,0.226447,-0.000209,  22.361
   427.0,0.025367,0.013770,0.224330,-0.000170,  22.360
   427.2,0.025299,0.013737,0.223546,-0.000144,  22.360
   427.4,0.025215,0.013699,0.223099,-0.000092,  22.367
   427.6,0.025132,0.013662,0.223024,-0.000040,  22.374
   427.8,0.025058,0.013625,0.222423,-0.000026,  22.386
   428.0,0.024987,0.013586,0.221687,-0.000000,  22.398
   428.2,0.024913,0.013552,0.220899,0.000026,  22.401
   428.4,0.024871,0.013525,0.220222,0.000039,  22.401
   428.6,0.024845,0.013508,0.219540,0.000039,  22.392
   428.8,0.024836,0.013500,0.218858,0.000065,  22.383
   429.0,0.024815,0.013478,0.218127,0.000078,  22.373
   429.2,0.024800,0.013449,0.217376,0.000078,  22.370
   429.4,0.024785,0.013425,0.216618,0.000091,  22.364
   429.6,0.024777,0.013397,0.216101,0.000104,  22.367
   429.8,0.024735,0.013362,0.215698,0.000091,  22.362
   430.0,0.024679,0.013328,0.215421,0.000065,  22.359
   430.2,0.024614,0.013296,0.215449,0.000026,  22.356
   430.4,0.024552,0.013251,0.215682,-0.000040,  22.361
   430.6,0.024481,0.013208,0.216120,-0.000092,  22.361
   430.8,0.024404,0.013175,0.216445,-0.000131,  22.353
   431.0,0.024344,0.013144,0.216841,-0.000196,  22.360
   431.2,0.024282,0.013131,0.217280,-0.000209,  22.359
   431.4,0.024226,0.013104,0.217039,-0.000270,  22.355
   431.6,0.024167,0.013077,0.216431,-0.000270,  22.354
   431.8,0.024104,0.013053,0.215477,-0.000231,  22.352
   432.0,0.024042,0.013019,0.214679,-0.000205,  22.357
   432.2,0.023974,0.012989,0.213762,-0.000118,  22.356
   432.4,0.023906,0.012954,0.212707,-0.000092,  22.364
   432.6,0.023836,0.012914,0.211894,-0.000053,  22.372
   432.8,0.023765,0.012882,0.211082,-0.000040,  22.385
   433.0,0.023694,0.012849,0.210328,-0.000026,  22.395
   433.2,0.023617,0.012823,0.209512,-0.000000,  22.402
   433.4,0.023573,0.012806,0.208642,0.000013,  22.396
   433.6,0.023546,0.012794,0.207744,0.000039,  22.390
   433.8,0.023532,0.012770,0.207058,0.000065,  22.383
   434.0,0.023505,0.012738,0.206414,0.000043,  22.370
   434.2,0.023479,0.012708,0.205903,0.000043,  22.368
   434.4,0.023455,0.012679,0.205448,0.000056,  22.361
   434.6,0.023420,0.012650,0.204833,0.000034,  22.359
   434.8,0.023375,0.012623,0.204205,0.000056,  22.361
   435.0,0.023322,0.012597,0.203592,0.000043,  22.359
   435.2,0.023263,0.012569,0.203537,-0.000031,  22.356
   435.4,0.023201,0.012540,0.203763,-0.000035,  22.359
   435.6,0.023133,0.012517,0.204252,-0.000074,  22.355
   435.8,0.023074,0.012491,0.204638,-0.000174,  22.356
   436.0,0.023015,0.012464,0.205037,-0.000205,  22.357
   436.2,0.022969,0.012444,0.205554,-0.000231,  22.358
   436.4,0.022916,0.012419,0.205402,-0.000257,  22.360
   436.6,0.022856,0.012400,0.204927,-0.000235,  22.360
   436.8,0.022800,0.012377,0.204142,-0.000209,  22.359
   437.0,0.022738,0.012346,0.203399,-0.000183,  22.358
   437.2,0.022670,0.012317,0.202541,-0.000118,  22.360
   437.4,0.022601,0.012285,0.201520,-0.000079,  22.363
   437.6,0.022539,0.012245,0.200714,-0.000053,  22.376
   437.8,0.022476,0.012209,0.199929,-0.000026,  22.383
   438.0,0.022427,0.012176,0.199180,-0.000000,  22.393
   438.2,0.022377,0.012145,0.197901,-0.000009,  22.401
   438.4,0.022332,0.012119,0.196342,0.000004,  22.401
   438.6,0.022296,0.012101,0.194547,0.000030,  22.385
   438.8,0.022274,0.012077,0.193707,-0.000005,  22.380
   439.0,0.022244,0.012046,0.193184,0.000030,  22.373
   439.2,0.022208,0.012018,0.193030,0.000043,  22.373
   439.4,0.022182,0.011994,0.192622,0.000008,  22.367
   439.6,0.022143,0.011966,0.192233,0.000030,  22.367
   439.8,0.022105,0.011946,0.191899,0.000017,  22.360
   440.0,0.022058,0.011909,0.192140,-0.000031,  22.359
   440.2,0.022002,0.011872,0.192662,-0.000022,  22.362
   440.4,0.021931,0.011830,0.193495,-0.000061,  22.358
   440.6,0.021857,0.011802,0.194019,-0.000148,  22.360
   440.8,0.021798,0.011779,0.194504,-0.000179,  22.359
   441.0,0.021745,0.011757,0.194975,-0.000205,  22.357
   441.2,0.021699,0.011736,0.194888,-0.000279,  22.352
   441.4,0.021646,0.011719,0.194450,-0.000270,  22.353
   441.6,0.021590,0.011700,0.193730,-0.000270,  22.356
   441.8,0.021541,0.011676,0.193011,-0.000292,  22.353
   442.0,0.021482,0.011642,0.192120,-0.000218,  22.354
   442.2,0.021414,0.011609,0.191056,-0.000179,  22.351
   442.4,0.021350,0.011572,0.190302,-0.000140,  22.353
   442.6,0.021286,0.011535,0.189629,-0.000100,  22.362
   442.8,0.021208,0.011499,0.189017,-0.000074,  22.377
   443.0,0.021142,0.011473,0.188466,-0.000048,  22.385
   443.2,0.021095,0.011451,0.187643,-0.000022,  22.389
   443.4,0.021050,0.011430,0.186756,0.000026,  22.390
   443.6,0.021020,0.011423,0.185832,0.000052,  22.378
   443.8,0.020988,0.011396,0.185001,0.000017,  22.369
   444.0,0.020959,0.011373,0.184199,0.000030,  22.359
   444.2,0.020933,0.011350,0.183404,0.000043,  22.354
   444.4,0.020898,0.011321,0.182245,0.000021,  22.352
   444.6,0.020856,0.011298,0.180903,0.000056,  22.345
   444.8,0.020815,0.011277,0.179417,0.000043,  22.347
   445.0,0.020765,0.011244,0.179158,0.000030,  22.337
   445.2,0.020703,0.011210,0.179437,0.000039,  22.339
   445.4,0.020633,0.011171,0.180261,0.000013,  22.346
   445.6,0.020580,0.011147,0.180898,-0.000053,  22.339
   445.8,0.020530,0.011126,0.181700,-0.000118,  22.338
   446.0,0.020486,0.011106,0.182679,-0.000157,  22.335
   446.2,0.020445,0.011084,0.182901,-0.000196,  22.335
   446.4,0.020404,0.011062,0.182756,-0.000248,  22.327
   446.6,0.020366,0.011037,0.182329,-0.000235,  22.327
   446.8,0.020331,0.011011,0.181819,-0.000196,  22.330
   447.0,0.020275,0.010985,0.181061,-0.000144,  22.322
   447.2,0.020214,0.010954,0.180102,-0.000105,  22.323
   447.4,0.020147,0.010921,0.179328,-0.000100,  22.332
   447.6,0.020083,0.010892,0.178561,-0.000074,  22.344
   447.8,0.020009,0.010858,0.177783,-0.000048,  22.357
   448.0,0.019945,0.010830,0.176987,-0.000057,  22.367
   448.2,0.019895,0.010800,0.176186,-0.000022,  22.376
   448.4,0.019845,0.010776,0.175401,-0.000009,  22.370
   448.6,0.019811,0.010751,0.174609,-0.000031,  22.356
   448.8,0.019775,0.010729,0.173825,0.000017,  22.348
   449.0,0.019736,0.010709,0.173011,0.000030,  22.331
   449.2,0.019717,0.010684,0.172332,-0.000005,  22.326
   449.4,0.019685,0.010665,0.171731,0.000030,  22.323
   449.6,0.019643,0.010644,0.171200,0.000030,  22.320
   449.8,0.019617,0.010612,0.171066,-0.000005,  22.316
   450.0,0.019568,0.010575,0.171169,0.000017,  22.316
   450.2,0.019506,0.010532,0.171507,-0.000009,  22.313
   450.4,0.019443,0.010502,0.171858,-0.000083,  22.314
   450.6,0.019400,0.010478,0.172305,-0.000087,  22.313
   450.8,0.019354,0.010458,0.172855,-0.000153,  22.304
   451.0,0.019311,0.010437,0.172983,-0.000192,  22.311
   451.2,0.019267,0.010415,0.172893,-0.000231,  22.310
   451.4,0.019223,0.010395,0.172694,-0.000283,  22.309
   451.6,0.019166,0.010376,0.172291,-0.000270,  22.309
   451.8,0.019106,0.010356,0.171728,-0.000279,  22.311
   452.0,0.019047,0.010341,0.170955,-0.000205,  22.310
   452.2,0.018992,0.010329,0.170038,-0.000166,  22.316
   452.4,0.018924,0.010298,0.169268,-0.000161,  22.323
   452.6,0.018856,0.010263,0.168487,-0.000087,  22.333
   452.8,0.018803,0.010228,0.167715,-0.000061,  22.345
   453.0,0.018753,0.010198,0.166944,-0.000070,  22.359
   453.2,0.018697,0.010167,0.166194,-0.000022,  22.359
   453.4,0.018653,0.010144,0.165433,0.000004,  22.358
   453.6,0.018615,0.010125,0.164660,-0.000018,  22.343
   453.8,0.018576,0.010097,0.163913,0.000030,  22.333
   454.0,0.018551,0.010087,0.163097,0.000043,  22.321
   454.2,0.018521,0.010067,0.162458,0.000021,  22.320
   454.4,0.018488,0.010048,0.161901,0.000043,  22.315
   454.6,0.018462,0.010030,0.161387,0.000043,  22.311
   454.8,0.018427,0.009999,0.161224,0.000008,  22.310
   455.0,0.018389,0.009960,0.161287,0.000030,  22.310
   455.2,0.018349,0.009914,0.161525,-0.000009,  22.307
   455.4,0.018300,0.009885,0.161830,-0.000096,  22.309
   455.6,0.018249,0.009864,0.162266,-0.000140,  22.310
   455.8,0.018203,0.009843,0.162816,-0.000192,  22.305
   456.0,0.018166,0.009824,0.162841,-0.000266,  22.300
   456.2,0.018125,0.009808,0.162655,-0.000283,  22.308
   456.4,0.018071,0.009794,0.162276,-0.000270,  22.310
   456.6,0.018028,0.009774,0.161770,-0.000244,  22.310
   456.8,0.017981,0.009752,0.161052,-0.000170,  22.305
   457.0,0.017926,0.009724,0.160191,-0.000131,  22.310
   457.2,0.017870,0.009696,0.159488,-0.000127,  22.312
   457.4,0.017809,0.009662,0.158780,-0.000087,  22.323
   457.6,0.017749,0.009627,0.158048,-0.000061,  22.334
   457.8,0.017686,0.009598,0.157355,-0.000070,  22.348
   458.0,0.017630,0.009565,0.156632,-0.000009,  22.358
   458.2,0.017578,0.009544,0.155918,0.000004,  22.360
   458.4,0.017531,0.009525,0.155186,-0.000031,  22.360
   458.6,0.017496,0.009508,0.154430,0.000017,  22.347
   458.8,0.017467,0.009498,0.153645,0.000030,  22.338
   459.0,0.017441,0.009481,0.152966,-0.000005,  22.328
   459.2,0.017418,0.009463,0.152349,0.000043,  22.330
   459.4,0.017394,0.009439,0.151763,0.000043,  22.319
   459.6,0.017374,0.009406,0.151447,0.000043,  22.319
   459.8,0.017330,0.009367,0.151300,0.000043,  22.319
   460.0,0.017265,0.009313,0.151309,0.000043,  22.319
   460.2,0.017195,0.009282,0.151468,0.000004,  22.318
   460.4,0.017146,0.009261,0.151688,-0.000083,  22.316
   460.6,0.017097,0.009245,0.151999,-0.000140,  22.313
   460.8,0.017060,0.009225,0.152432,-0.000192,  22.313
   461.0,0.017016,0.009208,0.152314,-0.000244,  22.316
   461.2,0.016975,0.009195,0.151941,-0.000261,  22.310
   461.4,0.016932,0.009184,0.151346,-0.000261,  22.307
   461.6,0.016885,0.009164,0.150901,-0.000270,  22.305
   461.8,0.016832,0.009144,0.150394,-0.000218,  22.307
   462.0,0.016782,0.009124,0.149841,-0.000192,  22.308
   462.2,0.016727,0.009100,0.149257,-0.000188,  22.313
   462.4,0.016659,0.009074,0.148600,-0.000114,  22.318
   462.6,0.016605,0.009047,0.147886,-0.000061,  22.332
   462.8,0.016550,0.009019,0.147279,-0.000048,  22.340
   463.0,0.016491,0.008992,0.146716,-0.000000,  22.351
   463.2,0.016448,0.008965,0.146165,0.000026,  22.354
   463.4,0.016413,0.008948,0.145508,0.000039,  22.349
   463.6,0.016383,0.008937,0.144830,0.000074,  22.337
   463.8,0.016376,0.008926,0.144076,0.000100,  22.328
   464.0,0.016373,0.008899,0.143476,0.000065,  22.321
   464.2,0.016349,0.008877,0.142924,0.000065,  22.320
   464.4,0.016322,0.008848,0.142402,0.000078,  22.320
   464.6,0.016306,0.008813,0.142098,0.000091,  22.315
   464.8,0.016266,0.008772,0.141908,0.000078,  22.313
   465.0,0.016205,0.008728,0.141838,0.000039,  22.305
   465.2,0.016139,0.008698,0.141970,-0.000013,  22.306
   465.4,0.016093,0.008675,0.142257,-0.000092,  22.308
   465.6,0.016040,0.008652,0.142680,-0.000144,  22.304
   465.8,0.015986,0.008629,0.142812,-0.000231,  22.307
   466.0,0.015938,0.008616,0.142826,-0.000283,  22.303
   466.2,0.015898,0.008597,0.142756,-0.000283,  22.307
   466.4,0.015867,0.008582,0.142362,-0.000305,  22.305
   466.6,0.015823,0.008567,0.141771,-0.000244,  22.303
   466.8,0.015780,0.008555,0.140956,-0.000205,  22.303
   467.0,0.015743,0.008530,0.140383,-0.000214,  22.309
   467.2,0.015691,0.008502,0.139822,-0.000140,  22.311
   467.4,0.015636,0.008478,0.139272,-0.000100,  22.318
   467.6,0.015579,0.008452,0.138701,-0.000122,  22.332
   467.8,0.015529,0.008427,0.138102,-0.000061,  22.342
   468.0,0.015470,0.008404,0.137475,-0.000048,  22.350
   468.2,0.015418,0.008384,0.136820,-0.000022,  22.356
   468.4,0.015386,0.008367,0.136109,-0.000009,  22.350
   468.6,0.015357,0.008360,0.135359,0.000004,  22.337
   468.8,0.015349,0.008338,0.134802,0.000030,  22.328
   469.0,0.015326,0.008310,0.134292,-0.000005,  22.322
   469.2,0.015293,0.008283,0.133888,0.000030,  22.324
   469.4,0.015273,0.008255,0.133512,0.000043,  22.321
   469.6,0.015230,0.008221,0.133218,0.000021,  22.314
   469.8,0.015165,0.008189,0.133018,0.000043,  22.317
   470.0,0.015105,0.008160,0.132889,0.000004,  22.316
   470.2,0.015059,0.008131,0.132881,-0.000070,  22.313
   470.4,0.015006,0.008105,0.132928,-0.000114,  22.316
   470.6,0.014969,0.008087,0.133065,-0.000153,  22.317
   470.8,0.014933,0.008069,0.133275,-0.000253,  22.319
   471.0,0.014896,0.008056,0.133571,-0.000270,  22.318
   471.2,0.014873,0.008049,0.133930,-0.000270,  22.320
   471.4,0.014828,0.008036,0.133653,-0.000305,  22.321
   471.6,0.014784,0.008024,0.133092,-0.000244,  22.322
   471.8,0.014736,0.008010,0.132241,-0.000205,  22.327
   472.0,0.014683,0.007987,0.131594,-0.000179,  22.328
   472.2,0.014627,0.007963,0.130909,-0.000105,  22.331
   472.4,0.014572,0.007930,0.130155,-0.000066,  22.338
   472.6,0.014529,0.007901,0.129501,-0.000026,  22.348
   472.8,0.014488,0.007882,0.128840,-0.000013,  22.356
   473.0,0.014460,0.007856,0.128223,0.000013,  22.364
   473.2,0.014423,0.007838,0.127638,0.000039,  22.364
   473.4,0.014393,0.007827,0.127071,0.000039,  22.358
   473.6,0.014372,0.007820,0.126508,0.000065,  22.352
   473.8,0.014355,0.007793,0.125981,0.000043,  22.344
   474.0,0.014329,0.007768,0.125461,0.000043,  22.338
   474.2,0.014300,0.007739,0.124959,0.000056,  22.336
   474.4,0.014278,0.007704,0.124612,0.000056,  22.337
   474.6,0.014238,0.007666,0.124364,0.000065,  22.334
   474.8,0.014183,0.007634,0.124193,0.000039,  22.335
   475.0,0.014129,0.007608,0.124210,-0.000000,  22.332
   475.2,0.014085,0.007580,0.124384,-0.000053,  22.336
   475.4,0.014039,0.007565,0.124704,-0.000105,  22.333
   475.6,0.013999,0.007550,0.124934,-0.000144,  22.339
   475.8,0.013964,0.007534,0.125188,-0.000196,  22.334
   476.0,0.013929,0.007531,0.125470,-0.000209,  22.334
   476.2,0.013898,0.007518,0.125257,-0.000257,  22.334
   476.4,0.013870,0.007504,0.124813,-0.000244,  22.337
   476.6,0.013832,0.007490,0.124130,-0.000231,  22.339
   476.8,0.013789,0.007473,0.123374,-0.000227,  22.340
   477.0,0.013746,0.007448,0.122451,-0.000179,  22.343
   477.2,0.013693,0.007421,0.121369,-0.000127,  22.344
   477.4,0.013631,0.007390,0.120796,-0.000087,  22.348
   477.6,0.013578,0.007365,0.120391,-0.000061,  22.358
   477.8,0.013522,0.007343,0.120130,-0.000048,  22.366
   478.0,0.013484,0.007325,0.120036,-0.000022,  22.374
   478.2,0.013452,0.007305,0.119536,-0.000031,  22.376
   478.4,0.013425,0.007297,0.118959,0.000004,  22.374
   478.6,0.013412,0.007280,0.118280,0.000030,  22.363
   478.8,0.013380,0.007256,0.117698,-0.000005,  22.356
   479.0,0.013339,0.007238,0.117140,0.000030,  22.352
   479.2,0.013305,0.007211,0.116566,0.000043,  22.354
   479.4,0.013262,0.007178,0.116147,0.000021,  22.350
   479.6,0.013206,0.007147,0.115820,0.000043,  22.356
   479.8,0.013158,0.007110,0.115578,0.000030,  22.354
   480.0,0.013115,0.007082,0.115578,-0.000031,  22.347
   480.2,0.013072,0.007054,0.115709,-0.000035,  22.349
   480.4,0.013035,0.007029,0.115982,-0.000109,  22.354
   480.6,0.013000,0.007006,0.116279,-0.000161,  22.353
   480.8,0.012969,0.007002,0.116653,-0.000227,  22.353
   481.0,0.012940,0.007002,0.117089,-0.000253,  22.354
   481.2,0.012908,0.006988,0.116548,-0.000266,  22.359
   481.4,0.012877,0.006973,0.115560,-0.000257,  22.357
   481.6,0.012845,0.006967,0.114124,-0.000231,  22.358
   481.8,0.012810,0.006954,0.113598,-0.000240,  22.357
   482.0,0.012775,0.006929,0.113286,-0.000153,  22.356
   482.2,0.012747,0.006912,0.113206,-0.000114,  22.359
   482.4,0.012709,0.006892,0.112801,-0.000122,  22.365
   482.6,0.012661,0.006864,0.112350,-0.000074,  22.375
   482.8,0.012613,0.006841,0.111862,-0.000048,  22.384
   483.0,0.012567,0.006826,0.111375,-0.000022,  22.387
   483.2,0.012536,0.006811,0.110825,0.000013,  22.386
   483.4,0.012503,0.006805,0.110262,0.000026,  22.384
   483.6,0.012493,0.006784,0.109687,0.000039,  22.375
   483.8,0.012458,0.006752,0.109086,0.000052,  22.371
   484.0,0.012418,0.006712,0.108466,0.000065,  22.364
   484.2,0.012378,0.006679,0.108039,0.000043,  22.362
   484.4,0.012338,0.006644,0.107701,0.000043,  22.362
   484.6,0.012292,0.006609,0.107450,0.000043,  22.362
   484.8,0.012243,0.006576,0.106850,-0.000018,  22.364
   485.0,0.012200,0.006548,0.106137,-0.000035,  22.361
   485.2,0.012160,0.006534,0.105265,-0.000074,  22.358
   485.4,0.012120,0.006521,0.105194,-0.000161,  22.363
   485.6,0.012088,0.006512,0.105467,-0.000192,  22.357
   485.8,0.012065,0.006513,0.106055,-0.000231,  22.360
   486.0,0.012045,0.006504,0.106301,-0.000292,  22.355
   486.2,0.012026,0.006498,0.106547,-0.000296,  22.358
   486.4,0.011997,0.006491,0.106769,-0.000296,  22.360
   486.6,0.011972,0.006479,0.106640,-0.000283,  22.361
   486.8,0.011931,0.006461,0.106349,-0.000244,  22.356
   487.0,0.011893,0.006444,0.105867,-0.000157,  22.362
   487.2,0.011846,0.006427,0.105405,-0.000118,  22.363
   487.4,0.011802,0.006405,0.104889,-0.000092,  22.369
   487.6,0.011752,0.006380,0.104305,-0.000053,  22.372
   487.8,0.011719,0.006364,0.103829,-0.000026,  22.381
   488.0,0.011690,0.006349,0.103394,-0.000035,  22.386
   488.2,0.011667,0.006333,0.102965,-0.000022,  22.387
   488.4,0.011651,0.006318,0.102550,-0.000009,  22.379
   488.6,0.011616,0.006296,0.102080,-0.000031,  22.372
   488.8,0.011570,0.006272,0.101610,0.000017,  22.369
   489.0,0.011524,0.006250,0.101110,0.000030,  22.362
   489.2,0.011481,0.006220,0.100680,-0.000005,  22.356
   489.4,0.011431,0.006191,0.100257,0.000030,  22.355
   489.6,0.011391,0.006167,0.099855,0.000030,  22.358
   489.8,0.011354,0.006139,0.099781,0.000017,  22.357
   490.0,0.011320,0.006113,0.099868,0.000026,  22.358
   490.2,0.011292,0.006087,0.100109,-0.000013,  22.357
   490.4,0.011266,0.006076,0.100386,-0.000100,  22.357
   490.6,0.011243,0.006064,0.100737,-0.000166,  22.360
   490.8,0.011226,0.006066,0.101163,-0.000205,  22.357
   491.0,0.011203,0.006059,0.101201,-0.000279,  22.359
   491.2,0.011177,0.006049,0.101100,-0.000296,  22.355
   491.4,0.011151,0.006048,0.100845,-0.000283,  22.361
   491.6,0.011128,0.006042,0.100448,-0.000279,  22.360
   491.8,0.011103,0.006027,0.099879,-0.000192,  22.357
   492.0,0.011077,0.006019,0.099162,-0.000153,  22.356
   492.2,0.011048,0.006002,0.098611,-0.000148,  22.361
   492.4,0.011010,0.005987,0.098028,-0.000087,  22.366
   492.6,0.010976,0.005968,0.097453,-0.000061,  22.373
   492.8,0.010930,0.005943,0.096962,-0.000070,  22.379
   493.0,0.010902,0.005927,0.096513,-0.000022,  22.383
   493.2,0.010873,0.005909,0.096097,-0.000009,  22.385
   493.4,0.010847,0.005885,0.095633,-0.000031,  22.376
   493.6,0.010813,0.005864,0.095176,0.000017,  22.375
   493.8,0.010769,0.005846,0.094688,0.000030,  22.371
   494.0,0.010722,0.005822,0.094239,0.000008,  22.369
   494.2,0.010691,0.005789,0.093778,0.000043,  22.366
   494.4,0.010655,0.005766,0.093324,0.000056,  22.366
   494.6,0.010622,0.005740,0.093203,0.000021,  22.360
   494.8,0.010585,0.005705,0.093251,0.000030,  22.365
   495.0,0.010543,0.005675,0.093459,-0.000009,  22.364
   495.2,0.010499,0.005660,0.093686,-0.000109,  22.364
   495.4,0.010467,0.005649,0.094018,-0.000153,  22.362
   495.6,0.010440,0.005650,0.094454,-0.000192,  22.364
   495.8,0.010436,0.005644,0.094470,-0.000266,  22.361
   496.0,0.010416,0.005630,0.094339,-0.000244,  22.363
   496.2,0.010387,0.005629,0.094013,-0.000283,  22.366
   496.4,0.010368,0.005622,0.093715,-0.000270,  22.361
   496.6,0.010342,0.005609,0.093360,-0.000244,  22.363
   496.8,0.010310,0.005601,0.092913,-0.000205,  22.362
   497.0,0.010286,0.005590,0.092392,-0.000179,  22.364
   497.2,0.010251,0.005579,0.091916,-0.000174,  22.369
   497.4,0.010211,0.005561,0.091422,-0.000100,  22.369
   497.6,0.010168,0.005545,0.090899,-0.000074,  22.376
   497.8,0.010137,0.005527,0.089165,-0.000083,  22.381
   498.0,0.010102,0.005512,0.086838,-0.000022,  22.384
   498.2,0.010074,0.005495,0.083840,0.000004,  22.384
   498.4,0.010047,0.005478,0.082680,-0.000018,  22.381
   498.6,0.010011,0.005454,0.082146,0.000017,  22.374
   498.8,0.009980,0.005443,0.082205,0.000030,  22.369
   499.0,0.009948,0.005419,0.082377,0.000008,  22.366
   499.2,0.009903,0.005388,0.082919,0.000043,  22.366
   499.4,0.009860,0.005363,0.083814,0.000056,  22.361
   499.6,0.009822,0.005331,0.084289,0.000021,  22.361
   499.8,0.009785,0.005294,0.084703,0.000030,  22.357
   500.0,0.009742,0.005263,0.085086,-0.000009,  22.355
   500.2,0.009712,0.005248,0.085593,-0.000096,  22.355
   500.4,0.009695,0.005233,0.086145,-0.000140,  22.355
   500.6,0.009686,0.005235,0.086699,-0.000192,  22.346
   500.8,0.009687,0.005231,0.086689,-0.000279,  22.352
   501.0,0.009666,0.005226,0.086406,-0.000296,  22.356
   501.2,0.009650,0.005227,0.085832,-0.000296,  22.345
   501.4,0.009630,0.005218,0.085575,-0.000270,  22.348
   501.6,0.009607,0.005206,0.085333,-0.000183,  22.352
   501.8,0.009575,0.005195,0.085123,-0.000157,  22.346
   502.0,0.009549,0.005180,0.084786,-0.000118,  22.351
   502.2,0.009518,0.005167,0.084388,-0.000066,  22.352
   502.4,0.009477,0.005149,0.083949,-0.000026,  22.360
   502.6,0.009446,0.005134,0.083567,-0.000013,  22.365
   502.8,0.009419,0.005122,0.083160,-0.000000,  22.376
   503.0,0.009391,0.005109,0.082732,0.000026,  22.379
   503.2,0.009367,0.005099,0.082353,0.000039,  22.376
   503.4,0.009342,0.005086,0.082005,0.000052,  22.370
   503.6,0.009313,0.005080,0.081636,0.000065,  22.362
   503.8,0.009271,0.005056,0.081256,0.000078,  22.352
   504.0,0.009236,0.005030,0.080858,0.000078,  22.347
   504.2,0.009204,0.005000,0.080458,0.000091,  22.345
   504.4,0.009170,0.004967,0.080303,0.000043,  22.345
   504.6,0.009126,0.004931,0.080272,0.000091,  22.341
   504.8,0.009086,0.004887,0.080334,0.000043,  22.336
   505.0,0.009050,0.004868,0.080436,0.000017,  22.335
   505.2,0.009025,0.004856,0.080600,-0.000083,  22.335
   505.4,0.009005,0.004855,0.080820,-0.000148,  22.333
   505.6,0.008987,0.004843,0.081118,-0.000201,  22.334
   505.8,0.008970,0.004839,0.081171,-0.000253,  22.335
   506.0,0.008941,0.004839,0.081176,-0.000283,  22.329
   506.2,0.008921,0.004833,0.081109,-0.000283,  22.330
   506.4,0.008898,0.004821,0.080829,-0.000292,  22.330
   506.6,0.008872,0.004818,0.080379,-0.000218,  22.327
   506.8,0.008848,0.004812,0.079804,-0.000192,  22.325
   507.0,0.008816,0.004796,0.079379,-0.000188,  22.325
   507.2,0.008785,0.004786,0.078932,-0.000100,  22.336
   507.4,0.008745,0.004769,0.078486,-0.000061,  22.339
   507.6,0.008716,0.004757,0.077791,-0.000083,  22.346
   507.8,0.008688,0.004742,0.076954,-0.000035,  22.360
   508.0,0.008659,0.004726,0.076000,-0.000009,  22.362
   508.2,0.008636,0.004718,0.075563,-0.000031,  22.359
   508.4,0.008613,0.004710,0.075299,0.000004,  22.351
   508.6,0.008594,0.004698,0.075241,0.000030,  22.338
   508.8,0.008565,0.004674,0.074971,-0.000005,  22.331
   509.0,0.008521,0.004644,0.074714,0.000030,  22.322
   509.2,0.008477,0.004609,0.074442,0.000043,  22.321
   509.4,0.008443,0.004572,0.074324,0.000021,  22.324
   509.6,0.008412,0.004537,0.074288,0.000043,  22.319
   509.8,0.008387,0.004504,0.074336,0.000004,  22.312
   510.0,0.008353,0.004487,0.074404,-0.000070,  22.310
   510.2,0.008323,0.004476,0.074508,-0.000100,  22.314
   510.4,0.008306,0.004483,0.074640,-0.000153,  22.314
   510.6,0.008299,0.004476,0.074769,-0.000253,  22.311
   510.8,0.008285,0.004473,0.074900,-0.000270,  22.311
   511.0,0.008261,0.004470,0.075032,-0.000270,  22.310
   511.2,0.008253,0.004463,0.074769,-0.000292,  22.310
   511.4,0.008243,0.004461,0.074323,-0.000231,  22.308
   511.6,0.008220,0.004457,0.073661,-0.000192,  22.306
   511.8,0.008204,0.004446,0.072770,-0.000201,  22.307
   512.0,0.008185,0.004432,0.071633,-0.000127,  22.306
   512.2,0.008156,0.004419,0.070290,-0.000087,  22.313
   512.4,0.008116,0.004410,0.069905,-0.000096,  22.321
   512.6,0.008087,0.004398,0.069870,-0.000048,  22.339
   512.8,0.008061,0.004386,0.070184,-0.000022,  22.345
   513.0,0.008033,0.004375,0.070079,-0.000031,  22.349
   513.2,0.008003,0.004370,0.069941,0.000004,  22.350
   513.4,0.007983,0.004367,0.069734,0.000017,  22.337
   513.6,0.007964,0.004343,0.069512,-0.000005,  22.325
   513.8,0.007928,0.004304,0.069280,0.000043,  22.315
   514.0,0.007890,0.004265,0.068994,0.000043,  22.306
   514.2,0.007863,0.004235,0.068798,0.000043,  22.306
   514.4,0.007823,0.004205,0.068623,0.000043,  22.303
   514.6,0.007775,0.004179,0.068483,0.000043,  22.302
   514.8,0.007724,0.004151,0.068351,0.000004,  22.300
   515.0,0.007696,0.004138,0.068411,-0.000070,  22.303
   515.2,0.007679,0.004127,0.068545,-0.000100,  22.301
   515.4,0.007667,0.004123,0.068772,-0.000153,  22.301
   515.6,0.007657,0.004118,0.068979,-0.000240,  22.304
   515.8,0.007653,0.004116,0.069240,-0.000257,  22.301
   516.0,0.007644,0.004126,0.069539,-0.000257,  22.306
   516.2,0.007630,0.004126,0.069373,-0.000292,  22.304
   516.4,0.007612,0.004119,0.068993,-0.000244,  22.305
   516.6,0.007580,0.004122,0.068399,-0.000205,  22.305
   516.8,0.007554,0.004113,0.067977,-0.000214,  22.307
   517.0,0.007521,0.004101,0.067538,-0.000140,  22.305
   517.2,0.007493,0.004093,0.067062,-0.000100,  22.314
   517.4,0.007463,0.004078,0.066711,-0.000074,  22.326
   517.6,0.007425,0.004066,0.066413,-0.000026,  22.334
   517.8,0.007407,0.004054,0.066133,-0.000000,  22.345
   518.0,0.007387,0.004041,0.065780,0.000026,  22.343
   518.2,0.007369,0.004030,0.065412,0.000039,  22.342
   518.4,0.007365,0.004029,0.064990,0.000065,  22.331
   518.6,0.007356,0.004003,0.064401,0.000065,  22.333
   518.8,0.007321,0.003967,0.063705,0.000065,  22.320
   519.0,0.007284,0.003929,0.062918,0.000078,  22.324
   519.2,0.007248,0.003900,0.062688,0.000056,  22.316
   519.4,0.007205,0.003867,0.062663,0.000043,  22.317
   519.6,0.007150,0.003835,0.062886,0.000017,  22.314
   519.8,0.007106,0.003815,0.063007,-0.000022,  22.314
   520.0,0.007077,0.003804,0.063149,-0.000053,  22.317
   520.2,0.007058,0.003792,0.063357,-0.000105,  22.311
   520.4,0.007053,0.003787,0.063597,-0.000157,  22.317
   520.6,0.007042,0.003789,0.063868,-0.000209,  22.314
   520.8,0.007033,0.003793,0.064177,-0.000222,  22.315
   521.0,0.007022,0.003785,0.064080,-0.000283,  22.315
   521.2,0.007010,0.003785,0.063811,-0.000270,  22.317
   521.4,0.006996,0.003788,0.063355,-0.000244,  22.317
   521.6,0.006979,0.003781,0.063043,-0.000240,  22.320
   521.8,0.006959,0.003771,0.062695,-0.000166,  22.315
   522.0,0.006934,0.003763,0.062310,-0.000140,  22.329
   522.2,0.006908,0.003752,0.061961,-0.000100,  22.332
   522.4,0.006885,0.003743,0.061590,-0.000100,  22.339
   522.6,0.006860,0.003725,0.061219,-0.000053,  22.346
   522.8,0.006834,0.003717,0.060839,-0.000026,  22.354
   523.0,0.006820,0.003706,0.060445,-0.000013,  22.355
   523.2,0.006806,0.003702,0.060043,-0.000000,  22.356
   523.4,0.006794,0.003677,0.059686,0.000013,  22.347
   523.6,0.006763,0.003640,0.059359,-0.000009,  22.342
   523.8,0.006723,0.003605,0.059024,0.000004,  22.329
   524.0,0.006669,0.003575,0.058719,0.000030,  22.332
   524.2,0.006624,0.003543,0.058498,-0.000005,  22.334
   524.4,0.006572,0.003517,0.058314,0.000030,  22.333
   524.6,0.006523,0.003489,0.058146,0.000017,  22.333
   524.8,0.006495,0.003469,0.058192,-0.000044,  22.328
   525.0,0.006471,0.003456,0.058341,-0.000061,  22.329
   525.2,0.006472,0.003452,0.058593,-0.000114,  22.338
   525.4,0.006467,0.003452,0.058762,-0.000201,  22.328
   525.6,0.006457,0.003461,0.058953,-0.000218,  22.331
   525.8,0.006464,0.003479,0.059143,-0.000244,  22.332
   526.0,0.006461,0.003484,0.059062,-0.000305,  22.331
   526.2,0.006453,0.003484,0.058848,-0.000270,  22.330
   526.4,0.006445,0.003487,0.058531,-0.000244,  22.330
   526.6,0.006434,0.003485,0.058244,-0.000240,  22.333
   526.8,0.006417,0.003480,0.057898,-0.000166,  22.337
   527.0,0.006394,0.003472,0.057502,-0.000127,  22.336
   527.2,0.006377,0.003462,0.057164,-0.000087,  22.341
   527.4,0.006353,0.003453,0.056834,-0.000040,  22.344
   527.6,0.006346,0.003447,0.056511,-0.000013,  22.354
   527.8,0.006325,0.003440,0.056181,0.000013,  22.360
   528.0,0.006304,0.003432,0.055829,0.000013,  22.362
   528.2,0.006290,0.003433,0.055476,0.000026,  22.357
   528.4,0.006282,0.003407,0.055153,0.000039,  22.351
   528.6,0.006248,0.003373,0.054816,0.000039,  22.345
   528.8,0.006199,0.003335,0.054493,0.000052,  22.339
   529.0,0.006152,0.003299,0.054267,0.000052,  22.334
   529.2,0.006109,0.003267,0.054070,0.000039,  22.336
   529.4,0.006060,0.003236,0.053917,0.000052,  22.336
   529.6,0.006012,0.003216,0.053880,0.000026,  22.330
   529.8,0.005986,0.003205,0.053908,-0.000000,  22.333
   530.0,0.005972,0.003197,0.054016,-0.000026,  22.335
   530.2,0.005961,0.003197,0.054154,-0.000079,  22.333
   530.4,0.005952,0.003202,0.054364,-0.000144,  22.334
   530.6,0.005952,0.003213,0.054647,-0.000170,  22.334
   530.8,0.005962,0.003219,0.054641,-0.000209,  22.332
   531.0,0.005953,0.003224,0.054518,-0.000235,  22.329
   531.2,0.005938,0.003233,0.054293,-0.000235,  22.332
   531.4,0.005936,0.003233,0.054009,-0.000244,  22.335
   531.6,0.005925,0.003226,0.053636,-0.000183,  22.334
   531.8,0.005904,0.003213,0.053167,-0.000166,  22.334
   532.0,0.005891,0.003207,0.052845,-0.000127,  22.334
   532.2,0.005874,0.003196,0.052525,-0.000100,  22.340
   532.4,0.005851,0.003188,0.052239,-0.000074,  22.349
   532.6,0.005830,0.003182,0.051962,-0.000048,  22.357
   532.8,0.005812,0.003173,0.051642,-0.000022,  22.356
   533.0,0.005798,0.003171,0.051300,0.000013,  22.360
   533.2,0.005787,0.003164,0.050951,0.000026,  22.356
   533.4,0.005756,0.003133,0.050625,0.000004,  22.347
   533.6,0.005704,0.003106,0.050299,0.000004,  22.345
   533.8,0.005647,0.003065,0.049966,0.000030,  22.343
   534.0,0.005605,0.003031,0.049662,-0.000005,  22.334
   534.2,0.005550,0.002997,0.049392,0.000030,  22.331
   534.4,0.005505,0.002966,0.049123,0.000030,  22.333
   534.6,0.005480,0.002942,0.049073,-0.000018,  22.328
   534.8,0.005456,0.002923,0.049168,-0.000022,  22.331
   535.0,0.005454,0.002917,0.049371,-0.000061,  22.323
   535.2,0.005449,0.002912,0.049567,-0.000148,  22.329
   535.4,0.005454,0.002916,0.049821,-0.000179,  22.332
   535.6,0.005470,0.002926,0.050118,-0.000218,  22.326
   535.8,0.005470,0.002935,0.050156,-0.000292,  22.328
   536.0,0.005463,0.002945,0.050091,-0.000296,  22.327
   536.2,0.005457,0.002948,0.049919,-0.000283,  22.329
   536.4,0.005448,0.002953,0.049652,-0.000244,  22.326
   536.6,0.005439,0.002953,0.049290,-0.000157,  22.329
   536.8,0.005431,0.002953,0.048826,-0.000118,  22.326
   537.0,0.005417,0.002941,0.048480,-0.000079,  22.331
   537.2,0.005402,0.002936,0.048142,-0.000053,  22.337
   537.4,0.005385,0.002934,0.047817,-0.000026,  22.341
   537.6,0.005372,0.002927,0.047558,-0.000035,  22.350
   537.8,0.005361,0.002916,0.047308,-0.000022,  22.353
   538.0,0.005340,0.002919,0.047101,-0.000009,  22.356
   538.2,0.005333,0.002902,0.046842,-0.000031,  22.352
   538.4,0.005304,0.002875,0.046518,0.000017,  22.344
   538.6,0.005251,0.002844,0.046187,0.000030,  22.338
   538.8,0.005203,0.002812,0.045913,-0.000005,  22.333
   539.0,0.005161,0.002779,0.045640,0.000030,  22.328
   539.2,0.005113,0.002743,0.045381,0.000030,  22.323
   539.4,0.005071,0.002713,0.045331,0.000030,  22.325
   539.6,0.005046,0.002693,0.045396,0.000039,  22.322
   539.8,0.005029,0.002680,0.045590,0.000013,  22.321
   540.0,0.005017,0.002676,0.045756,-0.000013,  22.326
   540.2,0.005012,0.002675,0.045949,-0.000066,  22.323
   540.4,0.005017,0.002696,0.046171,-0.000131,  22.329
   540.6,0.005023,0.002705,0.046242,-0.000170,  22.324
   540.8,0.005023,0.002706,0.046242,-0.000209,  22.322
   541.0,0.005020,0.002717,0.046171,-0.000248,  22.324
   541.2,0.005021,0.002722,0.046041,-0.000235,  22.325
   541.4,0.005013,0.002717,0.045820,-0.000244,  22.326
   541.6,0.004995,0.002717,0.045496,-0.000205,  22.323
   541.8,0.004987,0.002713,0.045095,-0.000179,  22.324
   542.0,0.004976,0.002712,0.044780,-0.000174,  22.327
   542.2,0.004952,0.002706,0.044444,-0.000100,  22.333
   542.4,0.004938,0.002703,0.044108,-0.000087,  22.338
   542.6,0.004924,0.002696,0.043815,-0.000061,  22.349
   542.8,0.004913,0.002690,0.043552,-0.000013,  22.354
   543.0,0.004903,0.002684,0.043288,0.000013,  22.352
   543.2,0.004871,0.002665,0.042996,0.000026,  22.349
   543.4,0.004828,0.002650,0.042681,0.000026,  22.343
   543.6,0.004787,0.002629,0.042346,0.000039,  22.328
   543.8,0.004747,0.002599,0.042096,0.000039,  22.327
   544.0,0.004702,0.002570,0.041883,0.000052,  22.323
   544.2,0.004663,0.002540,0.041677,0.000052,  22.325
   544.4,0.004635,0.002512,0.041614,0.000052,  22.322
   544.6,0.004608,0.002482,0.041622,0.000039,  22.321
   544.8,0.004600,0.002454,0.041735,0.000013,  22.318
   545.0,0.004588,0.002445,0.041871,-0.000040,  22.314
   545.2,0.004588,0.002452,0.042041,-0.000131,  22.316
   545.4,0.004593,0.002465,0.042282,-0.000170,  22.312
   545.6,0.004599,0.002474,0.042375,-0.000244,  22.313
   545.8,0.004605,0.002479,0.042382,-0.000309,  22.315
   546.0,0.004607,0.002489,0.042355,-0.000309,  22.313
   546.2,0.004617,0.002491,0.042148,-0.000305,  22.313
   546.4,0.004614,0.002491,0.041806,-0.000218,  22.315
   546.6,0.004605,0.002493,0.041343,-0.000192,  22.310
   546.8,0.004597,0.002493,0.041039,-0.000188,  22.312
   547.0,0.004586,0.002485,0.040755,-0.000114,  22.314
   547.2,0.004562,0.002484,0.040493,-0.000061,  22.320
   547.4,0.004549,0.002477,0.040232,-0.000083,  22.331
   547.6,0.004535,0.002472,0.039970,-0.000035,  22.342
   547.8,0.004514,0.002463,0.039730,-0.000009,  22.347
   548.0,0.004503,0.002452,0.039511,-0.000031,  22.343
   548.2,0.004475,0.002434,0.039286,0.000004,  22.339
   548.4,0.004441,0.002423,0.039068,0.000004,  22.331
   548.6,0.004401,0.002400,0.038828,-0.000005,  22.324
   548.8,0.004364,0.002363,0.038573,0.000030,  22.321
   549.0,0.004325,0.002331,0.038305,0.000030,  22.315
   549.2,0.004280,0.002299,0.038184,0.000030,  22.315
   549.4,0.004248,0.002266,0.038100,0.000030,  22.310
   549.6,0.004223,0.002238,0.038127,0.000030,  22.306
   549.8,0.004195,0.002227,0.038170,-0.000009,  22.308
   550.0,0.004189,0.002232,0.038319,-0.000109,  22.306
   550.2,0.004192,0.002243,0.038545,-0.000153,  22.306
   550.4,0.004203,0.002245,0.038864,-0.000205,  22.302
   550.6,0.004209,0.002247,0.038998,-0.000305,  22.305
   550.8,0.004215,0.002258,0.039076,-0.000322,  22.304
   551.0,0.004215,0.002270,0.039076,-0.000322,  22.305
   551.2,0.004215,0.002269,0.038878,-0.000331,  22.307
   551.4,0.004209,0.002273,0.038552,-0.000244,  22.305
   551.6,0.004200,0.002275,0.038072,-0.000205,  22.303
   551.8,0.004192,0.002275,0.037768,-0.000214,  22.304
   552.0,0.004181,0.002273,0.037445,-0.000140,  22.309
   552.2,0.004173,0.002274,0.037156,-0.000100,  22.314
   552.4,0.004162,0.002270,0.036911,-0.000109,  22.325
   552.6,0.004141,0.002265,0.036686,-0.000061,  22.330
   552.8,0.004137,0.002264,0.036476,-0.000035,  22.336
   553.0,0.004120,0.002255,0.036231,-0.000057,  22.334
   553.2,0.004096,0.002245,0.035992,-0.000009,  22.326
   553.4,0.004080,0.002232,0.035704,0.000004,  22.318
   553.6,0.004055,0.002206,0.035007,-0.000031,  22.309
   553.8,0.004017,0.002170,0.034121,0.000017,  22.308
   554.0,0.003975,0.002135,0.032998,0.000017,  22.302
   554.2,0.003936,0.002103,0.032859,-0.000018,  22.305
   554.4,0.003900,0.002062,0.033112,0.000017,  22.303
   554.6,0.003862,0.002035,0.033737,-0.000009,  22.298
   554.8,0.003835,0.002024,0.034081,-0.000096,  22.292
   555.0,0.003823,0.002020,0.034474,-0.000140,  22.292
   555.2,0.003819,0.002033,0.034896,-0.000179,  22.293
   555.4,0.003828,0.002039,0.035149,-0.000279,  22.291
   555.6,0.003834,0.002053,0.035318,-0.000322,  22.293
   555.8,0.003842,0.002073,0.035402,-0.000322,  22.290
   556.0,0.003854,0.002082,0.034845,-0.000344,  22.287
   556.2,0.003857,0.002081,0.033931,-0.000270,  22.288
   556.4,0.003853,0.002087,0.032650,-0.000244,  22.289
   556.6,0.003857,0.002092,0.032407,-0.000218,  22.287
   556.8,0.003852,0.002085,0.032507,-0.000144,  22.288
   557.0,0.003836,0.002087,0.032936,-0.000105,  22.296
   557.2,0.003829,0.002090,0.032973,-0.000100,  22.302
   557.4,0.003818,0.002080,0.032976,-0.000074,  22.316
   557.6,0.003802,0.002083,0.032950,-0.000048,  22.322
   557.8,0.003795,0.002081,0.032860,-0.000057,  22.327
   558.0,0.003781,0.002070,0.032722,-0.000009,  22.324
   558.2,0.003752,0.002066,0.032555,-0.000009,  22.317
   558.4,0.003736,0.002043,0.032431,0.000017,  22.304
   558.6,0.003705,0.002006,0.032320,0.000017,  22.300
   558.8,0.003665,0.001966,0.032209,0.000017,  22.297
   559.0,0.003627,0.001934,0.032104,0.000017,  22.288
   559.2,0.003587,0.001892,0.032007,-0.000018,  22.286
   559.4,0.003541,0.001856,0.031889,0.000017,  22.285
   559.6,0.003502,0.001839,0.031777,-0.000009,  22.281
   559.8,0.003491,0.001833,0.031868,-0.000083,  22.281
   560.0,0.003484,0.001838,0.032042,-0.000114,  22.279
   560.2,0.003502,0.001850,0.032314,-0.000153,  22.271
   560.4,0.003507,0.001855,0.032432,-0.000240,  22.279
   560.6,0.003519,0.001870,0.032515,-0.000283,  22.278
   560.8,0.003537,0.001889,0.032541,-0.000283,  22.277
   561.0,0.003542,0.001902,0.032437,-0.000318,  22.278
   561.2,0.003545,0.001908,0.032214,-0.000270,  22.277
   561.4,0.003545,0.001916,0.031922,-0.000244,  22.278
   561.6,0.003542,0.001921,0.031665,-0.000240,  22.275
   561.8,0.003534,0.001924,0.031366,-0.000166,  22.278
   562.0,0.003523,0.001923,0.031025,-0.000127,  22.286
   562.2,0.003514,0.001918,0.030783,-0.000122,  22.290
   562.4,0.003502,0.001918,0.030547,-0.000074,  22.299
   562.6,0.003497,0.001914,0.030326,-0.000048,  22.312
   562.8,0.003482,0.001907,0.030139,-0.000057,  22.321
   563.0,0.003464,0.001903,0.029974,-0.000022,  22.312
   563.2,0.003450,0.001901,0.029829,-0.000009,  22.303
   563.4,0.003440,0.001878,0.029650,-0.000031,  22.298
   563.6,0.003412,0.001842,0.029457,0.000017,  22.289
   563.8,0.003363,0.001795,0.029249,0.000030,  22.278
   564.0,0.003319,0.001761,0.029174,0.000008,  22.278
   564.2,0.003276,0.001720,0.029161,0.000043,  22.279
   564.4,0.003234,0.001686,0.029169,0.000030,  22.270
   564.6,0.003193,0.001673,0.029204,-0.000031,  22.272
   564.8,0.003182,0.001669,0.029300,-0.000074,  22.272
   565.0,0.003175,0.001680,0.029417,-0.000127,  22.270
   565.2,0.003185,0.001686,0.028985,-0.000201,  22.270
   565.4,0.003193,0.001697,0.028326,-0.000231,  22.267
   565.6,0.003205,0.001712,0.027432,-0.000244,  22.268
   565.8,0.003223,0.001725,0.027419,-0.000292,  22.266
   566.0,0.003228,0.001738,0.027710,-0.000257,  22.266
   566.2,0.003224,0.001751,0.028328,-0.000218,  22.265
   566.4,0.003231,0.001757,0.028356,-0.000227,  22.270
   566.6,0.003231,0.001764,0.028205,-0.000153,  22.268
   566.8,0.003222,0.001771,0.027916,-0.000127,  22.266
   567.0,0.003220,0.001771,0.027820,-0.000135,  22.274
   567.2,0.003214,0.001764,0.027745,-0.000074,  22.292
   567.4,0.003205,0.001762,0.027671,-0.000074,  22.299
   567.6,0.003200,0.001764,0.027568,-0.000048,  22.308
   567.8,0.003195,0.001759,0.027437,-0.000035,  22.315
   568.0,0.003186,0.001766,0.027300,-0.000022,  22.309
   568.2,0.003184,0.001753,0.027135,-0.000009,  22.303
   568.4,0.003153,0.001727,0.026963,-0.000031,  22.292
   568.6,0.003104,0.001696,0.026771,0.000004,  22.279
   568.8,0.003048,0.001650,0.026586,-0.000005,  22.279
   569.0,0.003006,0.001619,0.026531,-0.000027,  22.275
   569.2,0.002964,0.001582,0.026518,-0.000027,  22.270
   569.4,0.002922,0.001542,0.026546,-0.000062,  22.268
   569.6,0.002911,0.001525,0.026587,-0.000053,  22.270
   569.8,0.002910,0.001521,0.026628,-0.000070,  22.267
   570.0,0.002930,0.001536,0.026690,-0.000144,  22.267
   570.2,0.002941,0.001544,0.026848,-0.000161,  22.264
   570.4,0.002955,0.001561,0.027054,-0.000227,  22.267
   570.6,0.002979,0.001592,0.027308,-0.000253,  22.269
   570.8,0.002990,0.001611,0.027260,-0.000266,  22.268
   571.0,0.002992,0.001621,0.027060,-0.000244,  22.269
   571.2,0.002988,0.001629,0.026750,-0.000218,  22.267
   571.4,0.002988,0.001637,0.026599,-0.000240,  22.267
   571.6,0.002988,0.001639,0.026442,-0.000153,  22.267
   571.8,0.002989,0.001639,0.026285,-0.000114,  22.271
   572.0,0.002980,0.001636,0.026121,-0.000122,  22.276
   572.2,0.002968,0.001631,0.025929,-0.000061,  22.287
   572.4,0.002962,0.001629,0.025696,-0.000035,  22.299
   572.6,0.002958,0.001626,0.025525,-0.000057,  22.310
   572.8,0.002952,0.001631,0.025368,-0.000009,  22.313
   573.0,0.002941,0.001634,0.025231,0.000017,  22.307
   573.2,0.002937,0.001609,0.025012,-0.000018,  22.299
   573.4,0.002906,0.001576,0.024772,0.000030,  22.292
   573.6,0.002858,0.001526,0.024498,0.000043,  22.275
   573.8,0.002799,0.001490,0.024348,0.000008,  22.280
   574.0,0.002754,0.001454,0.024218,0.000030,  22.272
   574.2,0.002706,0.001417,0.024109,0.000017,  22.268
   574.4,0.002658,0.001402,0.024137,-0.000044,  22.267
   574.6,0.002644,0.001388,0.024246,-0.000035,  22.264
   574.8,0.002631,0.001390,0.024437,-0.000061,  22.263
   575.0,0.002645,0.001398,0.024423,-0.000135,  22.267
   575.2,0.002657,0.001409,0.024381,-0.000127,  22.264
   575.4,0.002664,0.001434,0.024264,-0.000179,  22.265
   575.6,0.002688,0.001449,0.024223,-0.000218,  22.264
   575.8,0.002699,0.001450,0.024216,-0.000244,  22.264
   576.0,0.002707,0.001460,0.024203,-0.000283,  22.265
   576.2,0.002717,0.001466,0.024135,-0.000270,  22.259
   576.4,0.002717,0.001472,0.024026,-0.000266,  22.266
   576.6,0.002710,0.001477,0.023904,-0.000179,  22.262
   576.8,0.002707,0.001477,0.023740,-0.000140,  22.263
   577.0,0.002702,0.001477,0.023632,-0.000148,  22.272
   577.2,0.002687,0.001482,0.023510,-0.000087,  22.279
   577.4,0.002685,0.001485,0.023394,-0.000061,  22.293
   577.6,0.002679,0.001483,0.023300,-0.000070,  22.301
   577.8,0.002674,0.001478,0.023205,-0.000022,  22.306
   578.0,0.002672,0.001480,0.023117,-0.000009,  22.298
   578.2,0.002642,0.001457,0.022947,-0.000031,  22.288
   578.4,0.002598,0.001427,0.022742,0.000017,  22.276
   578.6,0.002544,0.001388,0.022511,0.000017,  22.273
   578.8,0.002496,0.001354,0.022375,-0.000018,  22.267
   579.0,0.002447,0.001317,0.022246,0.000017,  22.265
   579.2,0.002396,0.001283,0.022158,0.000017,  22.264
   579.4,0.002375,0.001266,0.022117,-0.000031,  22.263
   579.6,0.002375,0.001249,0.022103,-0.000009,  22.258
   579.8,0.002389,0.001242,0.022116,-0.000035,  22.263
   580.0,0.002391,0.001251,0.022286,-0.000122,  22.260
   580.2,0.002398,0.001261,0.022551,-0.000166,  22.258
   580.4,0.002412,0.001289,0.022885,-0.000205,  22.265
   580.6,0.002434,0.001306,0.022892,-0.000266,  22.264
   580.8,0.002442,0.001316,0.022748,-0.000283,  22.262
   581.0,0.002453,0.001333,0.022489,-0.000270,  22.262
   581.2,0.002471,0.001343,0.022374,-0.000266,  22.261
   581.4,0.002477,0.001346,0.022252,-0.000192,  22.261
   581.6,0.002473,0.001355,0.022124,-0.000153,  22.264
   581.8,0.002479,0.001356,0.021920,-0.000148,  22.265
   582.0,0.002479,0.001354,0.021676,-0.000087,  22.271
   582.2,0.002463,0.001355,0.021390,-0.000061,  22.283
   582.4,0.002458,0.001352,0.021201,-0.000070,  22.295
   582.6,0.002458,0.001359,0.021031,-0.000022,  22.310
   582.8,0.002455,0.001366,0.020876,-0.000009,  22.311
   583.0,0.002453,0.001348,0.020740,-0.000031,  22.296
   583.2,0.002422,0.001325,0.020632,0.000004,  22.287
   583.4,0.002380,0.001291,0.020538,0.000030,  22.280
   583.6,0.002318,0.001257,0.020233,-0.000005,  22.281
   583.8,0.002273,0.001221,0.019834,0.000030,  22.277
   584.0,0.002232,0.001180,0.019347,0.000030,  22.271
   584.2,0.002188,0.001154,0.019347,0.000008,  22.273
   584.4,0.002171,0.001137,0.019516,0.000030,  22.270
   584.6,0.002159,0.001127,0.019881,0.000017,  22.268
   584.8,0.002158,0.001133,0.019921,-0.000022,  22.265
   585.0,0.002169,0.001143,0.019921,-0.000087,  22.269
   585.2,0.002186,0.001167,0.019813,-0.000153,  22.269
   585.4,0.002211,0.001179,0.019670,-0.000192,  22.271
   585.6,0.002228,0.001191,0.019765,-0.000266,  22.270
   585.8,0.002242,0.001206,0.019893,-0.000283,  22.271
   586.0,0.002251,0.001216,0.020103,-0.000270,  22.269
   586.2,0.002259,0.001225,0.019840,-0.000279,  22.273
   586.4,0.002265,0.001231,0.019373,-0.000205,  22.271
   586.6,0.002271,0.001238,0.018726,-0.000179,  22.270
   586.8,0.002274,0.001238,0.018612,-0.000174,  22.273
   587.0,0.002265,0.001240,0.018659,-0.000100,  22.285
   587.2,0.002269,0.001245,0.018889,-0.000074,  22.293
   587.4,0.002269,0.001242,0.018862,-0.000096,  22.302
   587.6,0.002256,0.001245,0.018768,-0.000035,  22.306
   587.8,0.002255,0.001245,0.018626,-0.000009,  22.314
   588.0,0.002226,0.001234,0.018559,-0.000031,  22.304
   588.2,0.002183,0.001218,0.018485,0.000017,  22.300
   588.4,0.002130,0.001197,0.018404,0.000017,  22.286
   588.6,0.002088,0.001169,0.018344,0.000017,  22.284
   588.8,0.002043,0.001129,0.018304,0.000052,  22.279
   589.0,0.002002,0.001088,0.018243,0.000052,  22.277
   589.2,0.001976,0.001059,0.018243,0.000017,  22.270
   589.4,0.001958,0.001040,0.018304,0.000004,  22.271
   589.6,0.001962,0.001028,0.018364,-0.000009,  22.272
   589.8,0.001971,0.001021,0.018492,-0.000109,  22.265
   590.0,0.001975,0.001034,0.018681,-0.000153,  22.272
   590.2,0.001992,0.001058,0.018897,-0.000227,  22.266
   590.4,0.002021,0.001071,0.018971,-0.000279,  22.270
   590.6,0.002041,0.001090,0.019004,-0.000331,  22.264
   590.8,0.002048,0.001106,0.018971,-0.000353,  22.264
   591.0,0.002066,0.001115,0.018883,-0.000292,  22.260
   591.2,0.002077,0.001124,0.018735,-0.000240,  22.264
   591.4,0.002070,0.001133,0.018513,-0.000249,  22.267
   591.6,0.002070,0.001131,0.017826,-0.000174,  22.261
   591.8,0.002070,0.001135,0.016865,-0.000135,  22.265
   592.0,0.002067,0.001142,0.015640,-0.000144,  22.270
   592.2,0.002068,0.001143,0.015460,-0.000096,  22.282
   592.4,0.002062,0.001147,0.015647,-0.000070,  22.291
   592.6,0.002059,0.001152,0.016215,-0.000057,  22.299
   592.8,0.002054,0.001139,0.016323,-0.000044,  22.301
   593.0,0.002031,0.001120,0.016370,-0.000009,  22.288
   593.2,0.001998,0.001100,0.016370,-0.000009,  22.283
   593.4,0.001950,0.001069,0.016417,0.000004,  22.274
   593.6,0.001911,0.001034,0.016477,0.000004,  22.265
   593.8,0.001866,0.001000,0.016524,0.000017,  22.266
   594.0,0.001818,0.000965,0.016571,0.000017,  22.257
   594.2,0.001790,0.000942,0.016558,-0.000018,  22.255
   594.4,0.001773,0.000917,0.016504,0.000017,  22.257
   594.6,0.001762,0.000911,0.016437,-0.000009,  22.254
   594.8,0.001767,0.000908,0.016531,-0.000109,  22.250
   595.0,0.001781,0.000921,0.016705,-0.000153,  22.252
   595.2,0.001809,0.000947,0.016933,-0.000192,  22.251
   595.4,0.001829,0.000952,0.017047,-0.000279,  22.245
   595.6,0.001843,0.000969,0.017141,-0.000309,  22.249
   595.8,0.001860,0.000990,0.017175,-0.000309,  22.247
   596.0,0.001874,0.001003,0.017081,-0.000318,  22.246
   596.2,0.001873,0.001018,0.016913,-0.000244,  22.245
   596.4,0.001879,0.001027,0.016665,-0.000205,  22.248
   596.6,0.001884,0.001030,0.016490,-0.000214,  22.244
   596.8,0.001875,0.001041,0.016343,-0.000127,  22.247
   597.0,0.001876,0.001046,0.016189,-0.000074,  22.262
   597.2,0.001876,0.001044,0.016082,-0.000096,  22.271
   597.4,0.001873,0.001048,0.015995,-0.000035,  22.287
   597.6,0.001873,0.001047,0.015901,-0.000009,  22.294
   597.8,0.001874,0.001036,0.015794,-0.000044,  22.292
   598.0,0.001854,0.001032,0.015707,-0.000009,  22.283
   598.2,0.001829,0.001017,0.015600,0.000017,  22.274
   598.4,0.001795,0.000989,0.015520,-0.000018,  22.260
   598.6,0.001759,0.000957,0.015446,0.000030,  22.258
   598.8,0.001717,0.000914,0.015379,0.000030,  22.250
   599.0,0.001673,0.000884,0.015286,-0.000005,  22.246
   599.2,0.001639,0.000853,0.015186,0.000017,  22.247
   599.4,0.001607,0.000829,0.015039,-0.000022,  22.242
   599.6,0.001592,0.000822,0.015105,-0.000109,  22.241
   599.8,0.001594,0.000825,0.015266,-0.000140,  22.242
   600.0,0.001602,0.000849,0.015507,-0.000179,  22.238
   600.2,0.001639,0.000861,0.015620,-0.000266,  22.237
   600.4,0.001662,0.000878,0.015714,-0.000296,  22.237
   600.6,0.001675,0.000903,0.015761,-0.000296,  22.239
   600.8,0.001694,0.000916,0.015754,-0.000318,  22.233
   601.0,0.001708,0.000933,0.015680,-0.000244,  22.237
   601.2,0.001722,0.000952,0.015560,-0.000218,  22.237
   601.4,0.001732,0.000962,0.015413,-0.000192,  22.234
   601.6,0.001738,0.000968,0.015192,-0.000166,  22.234
   601.8,0.001734,0.000977,0.014932,-0.000105,  22.238
   602.0,0.001738,0.000983,0.014798,-0.000066,  22.250
   602.2,0.001738,0.000978,0.014718,-0.000040,  22.258
   602.4,0.001738,0.000983,0.014645,-0.000048,  22.280
   602.6,0.001739,0.000978,0.014645,-0.000022,  22.287
   602.8,0.001731,0.000969,0.014531,-0.000031,  22.285
   603.0,0.001712,0.000958,0.014398,0.000004,  22.270
   603.2,0.001684,0.000938,0.014238,0.000030,  22.258
   603.4,0.001650,0.000916,0.013911,-0.000005,  22.245
   603.6,0.001604,0.000886,0.013486,0.000030,  22.240
   603.8,0.001549,0.000854,0.012961,0.000043,  22.234
   604.0,0.001512,0.000824,0.012914,0.000008,  22.235
   604.2,0.001477,0.000798,0.013060,0.000030,  22.234
   604.4,0.001453,0.000772,0.013419,-0.000009,  22.232
   604.6,0.001453,0.000766,0.013618,-0.000083,  22.225
   604.8,0.001470,0.000772,0.013798,-0.000114,  22.224
   605.0,0.001505,0.000796,0.014005,-0.000153,  22.221
   605.2,0.001524,0.000808,0.014131,-0.000240,  22.224
   605.4,0.001534,0.000817,0.014205,-0.000257,  22.226
   605.6,0.001558,0.000838,0.014251,-0.000257,  22.224
   605.8,0.001572,0.000850,0.014291,-0.000279,  22.222
   606.0,0.001574,0.000863,0.014271,-0.000218,  22.227
   606.2,0.001589,0.000881,0.014251,-0.000192,  22.224
   606.4,0.001589,0.000887,0.013798,-0.000188,  22.225
   606.6,0.001588,0.000890,0.013100,-0.000114,  22.224
   606.8,0.001588,0.000900,0.012172,-0.000061,  22.235
   607.0,0.001594,0.000902,0.012013,-0.000083,  22.246
   607.2,0.001594,0.000897,0.012132,-0.000035,  22.258
   607.4,0.001585,0.000899,0.012502,-0.000044,  22.266
   607.6,0.001589,0.000899,0.012608,-0.000031,  22.283
   607.8,0.001583,0.000895,0.012741,-0.000018,  22.273
   608.0,0.001560,0.000896,0.012847,-0.000005,  22.263
   608.2,0.001540,0.000870,0.012906,-0.000005,  22.255
   608.4,0.001509,0.000828,0.012926,0.000030,  22.247
   608.6,0.001470,0.000774,0.012919,0.000008,  22.234
   608.8,0.001419,0.000739,0.012866,0.000021,  22.235
   609.0,0.001383,0.000707,0.012773,0.000021,  22.230
   609.2,0.001346,0.000670,0.012647,-0.000040,  22.230
   609.4,0.001313,0.000662,0.012707,-0.000044,  22.225
   609.6,0.001307,0.000669,0.012840,-0.000096,  22.231
   609.8,0.001321,0.000689,0.013066,-0.000148,  22.228
   610.0,0.001346,0.000697,0.013199,-0.000188,  22.230
   610.2,0.001360,0.000715,0.013305,-0.000240,  22.232
   610.4,0.001377,0.000743,0.013398,-0.000279,  22.232
   610.6,0.001394,0.000758,0.013379,-0.000279,  22.224
   610.8,0.001408,0.000763,0.013305,-0.000292,  22.233
   611.0,0.001416,0.000778,0.013166,-0.000279,  22.233
   611.2,0.001432,0.000790,0.012966,-0.000275,  22.234
   611.4,0.001437,0.000794,0.012853,-0.000214,  22.229
   611.6,0.001440,0.000803,0.012720,-0.000174,  22.233
   611.8,0.001449,0.000807,0.012587,-0.000170,  22.243
   612.0,0.001449,0.000805,0.012441,-0.000109,  22.252
   612.2,0.001440,0.000812,0.012282,-0.000096,  22.261
   612.4,0.001437,0.000810,0.012110,-0.000070,  22.273
   612.6,0.001434,0.000807,0.011825,-0.000057,  22.284
   612.8,0.001416,0.000808,0.011474,-0.000022,  22.282
   613.0,0.001402,0.000809,0.011064,-0.000009,  22.267
   613.2,0.001374,0.000786,0.010998,-0.000031,  22.257
   613.4,0.001329,0.000748,0.011090,0.000017,  22.252
   613.6,0.001280,0.000701,0.011314,0.000017,  22.242
   613.8,0.001241,0.000664,0.011327,-0.000018,  22.241
   614.0,0.001199,0.000632,0.011321,0.000017,  22.243
   614.2,0.001163,0.000592,0.011281,0.000004,  22.238
   614.4,0.001149,0.000579,0.011347,-0.000057,  22.241
   614.6,0.001143,0.000579,0.011460,-0.000061,  22.241
   614.8,0.001163,0.000589,0.011606,-0.000100,  22.242
   615.0,0.001185,0.000602,0.011771,-0.000188,  22.241
   615.2,0.001195,0.000622,0.011964,-0.000218,  22.247
   615.4,0.001214,0.000653,0.012162,-0.000244,  22.245
   615.6,0.001249,0.000670,0.012143,-0.000257,  22.241
   615.8,0.001269,0.000687,0.012010,-0.000222,  22.244
   616.0,0.001276,0.000704,0.011785,-0.000196,  22.249
   616.2,0.001294,0.000715,0.011659,-0.000192,  22.248
   616.4,0.001305,0.000724,0.011539,-0.000166,  22.248
   616.6,0.001300,0.000733,0.011440,-0.000127,  22.249
   616.8,0.001306,0.000743,0.011327,-0.000135,  22.252
   617.0,0.001309,0.000745,0.011208,-0.000087,  22.268
   617.2,0.001311,0.000749,0.011096,-0.000061,  22.275
   617.4,0.001318,0.000753,0.010976,-0.000070,  22.288
   617.6,0.001315,0.000757,0.010864,-0.000022,  22.290
   617.8,0.001313,0.000760,0.010745,-0.000009,  22.292
   618.0,0.001314,0.000739,0.010653,-0.000031,  22.278
   618.2,0.001286,0.000695,0.010553,0.000017,  22.269
   618.4,0.001231,0.000648,0.010454,0.000030,  22.263
   618.6,0.001179,0.000612,0.010454,-0.000005,  22.258
   618.8,0.001140,0.000573,0.010474,0.000043,  22.251
   619.0,0.001088,0.000540,0.010540,0.000043,  22.253
   619.2,0.001053,0.000526,0.010559,0.000030,  22.255
   619.4,0.001047,0.000526,0.010599,0.000004,  22.260
   619.6,0.001046,0.000538,0.010606,-0.000022,  22.255
   619.8,0.001078,0.000546,0.010626,-0.000061,  22.258
   620.0,0.001095,0.000575,0.010765,-0.000148,  22.258
   620.2,0.001108,0.000601,0.010943,-0.000179,  22.254
   620.4,0.001140,0.000616,0.011162,-0.000205,  22.260
   620.6,0.001157,0.000626,0.010963,-0.000253,  22.260
   620.8,0.001164,0.000640,0.010548,-0.000231,  22.261
   621.0,0.001185,0.000646,0.009941,-0.000240,  22.265
   621.2,0.001199,0.000652,0.009855,-0.000214,  22.261
   621.4,0.001198,0.000658,0.009901,-0.000161,  22.266
   621.6,0.001210,0.000667,0.010118,-0.000157,  22.263
   621.8,0.001216,0.000668,0.010118,-0.000096,  22.266
   622.0,0.001206,0.000680,0.010078,-0.000083,  22.276
   622.2,0.001210,0.000689,0.010005,-0.000092,  22.286
   622.4,0.001210,0.000684,0.009946,-0.000031,  22.292
   622.6,0.001200,0.000691,0.009853,-0.000031,  22.300
   622.8,0.001202,0.000694,0.009774,-0.000018,  22.299
   623.0,0.001182,0.000671,0.009728,-0.000018,  22.286
   623.2,0.001151,0.000640,0.009661,0.000017,  22.279
   623.4,0.001115,0.000597,0.009628,0.000030,  22.281
   623.6,0.001071,0.000563,0.009562,0.000008,  22.272
   623.8,0.001022,0.000524,0.009483,0.000043,  22.276
   624.0,0.000984,0.000485,0.009391,0.000008,  22.271
   624.2,0.000933,0.000475,0.009155,-0.000005,  22.271
   624.4,0.000925,0.000472,0.008827,-0.000044,  22.272
   624.6,0.000924,0.000477,0.008407,-0.000118,  22.270
   624.8,0.000944,0.000487,0.008526,-0.000135,  22.272
   625.0,0.000960,0.000503,0.008867,-0.000201,  22.270
   625.2,0.000976,0.000523,0.009433,-0.000227,  22.269
   625.4,0.001008,0.000533,0.009584,-0.000266,  22.271
   625.6,0.001028,0.000548,0.009630,-0.000270,  22.268
   625.8,0.001032,0.000569,0.009584,-0.000257,  22.270
   626.0,0.001053,0.000579,0.009557,-0.000266,  22.271
   626.2,0.001064,0.000585,0.009491,-0.000179,  22.267
   626.4,0.001070,0.000596,0.009352,-0.000140,  22.269
   626.6,0.001079,0.000608,0.009050,-0.000148,  22.272
   626.8,0.001085,0.000610,0.008616,-0.000087,  22.274
   627.0,0.001090,0.000618,0.008072,-0.000061,  22.286
   627.2,0.001093,0.000620,0.008012,-0.000070,  22.292
   627.4,0.001096,0.000617,0.008123,-0.000070,  22.299
   627.6,0.001087,0.000615,0.008424,-0.000057,  22.298
   627.8,0.001084,0.000596,0.008286,-0.000031,  22.301
   628.0,0.001056,0.000562,0.008024,-0.000031,  22.291
   628.2,0.000999,0.000527,0.007651,-0.000031,  22.283
   628.4,0.000941,0.000498,0.007141,-0.000040,  22.279
   628.6,0.000893,0.000464,0.007173,-0.000005,  22.273
   628.8,0.000848,0.000425,0.007330,-0.000005,  22.271
   629.0,0.000805,0.000406,0.007617,-0.000040,  22.273
   629.2,0.000791,0.000387,0.007833,-0.000005,  22.265
   629.4,0.000796,0.000387,0.008069,-0.000031,  22.262
   629.6,0.000819,0.000388,0.008338,-0.000105,  22.263
   629.8,0.000838,0.000399,0.008528,-0.000122,  22.263
   630.0,0.000863,0.000426,0.008680,-0.000201,  22.264
   630.2,0.000897,0.000452,0.008818,-0.000240,  22.264
   630.4,0.000919,0.000471,0.008924,-0.000266,  22.263
   630.6,0.000939,0.000490,0.008996,-0.000283,  22.260
   630.8,0.000953,0.000507,0.009035,-0.000270,  22.263
   631.0,0.000964,0.000514,0.008989,-0.000266,  22.261
   631.2,0.000973,0.000529,0.008870,-0.000192,  22.260
   631.4,0.000978,0.000540,0.008692,-0.000153,  22.262
   631.6,0.000984,0.000545,0.008587,-0.000148,  22.260
   631.8,0.000987,0.000549,0.008475,-0.000087,  22.271
   632.0,0.000990,0.000560,0.008357,-0.000061,  22.282
   632.2,0.000992,0.000567,0.008219,-0.000070,  22.289
   632.4,0.000992,0.000564,0.008068,-0.000022,  22.299
   632.6,0.000992,0.000571,0.007865,-0.000009,  22.302
   632.8,0.000990,0.000560,0.007760,-0.000031,  22.298
   633.0,0.000955,0.000534,0.007675,0.000004,  22.289
   633.2,0.000910,0.000502,0.007602,0.000030,  22.281
   633.4,0.000857,0.000472,0.007543,-0.000005,  22.275
   633.6,0.000815,0.000439,0.007536,0.000030,  22.277
   633.8,0.000760,0.000396,0.007542,0.000030,  22.269
   634.0,0.000719,0.000373,0.007503,-0.000005,  22.271
   634.2,0.000703,0.000356,0.007464,0.000017,  22.269
   634.4,0.000700,0.000345,0.007425,-0.000035,  22.267
   634.6,0.000718,0.000349,0.007497,-0.000122,  22.268
   634.8,0.000732,0.000359,0.007629,-0.000166,  22.269
   635.0,0.000750,0.000385,0.007787,-0.000205,  22.266
   635.2,0.000784,0.000401,0.007892,-0.000279,  22.265
   635.4,0.000812,0.000417,0.007990,-0.000309,  22.264
   635.6,0.000825,0.000441,0.008062,-0.000309,  22.260
   635.8,0.000851,0.000453,0.008022,-0.000305,  22.263
   636.0,0.000871,0.000464,0.007923,-0.000231,  22.264
   636.2,0.000882,0.000479,0.007739,-0.000205,  22.265
   636.4,0.000897,0.000487,0.007674,-0.000201,  22.264
   636.6,0.000905,0.000493,0.007634,-0.000140,  22.268
   636.8,0.000911,0.000505,0.007601,-0.000114,  22.272
   637.0,0.000914,0.000511,0.007528,-0.000087,  22.282
   637.2,0.000917,0.000513,0.007496,-0.000074,  22.291
   637.4,0.000917,0.000523,0.007404,-0.000048,  22.297
   637.6,0.000919,0.000512,0.007325,-0.000022,  22.304
   637.8,0.000897,0.000499,0.007057,-0.000044,  22.299
   638.0,0.000863,0.000482,0.006724,-0.000009,  22.285
   638.2,0.000816,0.000458,0.006313,0.000004,  22.279
   638.4,0.000779,0.000432,0.006273,0.000004,  22.278
   638.6,0.000732,0.000404,0.006384,0.000052,  22.271
   638.8,0.000681,0.000374,0.006625,0.000065,  22.266
   639.0,0.000662,0.000351,0.006736,0.000065,  22.264
   639.2,0.000650,0.000323,0.006847,0.000065,  22.260
   639.4,0.000650,0.000306,0.006958,0.000039,  22.260
   639.6,0.000662,0.000308,0.007056,-0.000048,  22.258
   639.8,0.000684,0.000320,0.007116,-0.000140,  22.261
   640.0,0.000715,0.000351,0.007169,-0.000192,  22.256
   640.2,0.000737,0.000365,0.007300,-0.000279,  22.258
   640.4,0.000753,0.000386,0.007425,-0.000296,  22.261
   640.6,0.000766,0.000412,0.007588,-0.000318,  22.261
   640.8,0.000783,0.000422,0.007588,-0.000292,  22.256
   641.0,0.000797,0.000437,0.007522,-0.000240,  22.257
   641.2,0.000809,0.000446,0.007384,-0.000214,  22.258
   641.4,0.000817,0.000456,0.007272,-0.000174,  22.260
   641.6,0.000816,0.000461,0.007147,-0.000100,  22.258
   641.8,0.000829,0.000468,0.007004,-0.000074,  22.261
   642.0,0.000829,0.000469,0.006944,-0.000083,  22.275
   642.2,0.000825,0.000475,0.006885,-0.000022,  22.284
   642.4,0.000828,0.000478,0.006885,0.000004,  22.294
   642.6,0.000834,0.000471,0.006767,-0.000018,  22.297
   642.8,0.000820,0.000469,0.006623,0.000004,  22.292
   643.0,0.000785,0.000454,0.006421,0.000017,  22.273
   643.2,0.000753,0.000427,0.006323,-0.000018,  22.268
   643.4,0.000719,0.000398,0.006245,0.000017,  22.266
   643.6,0.000671,0.000358,0.006212,0.000030,  22.259
   643.8,0.000627,0.000331,0.006244,-0.000005,  22.256
   644.0,0.000602,0.000303,0.006309,0.000030,  22.253
   644.2,0.000575,0.000281,0.006433,0.000004,  22.255
   644.4,0.000559,0.000279,0.006544,-0.000083,  22.256
   644.6,0.000567,0.000288,0.006662,-0.000127,  22.252
   644.8,0.000587,0.000307,0.006794,-0.000179,  22.253
   645.0,0.000617,0.000320,0.006905,-0.000266,  22.251
   645.2,0.000640,0.000337,0.007029,-0.000283,  22.249
   645.4,0.000662,0.000357,0.007141,-0.000309,  22.250
   645.6,0.000685,0.000374,0.007042,-0.000344,  22.252
   645.8,0.000701,0.000381,0.006879,-0.000283,  22.253
   646.0,0.000718,0.000393,0.006598,-0.000244,  22.252
   646.2,0.000733,0.000404,0.006480,-0.000205,  22.253
   646.4,0.000745,0.000411,0.006415,-0.000179,  22.250
   646.6,0.000743,0.000423,0.006382,-0.000140,  22.256
   646.8,0.000753,0.000429,0.006381,-0.000135,  22.259
   647.0,0.000759,0.000433,0.006296,-0.000109,  22.272
   647.2,0.000755,0.000438,0.006217,-0.000096,  22.283
   647.4,0.000761,0.000440,0.006126,-0.000070,  22.288
   647.6,0.000750,0.000437,0.006041,-0.000057,  22.290
   647.8,0.000731,0.000434,0.005956,-0.000022,  22.283
   648.0,0.000712,0.000427,0.005865,-0.000044,  22.269
   648.2,0.000681,0.000401,0.005851,-0.000031,  22.264
   648.4,0.000633,0.000370,0.005864,-0.000018,  22.258
   648.6,0.000585,0.000323,0.005909,-0.000040,  22.256
   648.8,0.000554,0.000289,0.005531,-0.000005,  22.253
   649.0,0.000519,0.000257,0.004933,-0.000005,  22.249
   649.2,0.000501,0.000235,0.004136,-0.000066,  22.246
   649.4,0.000507,0.000231,0.004156,-0.000083,  22.246
   649.6,0.000517,0.000232,0.004480,-0.000161,  22.243
   649.8,0.000554,0.000260,0.005104,-0.000214,  22.246
   650.0,0.000579,0.000274,0.005403,-0.000279,  22.242
   650.2,0.000592,0.000291,0.005703,-0.000296,  22.242
   650.4,0.000624,0.000312,0.005977,-0.000296,  22.240
   650.6,0.000641,0.000326,0.006081,-0.000318,  22.239
   650.8,0.000648,0.000346,0.006074,-0.000244,  22.239
   651.0,0.000661,0.000359,0.005950,-0.000205,  22.240
   651.2,0.000666,0.000369,0.005845,-0.000214,  22.235
   651.4,0.000671,0.000381,0.005708,-0.000140,  22.238
   651.6,0.000683,0.000390,0.005513,-0.000100,  22.238
   651.8,0.000692,0.000391,0.005467,-0.000109,  22.247
   652.0,0.000695,0.000403,0.005486,-0.000061,  22.257
   652.2,0.000698,0.000410,0.005531,-0.000035,  22.269
   652.4,0.000701,0.000410,0.005479,-0.000022,  22.280
   652.6,0.000695,0.000410,0.005381,0.000013,  22.278
   652.8,0.000684,0.000407,0.005257,0.000026,  22.272
   653.0,0.000667,0.000381,0.005186,0.000039,  22.261
   653.2,0.000634,0.000345,0.005107,0.000039,  22.249
   653.4,0.000582,0.000299,0.005049,0.000065,  22.246
   653.6,0.000529,0.000263,0.005042,0.000030,  22.242
   653.8,0.000496,0.000227,0.005048,0.000030,  22.239
   654.0,0.000454,0.000198,0.005074,0.000017,  22.237
   654.2,0.000429,0.000194,0.005113,-0.000057,  22.234
   654.4,0.000422,0.000196,0.005159,-0.000087,  22.235
   654.6,0.000442,0.000216,0.005205,-0.000127,  22.236
   654.8,0.000471,0.000228,0.005329,-0.000201,  22.233
   655.0,0.000490,0.000247,0.005486,-0.000218,  22.234
   655.2,0.000515,0.000264,0.005701,-0.000270,  22.236
   655.4,0.000544,0.000277,0.005746,-0.000270,  22.235
