Run Name,Run 4
Run Date,04:51:44 PM   02-09-15
Method Name,16% C group 2 April 7 2014.11
Export Format Version, 1.00
Method ID, 2119
Points/Second, 5.00
Number of Records,   3330
Offset from Run Start Time,00:00:00
Run End Time,00:11:06
Time,Second
QuadTec 1, (280.0 nm), AU
QuadTec 2, (260.0 nm), AU
Gradient Pump,<Not Selected>
QuadTec 3, (214.0 nm), AU
QuadTec 4, (405.0 nm), AU
Conductivity,mS/cm
Trace 6,<Not Available>
GP Pressure,<Not Selected>
Volume,<Not Selected>
Fraction,<Not Available>
Time,QuadTec 1,QuadTec 2,QuadTec 3,QuadTec 4,Conductivity
     0.0,0.000284,0.000334,-0.006628,0.000169,  26.713
     0.2,0.000288,0.000330,-0.006306,0.000182,  26.711
     0.4,0.000288,0.000323,-0.005777,0.000160,  26.708
     0.6,0.000292,0.000320,-0.005028,0.000182,  26.704
     0.8,0.000294,0.000326,-0.004513,0.000217,  26.706
     1.0,0.000309,0.000330,-0.004008,0.000182,  26.705
     1.2,-0.000927,0.000349,-0.003499,0.000217,  26.701
     1.4,-0.000925,0.000342,-0.003143,0.000217,  26.709
     1.6,-0.000804,0.000323,-0.002833,0.000217,  26.714
     1.8,-0.000804,0.000296,-0.002627,0.000239,  26.720
     2.0,0.000000,0.000296,-0.002467,0.000204,  26.715
     2.2,0.000000,0.000301,-0.002203,0.000191,  26.718
     2.4,0.000000,0.000000,-0.001964,0.000191,  26.717
     2.6,0.000000,0.000000,-0.001713,0.000165,  26.711
     2.8,0.000000,0.000000,-0.001629,0.000178,  26.712
     3.0,0.000000,0.000000,-0.001614,0.000191,  26.709
     3.2,0.000000,0.000000,-0.001676,0.000204,  26.702
     3.4,0.000000,0.000000,-0.001197,0.000217,  26.699
     3.6,0.000000,0.000000,-0.000487,0.000230,  26.696
     3.8,0.000000,0.000000,-0.001514,0.000204,  26.694
     4.0,0.000000,0.000000,-0.001514,0.000239,  26.697
     4.2,0.000000,0.000000,-0.001514,0.000274,  26.692
     4.4,0.000000,0.000000,-0.001514,0.000296,  26.693
     4.6,0.000000,0.000000,0.000000,-0.006441,  26.688
     4.8,0.000000,0.000000,0.000000,0.000000,  26.689
     5.0,0.000000,0.000000,0.000000,0.000000,  26.690
     5.2,0.000000,0.000000,0.000000,0.000000,  26.689
     5.4,0.000000,0.000000,0.000000,0.000000,  26.686
     5.6,-0.000032,0.000000,0.000000,0.000000,  26.688
     5.8,-0.000046,0.000000,0.000000,0.000000,  26.688
     6.0,-0.000051,0.000000,0.000000,0.000000,  26.688
     6.2,-0.000040,0.000000,0.000000,0.000000,  26.690
     6.4,-0.000021,0.000000,0.000000,0.000000,  26.690
     6.6,0.000010,0.000000,0.000000,0.000000,  26.693
     6.8,0.000038,0.000000,0.000000,0.000000,  26.698
     7.0,0.000066,-0.000090,0.000000,0.000000,  26.701
     7.2,0.000094,-0.000079,0.000000,0.000000,  26.699
     7.4,0.000112,-0.000067,0.000000,0.000000,  26.698
     7.6,0.000128,-0.000050,0.000000,0.000000,  26.695
     7.8,0.000145,-0.000036,0.000000,0.000000,  26.691
     8.0,0.000155,-0.000016,0.000000,0.000000,  26.695
     8.2,0.000172,0.000011,0.000000,0.000000,  26.688
     8.4,0.000196,0.000025,0.000045,0.000000,  26.685
     8.6,0.000205,0.000039,-0.000020,0.000000,  26.679
     8.8,0.000206,0.000055,-0.000084,0.000000,  26.681
     9.0,0.000215,0.000068,-0.000154,0.000000,  26.680
     9.2,0.000201,0.000081,-0.000245,-0.000117,  26.682
     9.4,0.000169,0.000096,-0.000341,-0.000126,  26.673
     9.6,0.000136,0.000108,-0.000443,-0.000113,  26.674
     9.8,0.000111,0.000120,-0.000508,-0.000087,  26.674
    10.0,0.000074,0.000124,-0.000559,-0.000061,  26.675
    10.2,0.000044,0.000135,-0.000610,-0.000022,  26.672
    10.4,0.000016,0.000133,-0.000713,0.000017,  26.666
    10.6,-0.000013,0.000121,-0.000853,0.000069,  26.666
    10.8,-0.000034,0.000101,-0.001025,0.000095,  26.667
    11.0,-0.000057,0.000084,-0.001076,0.000122,  26.663
    11.2,-0.000072,0.000050,-0.001115,0.000126,  26.669
    11.4,-0.000077,0.000018,-0.001121,0.000139,  26.670
    11.6,-0.000068,-0.000012,-0.001077,0.000152,  26.673
    11.8,-0.000054,-0.000044,-0.001026,0.000143,  26.682
    12.0,-0.000044,-0.000068,-0.000950,0.000143,  26.686
    12.2,-0.000009,-0.000083,-0.000873,0.000178,  26.684
    12.4,0.000013,-0.000094,-0.000789,0.000191,  26.686
    12.6,0.000039,-0.000098,-0.000706,0.000191,  26.683
    12.8,0.000070,-0.000092,-0.000590,0.000191,  26.683
    13.0,0.000090,-0.000080,-0.000468,0.000178,  26.676
    13.2,0.000110,-0.000060,-0.000321,0.000139,  26.672
    13.4,0.000129,-0.000046,-0.000263,0.000074,  26.668
    13.6,0.000146,-0.000031,-0.000270,0.000048,  26.661
    13.8,0.000160,-0.000006,-0.000302,0.000008,  26.659
    14.0,0.000171,0.000013,-0.000353,-0.000044,  26.659
    14.2,0.000168,0.000022,-0.000448,-0.000057,  26.653
    14.4,0.000154,0.000043,-0.000576,-0.000083,  26.655
    14.6,0.000135,0.000058,-0.000564,-0.000109,  26.650
    14.8,0.000112,0.000068,-0.000500,-0.000109,  26.647
    15.0,0.000079,0.000078,-0.000393,-0.000083,  26.644
    15.2,0.000040,0.000085,-0.000406,-0.000070,  26.645
    15.4,0.000006,0.000089,-0.000445,-0.000044,  26.643
    15.6,-0.000033,0.000091,-0.000535,-0.000018,  26.640
    15.8,-0.000072,0.000072,-0.000611,0.000008,  26.638
    16.0,-0.000086,0.000044,-0.000726,0.000035,  26.639
    16.2,-0.000094,0.000006,-0.000885,0.000061,  26.639
    16.4,-0.000092,-0.000024,-0.000949,0.000074,  26.644
    16.6,-0.000078,-0.000051,-0.000981,0.000087,  26.648
    16.8,-0.000058,-0.000078,-0.000994,0.000065,  26.651
    17.0,-0.000027,-0.000095,-0.000981,0.000126,  26.658
    17.2,-0.000002,-0.000109,-0.000936,0.000152,  26.657
    17.4,0.000026,-0.000118,-0.000872,0.000165,  26.660
    17.6,0.000051,-0.000121,-0.000789,0.000178,  26.654
    17.8,0.000080,-0.000113,-0.000687,0.000165,  26.651
    18.0,0.000102,-0.000095,-0.000565,0.000152,  26.644
    18.2,0.000119,-0.000075,-0.000404,0.000126,  26.643
    18.4,0.000143,-0.000058,-0.000359,0.000074,  26.634
    18.6,0.000157,-0.000039,-0.000378,0.000048,  26.632
    18.8,0.000158,-0.000020,-0.000441,0.000008,  26.625
    19.0,0.000164,-0.000001,-0.000454,-0.000044,  26.627
    19.2,0.000167,0.000011,-0.000474,-0.000070,  26.623
    19.4,0.000161,0.000031,-0.000513,-0.000096,  26.619
    19.6,0.000144,0.000048,-0.000583,-0.000135,  26.618
    19.8,0.000112,0.000060,-0.000679,-0.000122,  26.618
    20.0,0.000082,0.000077,-0.000826,-0.000109,  26.616
    20.2,0.000046,0.000084,-0.000884,-0.000096,  26.619
    20.4,0.000013,0.000086,-0.000916,-0.000070,  26.612
    20.6,-0.000021,0.000091,-0.000936,-0.000031,  26.612
    20.8,-0.000056,0.000079,-0.000950,-0.000005,  26.609
    21.0,-0.000085,0.000050,-0.000944,0.000021,  26.611
    21.2,-0.000105,0.000017,-0.000937,0.000048,  26.616
    21.4,-0.000115,-0.000008,-0.000975,0.000074,  26.616
    21.6,-0.000116,-0.000032,-0.001071,0.000113,  26.623
    21.8,-0.000099,-0.000062,-0.001198,0.000126,  26.627
    22.0,-0.000064,-0.000085,-0.001154,0.000126,  26.633
    22.2,-0.000049,-0.000109,-0.001058,0.000139,  26.637
    22.4,-0.000021,-0.000130,-0.000905,0.000165,  26.648
    22.6,0.000007,-0.000135,-0.000816,0.000165,  26.643
    22.8,0.000030,-0.000134,-0.000700,0.000152,  26.643
    23.0,0.000052,-0.000118,-0.000571,0.000139,  26.633
    23.2,0.000075,-0.000108,-0.000494,0.000113,  26.623
    23.4,0.000088,-0.000093,-0.000424,0.000074,  26.615
    23.6,0.000102,-0.000063,-0.000347,0.000035,  26.605
    23.8,0.000116,-0.000044,-0.000513,-0.000018,  26.605
    24.0,0.000127,-0.000032,-0.000793,-0.000044,  26.602
    24.2,0.000130,-0.000006,-0.001214,-0.000096,  26.599
    24.4,0.000130,0.000011,-0.001323,-0.000148,  26.598
    24.6,0.000111,0.000019,-0.001317,-0.000148,  26.599
    24.8,0.000080,0.000034,-0.001247,-0.000161,  26.594
    25.0,0.000032,0.000047,-0.001229,-0.000148,  26.588
    25.2,-0.000001,0.000048,-0.001198,-0.000109,  26.583
    25.4,-0.000032,0.000053,-0.001154,-0.000096,  26.587
    25.6,-0.000068,0.000044,-0.001237,-0.000057,  26.582
    25.8,-0.000102,0.000032,-0.001396,-0.000031,  26.585
    26.0,-0.000132,0.000007,-0.001600,-0.000005,  26.582
    26.2,-0.000166,-0.000016,-0.001880,0.000008,  26.586
    26.4,-0.000172,-0.000049,-0.001868,0.000021,  26.590
    26.6,-0.000160,-0.000084,-0.001785,0.000013,  26.597
    26.8,-0.000138,-0.000114,-0.001626,0.000074,  26.601
    27.0,-0.000116,-0.000133,-0.001525,0.000087,  26.617
    27.2,-0.000085,-0.000158,-0.001397,0.000113,  26.620
    27.4,-0.000051,-0.000174,-0.001245,0.000113,  26.623
    27.6,-0.000023,-0.000182,-0.001148,0.000126,  26.627
    27.8,0.000002,-0.000186,-0.001065,0.000126,  26.623
    28.0,0.000027,-0.000182,-0.001013,0.000126,  26.615
    28.2,0.000052,-0.000165,-0.000929,0.000113,  26.608
    28.4,0.000074,-0.000149,-0.000858,0.000074,  26.607
    28.6,0.000094,-0.000114,-0.000813,0.000035,  26.601
    28.8,0.000107,-0.000091,-0.000736,-0.000018,  26.602
    29.0,0.000121,-0.000073,-0.000660,-0.000044,  26.597
    29.2,0.000126,-0.000044,-0.000604,-0.000096,  26.591
    29.4,0.000120,-0.000023,-0.000649,-0.000148,  26.588
    29.6,0.000114,-0.000011,-0.000758,-0.000161,  26.590
    29.8,0.000097,0.000013,-0.000911,-0.000187,  26.589
    30.0,0.000084,0.000033,-0.001001,-0.000200,  26.585
    30.2,0.000050,0.000041,-0.001071,-0.000174,  26.582
    30.4,0.000020,0.000055,-0.001142,-0.000148,  26.586
    30.6,-0.000025,0.000052,-0.001175,-0.000109,  26.587
    30.8,-0.000061,0.000052,-0.001200,-0.000083,  26.589
    31.0,-0.000097,0.000041,-0.001207,-0.000044,  26.590
    31.2,-0.000139,0.000017,-0.001207,-0.000018,  26.587
    31.4,-0.000153,-0.000013,-0.001233,0.000043,  26.589
    31.6,-0.000153,-0.000042,-0.001258,0.000069,  26.595
    31.8,-0.000145,-0.000070,-0.001252,0.000082,  26.602
    32.0,-0.000125,-0.000109,-0.001233,0.000143,  26.614
    32.2,-0.000097,-0.000140,-0.001208,0.000169,  26.617
    32.4,-0.000064,-0.000155,-0.001156,0.000148,  26.622
    32.6,-0.000033,-0.000173,-0.001092,0.000161,  26.625
    32.8,-0.000002,-0.000175,-0.001002,0.000174,  26.626
    33.0,0.000028,-0.000166,-0.000886,0.000187,  26.619
    33.2,0.000054,-0.000147,-0.000770,0.000174,  26.615
    33.4,0.000076,-0.000118,-0.000636,0.000135,  26.612
    33.6,0.000096,-0.000095,-0.000584,0.000069,  26.610
    33.8,0.000112,-0.000074,-0.000571,0.000030,  26.610
    34.0,0.000126,-0.000049,-0.000571,-0.000009,  26.606
    34.2,0.000140,-0.000022,-0.000578,-0.000061,  26.606
    34.4,0.000155,-0.000005,-0.000597,-0.000135,  26.608
    34.6,0.000150,0.000018,-0.000623,-0.000148,  26.603
    34.8,0.000141,0.000033,-0.000662,-0.000187,  26.600
    35.0,0.000126,0.000041,-0.000713,-0.000200,  26.600
    35.2,0.000087,0.000055,-0.000758,-0.000174,  26.602
    35.4,0.000030,0.000062,-0.000835,-0.000161,  26.599
    35.6,-0.000007,0.000063,-0.000912,-0.000122,  26.601
    35.8,-0.000046,0.000072,-0.000988,-0.000131,  26.602
    36.0,-0.000085,0.000066,-0.001065,-0.000057,  26.603
    36.2,-0.000107,0.000048,-0.001097,-0.000018,  26.601
    36.4,-0.000127,0.000025,-0.001123,0.000035,  26.602
    36.6,-0.000135,-0.000003,-0.001123,0.000048,  26.605
    36.8,-0.000124,-0.000023,-0.001098,0.000061,  26.614
    37.0,-0.000105,-0.000053,-0.001060,0.000100,  26.623
    37.2,-0.000071,-0.000089,-0.000996,0.000113,  26.622
    37.4,-0.000046,-0.000109,-0.001123,0.000126,  26.631
    37.6,-0.000018,-0.000131,-0.001327,0.000139,  26.628
    37.8,0.000007,-0.000145,-0.001606,0.000152,  26.629
    38.0,0.000032,-0.000147,-0.001541,0.000152,  26.630
    38.2,0.000060,-0.000136,-0.001337,0.000139,  26.627
    38.4,0.000083,-0.000122,-0.001017,0.000126,  26.620
    38.6,0.000102,-0.000108,-0.000826,0.000100,  26.622
    38.8,0.000110,-0.000087,-0.000640,0.000074,  26.610
    39.0,0.000118,-0.000061,-0.000487,0.000021,  26.613
    39.2,0.000130,-0.000039,-0.000468,-0.000031,  26.608
    39.4,0.000141,-0.000025,-0.000519,-0.000057,  26.606
    39.6,0.000153,-0.000006,-0.000666,-0.000109,  26.604
    39.8,0.000158,0.000013,-0.000717,-0.000161,  26.602
    40.0,0.000139,0.000023,-0.000788,-0.000161,  26.603
    40.2,0.000111,0.000043,-0.000858,-0.000161,  26.600
    40.4,0.000063,0.000055,-0.000884,-0.000148,  26.596
    40.6,0.000030,0.000066,-0.000891,-0.000122,  26.598
    40.8,-0.000004,0.000077,-0.000884,-0.000096,  26.598
    41.0,-0.000043,0.000073,-0.001146,-0.000070,  26.595
    41.2,-0.000074,0.000056,-0.001528,-0.000031,  26.598
    41.4,-0.000102,0.000033,-0.002037,-0.000005,  26.598
    41.6,-0.000132,0.000011,-0.002056,0.000008,  26.602
    41.8,-0.000132,-0.000021,-0.001878,0.000035,  26.602
    42.0,-0.000118,-0.000055,-0.001548,0.000061,  26.606
    42.2,-0.000093,-0.000082,-0.001401,0.000087,  26.620
    42.4,-0.000068,-0.000113,-0.001274,0.000113,  26.626
    42.6,-0.000040,-0.000142,-0.001147,0.000126,  26.627
    42.8,-0.000010,-0.000149,-0.000974,0.000139,  26.624
    43.0,0.000018,-0.000149,-0.000802,0.000152,  26.630
    43.2,0.000044,-0.000137,-0.000616,0.000165,  26.625
    43.4,0.000072,-0.000122,-0.000622,0.000139,  26.621
    43.6,0.000094,-0.000101,-0.000736,0.000113,  26.615
    43.8,0.000111,-0.000070,-0.000952,0.000074,  26.614
    44.0,0.000127,-0.000046,-0.000945,0.000008,  26.608
    44.2,0.000144,-0.000028,-0.000862,-0.000031,  26.610
    44.4,0.000155,-0.000005,-0.000735,-0.000057,  26.609
    44.6,0.000173,0.000014,-0.000703,-0.000083,  26.602
    44.8,0.000161,0.000029,-0.000678,-0.000122,  26.599
    45.0,0.000144,0.000042,-0.000710,-0.000170,  26.603
    45.2,0.000120,0.000055,-0.000730,-0.000148,  26.595
    45.4,0.000086,0.000067,-0.000736,-0.000148,  26.601
    45.6,0.000049,0.000078,-0.000769,-0.000122,  26.597
    45.8,0.000011,0.000082,-0.000807,-0.000096,  26.598
    46.0,-0.000032,0.000084,-0.000833,-0.000070,  26.596
    46.2,-0.000068,0.000082,-0.000872,-0.000031,  26.599
    46.4,-0.000101,0.000076,-0.000910,0.000008,  26.601
    46.6,-0.000118,0.000057,-0.000904,0.000021,  26.599
    46.8,-0.000116,0.000026,-0.000904,0.000048,  26.603
    47.0,-0.000095,-0.000013,-0.000879,0.000074,  26.607
    47.2,-0.000079,-0.000041,-0.000892,0.000087,  26.615
    47.4,-0.000051,-0.000073,-0.000917,0.000113,  26.620
    47.6,-0.000011,-0.000104,-0.000974,0.000113,  26.623
    47.8,0.000011,-0.000121,-0.000923,0.000126,  26.627
    48.0,0.000027,-0.000128,-0.000814,0.000139,  26.628
    48.2,0.000050,-0.000122,-0.000660,0.000152,  26.623
    48.4,0.000067,-0.000114,-0.000888,0.000152,  26.622
    48.6,0.000087,-0.000097,-0.001276,0.000126,  26.616
    48.8,0.000109,-0.000073,-0.001828,0.000087,  26.616
    49.0,0.000131,-0.000054,-0.001783,0.000035,  26.612
    49.2,0.000141,-0.000033,-0.001548,-0.000005,  26.608
    49.4,0.000155,-0.000012,-0.001109,-0.000044,  26.609
    49.6,0.000170,0.000011,-0.000975,-0.000083,  26.605
    49.8,0.000167,0.000028,-0.000899,-0.000109,  26.605
    50.0,0.000164,0.000047,-0.000881,-0.000135,  26.602
    50.2,0.000157,0.000064,-0.000811,-0.000161,  26.596
    50.4,0.000125,0.000072,-0.000735,-0.000148,  26.598
    50.6,0.000086,0.000084,-0.000679,-0.000122,  26.594
    50.8,0.000042,0.000091,-0.000820,-0.000096,  26.593
    51.0,-0.000001,0.000091,-0.001075,-0.000057,  26.599
    51.2,-0.000040,0.000089,-0.001419,-0.000018,  26.592
    51.4,-0.000075,0.000072,-0.001432,0.000008,  26.597
    51.6,-0.000105,0.000042,-0.001349,0.000035,  26.591
    51.8,-0.000121,0.000004,-0.001158,0.000061,  26.595
    52.0,-0.000123,-0.000024,-0.001107,0.000087,  26.597
    52.2,-0.000118,-0.000053,-0.001075,0.000113,  26.604
    52.4,-0.000102,-0.000080,-0.001063,0.000113,  26.607
    52.6,-0.000064,-0.000104,-0.000954,0.000126,  26.615
    52.8,-0.000046,-0.000127,-0.000807,0.000139,  26.616
    53.0,-0.000008,-0.000145,-0.000616,0.000165,  26.622
    53.2,0.000026,-0.000143,-0.000513,0.000165,  26.617
    53.4,0.000045,-0.000133,-0.000410,0.000165,  26.621
    53.6,0.000077,-0.000112,-0.000371,0.000152,  26.616
    53.8,0.000099,-0.000093,-0.000338,0.000126,  26.607
    54.0,0.000112,-0.000075,-0.000305,0.000087,  26.612
    54.2,0.000126,-0.000044,-0.000273,0.000013,  26.599
    54.4,0.000137,-0.000027,-0.000253,0.000008,  26.596
    54.6,0.000139,-0.000015,-0.000247,-0.000031,  26.594
    54.8,0.000144,0.000000,-0.000235,-0.000057,  26.599
    55.0,0.000154,0.000009,-0.000261,-0.000109,  26.590
    55.2,0.000127,0.000019,-0.000351,-0.000161,  26.594
    55.4,0.000091,0.000033,-0.000466,-0.000161,  26.591
    55.6,0.000050,0.000041,-0.000633,-0.000161,  26.593
    55.8,0.000010,0.000050,-0.000691,-0.000148,  26.595
    56.0,-0.000017,0.000058,-0.000723,-0.000109,  26.593
    56.2,-0.000049,0.000067,-0.000736,-0.000096,  26.594
    56.4,-0.000077,0.000058,-0.000788,-0.000057,  26.595
    56.6,-0.000099,0.000039,-0.000839,-0.000018,  26.590
    56.8,-0.000126,0.000009,-0.000922,0.000008,  26.595
    57.0,-0.000136,-0.000014,-0.000954,0.000035,  26.598
    57.2,-0.000133,-0.000042,-0.000941,0.000095,  26.599
    57.4,-0.000122,-0.000071,-0.000935,0.000109,  26.601
    57.6,-0.000099,-0.000099,-0.001337,0.000122,  26.607
    57.8,-0.000081,-0.000126,-0.001922,0.000183,  26.610
    58.0,-0.000044,-0.000156,-0.002702,0.000196,  26.619
    58.2,-0.000013,-0.000164,-0.002675,0.000174,  26.620
    58.4,0.000008,-0.000158,-0.002338,0.000187,  26.617
    58.6,0.000031,-0.000146,-0.001676,0.000187,  26.616
    58.8,0.000053,-0.000132,-0.001377,0.000161,  26.612
    59.0,0.000069,-0.000110,-0.001103,0.000122,  26.609
    59.2,0.000086,-0.000088,-0.000867,0.000082,  26.604
    59.4,0.000109,-0.000068,-0.000912,0.000030,  26.601
    59.6,0.000116,-0.000046,-0.001122,-0.000022,  26.594
    59.8,0.000127,-0.000025,-0.001517,-0.000074,  26.593
    60.0,0.000143,-0.000003,-0.001537,-0.000113,  26.596
    60.2,0.000127,0.000010,-0.001461,-0.000113,  26.592
    60.4,0.000105,0.000021,-0.001296,-0.000139,  26.590
    60.6,0.000078,0.000040,-0.001252,-0.000139,  26.590
    60.8,0.000038,0.000051,-0.001208,-0.000113,  26.591
    61.0,0.000000,0.000057,-0.001208,-0.000087,  26.588
    61.2,-0.000037,0.000063,-0.001445,-0.000048,  26.587
    61.4,-0.000080,0.000061,-0.001782,-0.000009,  26.588
    61.6,-0.000116,0.000057,-0.002246,0.000017,  26.589
    61.8,-0.000153,0.000033,-0.002285,0.000043,  26.586
    62.0,-0.000168,-0.000003,-0.002164,0.000069,  26.592
    62.2,-0.000155,-0.000047,-0.001878,0.000095,  26.592
    62.4,-0.000136,-0.000085,-0.001764,0.000109,  26.600
    62.6,-0.000123,-0.000124,-0.001650,0.000122,  26.604
    62.8,-0.000095,-0.000157,-0.001535,0.000148,  26.605
    63.0,-0.000061,-0.000179,-0.001427,0.000113,  26.615
    63.2,-0.000040,-0.000190,-0.001261,0.000161,  26.615
    63.4,-0.000010,-0.000188,-0.001070,0.000139,  26.616
    63.6,0.000020,-0.000180,-0.000865,0.000139,  26.613
    63.8,0.000032,-0.000172,-0.000744,0.000174,  26.608
    64.0,0.000052,-0.000148,-0.000654,0.000148,  26.606
    64.2,0.000070,-0.000117,-0.000608,0.000109,  26.602
    64.4,0.000080,-0.000095,-0.000569,0.000043,  26.596
    64.6,0.000097,-0.000072,-0.000557,-0.000009,  26.591
    64.8,0.000115,-0.000049,-0.000544,-0.000048,  26.589
    65.0,0.000120,-0.000037,-0.000500,-0.000087,  26.590
    65.2,0.000113,-0.000019,-0.000456,-0.000126,  26.586
    65.4,0.000112,0.000001,-0.000393,-0.000139,  26.586
    65.6,0.000098,0.000015,-0.000439,-0.000152,  26.579
    65.8,0.000070,0.000028,-0.000528,-0.000174,  26.581
    66.0,0.000028,0.000040,-0.000701,-0.000148,  26.579
    66.2,-0.000025,0.000048,-0.000810,-0.000122,  26.583
    66.4,-0.000071,0.000048,-0.000886,-0.000131,  26.583
    66.6,-0.000113,0.000042,-0.000988,-0.000105,  26.582
    66.8,-0.000151,0.000023,-0.001052,-0.000031,  26.581
    67.0,-0.000174,-0.000013,-0.001071,0.000008,  26.581
    67.2,-0.000183,-0.000053,-0.001103,0.000021,  26.580
    67.4,-0.000176,-0.000092,-0.001142,0.000035,  26.588
    67.6,-0.000166,-0.000122,-0.001174,0.000061,  26.595
    67.8,-0.000138,-0.000150,-0.001218,0.000074,  26.599
    68.0,-0.000092,-0.000173,-0.001193,0.000087,  26.602
    68.2,-0.000068,-0.000192,-0.001122,0.000113,  26.603
    68.4,-0.000037,-0.000204,-0.001007,0.000113,  26.601
    68.6,0.000000,-0.000195,-0.000917,0.000126,  26.604
    68.8,0.000024,-0.000182,-0.000814,0.000113,  26.603
    69.0,0.000052,-0.000159,-0.000692,0.000100,  26.595
    69.2,0.000084,-0.000143,-0.000615,0.000048,  26.591
    69.4,0.000097,-0.000116,-0.000576,0.000008,  26.587
    69.6,0.000113,-0.000078,-0.000563,-0.000031,  26.582
    69.8,0.000134,-0.000058,-0.000531,-0.000096,  26.578
    70.0,0.000139,-0.000044,-0.000545,-0.000135,  26.579
    70.2,0.000141,-0.000019,-0.000565,-0.000161,  26.575
    70.4,0.000148,0.000000,-0.000610,-0.000213,  26.575
    70.6,0.000122,0.000012,-0.000661,-0.000213,  26.570
    70.8,0.000083,0.000032,-0.000764,-0.000187,  26.573
    71.0,0.000036,0.000047,-0.000847,-0.000148,  26.571
    71.2,-0.000007,0.000053,-0.000950,-0.000122,  26.570
    71.4,-0.000046,0.000063,-0.001032,-0.000096,  26.569
    71.6,-0.000078,0.000050,-0.001153,-0.000057,  26.572
    71.8,-0.000113,0.000028,-0.001466,-0.000044,  26.568
    72.0,-0.000141,-0.000010,-0.001841,-0.000053,  26.565
    72.2,-0.000154,-0.000031,-0.002305,0.000008,  26.567
    72.4,-0.000155,-0.000057,-0.002324,0.000035,  26.572
    72.6,-0.000138,-0.000072,-0.002159,0.000061,  26.579
    72.8,-0.000101,-0.000094,-0.001803,0.000087,  26.584
    73.0,-0.000079,-0.000122,-0.001683,0.000100,  26.587
    73.2,-0.000051,-0.000149,-0.001587,0.000126,  26.588
    73.4,-0.000014,-0.000172,-0.001516,0.000139,  26.597
    73.6,0.000007,-0.000176,-0.001343,0.000139,  26.593
    73.8,0.000035,-0.000172,-0.001132,0.000139,  26.593
    74.0,0.000060,-0.000152,-0.000915,0.000139,  26.588
    74.2,0.000080,-0.000135,-0.000781,0.000100,  26.586
    74.4,0.000090,-0.000115,-0.000659,0.000074,  26.580
    74.6,0.000098,-0.000085,-0.000595,0.000021,  26.573
    74.8,0.000113,-0.000062,-0.000984,-0.000044,  26.577
    75.0,0.000125,-0.000044,-0.001615,-0.000070,  26.574
    75.2,0.000136,-0.000022,-0.002491,-0.000122,  26.572
    75.4,0.000147,-0.000003,-0.002548,-0.000174,  26.567
    75.6,0.000136,0.000012,-0.002352,-0.000174,  26.566
    75.8,0.000108,0.000027,-0.001858,-0.000187,  26.565
    76.0,0.000072,0.000040,-0.001718,-0.000174,  26.560
    76.2,0.000044,0.000053,-0.001642,-0.000148,  26.559
    76.4,0.000004,0.000067,-0.001611,-0.000109,  26.560
    76.6,-0.000035,0.000064,-0.001942,-0.000070,  26.557
    76.8,-0.000071,0.000051,-0.002495,-0.000031,  26.557
    77.0,-0.000113,0.000034,-0.003248,0.000008,  26.557
    77.2,-0.000155,0.000011,-0.003248,0.000021,  26.557
    77.4,-0.000163,-0.000026,-0.002995,0.000048,  26.560
    77.6,-0.000160,-0.000059,-0.002456,0.000087,  26.566
    77.8,-0.000141,-0.000088,-0.002235,0.000100,  26.567
    78.0,-0.000118,-0.000124,-0.002025,0.000126,  26.577
    78.2,-0.000088,-0.000155,-0.001853,0.000139,  26.582
    78.4,-0.000051,-0.000172,-0.001656,0.000139,  26.589
    78.6,-0.000021,-0.000179,-0.001445,0.000152,  26.590
    78.8,0.000010,-0.000180,-0.001253,0.000165,  26.586
    79.0,0.000045,-0.000167,-0.001043,0.000139,  26.584
    79.2,0.000063,-0.000145,-0.000812,0.000113,  26.576
    79.4,0.000086,-0.000105,-0.000576,0.000087,  26.570
    79.6,0.000109,-0.000082,-0.000486,0.000021,  26.558
    79.8,0.000119,-0.000054,-0.000474,-0.000018,  26.554
    80.0,0.000133,-0.000033,-0.000544,-0.000044,  26.553
    80.2,0.000147,-0.000018,-0.000550,-0.000096,  26.541
    80.4,0.000150,0.000007,-0.000569,-0.000122,  26.543
    80.6,0.000136,0.000024,-0.000614,-0.000135,  26.543
    80.8,0.000116,0.000038,-0.000653,-0.000161,  26.538
    81.0,0.000088,0.000046,-0.000685,-0.000174,  26.535
    81.2,0.000049,0.000062,-0.000750,-0.000183,  26.533
    81.4,0.000002,0.000067,-0.000788,-0.000135,  26.536
    81.6,-0.000040,0.000071,-0.000833,-0.000109,  26.535
    81.8,-0.000082,0.000069,-0.000903,-0.000083,  26.532
    82.0,-0.000124,0.000067,-0.000973,-0.000044,  26.534
    82.2,-0.000141,0.000043,-0.000993,-0.000005,  26.531
    82.4,-0.000146,0.000007,-0.000999,0.000021,  26.535
    82.6,-0.000141,-0.000033,-0.000987,0.000048,  26.539
    82.8,-0.000124,-0.000067,-0.000975,0.000074,  26.548
    83.0,-0.000099,-0.000099,-0.000956,0.000113,  26.555
    83.2,-0.000068,-0.000129,-0.000930,0.000139,  26.564
    83.4,-0.000046,-0.000150,-0.000854,0.000139,  26.566
    83.6,-0.000030,-0.000159,-0.000777,0.000152,  26.568
    83.8,-0.000004,-0.000167,-0.000642,0.000178,  26.564
    84.0,0.000022,-0.000164,-0.000929,0.000165,  26.561
    84.2,0.000045,-0.000150,-0.001424,0.000152,  26.560
    84.4,0.000067,-0.000126,-0.002096,0.000113,  26.552
    84.6,0.000087,-0.000107,-0.002121,0.000061,  26.545
    84.8,0.000097,-0.000087,-0.001943,0.000021,  26.539
    85.0,0.000111,-0.000061,-0.001529,-0.000018,  26.538
    85.2,0.000129,-0.000040,-0.001358,-0.000070,  26.533
    85.4,0.000127,-0.000023,-0.001212,-0.000096,  26.530
    85.6,0.000125,-0.000001,-0.001092,-0.000135,  26.525
    85.8,0.000129,0.000016,-0.001035,-0.000174,  26.525
    86.0,0.000097,0.000026,-0.001004,-0.000174,  26.525
    86.2,0.000052,0.000035,-0.001030,-0.000161,  26.522
    86.4,-0.000004,0.000047,-0.001006,-0.000135,  26.528
    86.6,-0.000040,0.000050,-0.000955,-0.000096,  26.525
    86.8,-0.000082,0.000054,-0.000898,-0.000070,  26.525
    87.0,-0.000115,0.000041,-0.000917,-0.000044,  26.526
    87.2,-0.000149,0.000011,-0.000956,-0.000005,  26.526
    87.4,-0.000172,-0.000027,-0.001007,0.000035,  26.527
    87.6,-0.000184,-0.000056,-0.001083,0.000048,  26.530
    87.8,-0.000186,-0.000084,-0.001185,0.000074,  26.534
    88.0,-0.000163,-0.000113,-0.001306,0.000100,  26.544
    88.2,-0.000127,-0.000142,-0.001306,0.000113,  26.553
    88.4,-0.000099,-0.000170,-0.001268,0.000126,  26.560
    88.6,-0.000071,-0.000195,-0.001184,0.000139,  26.566
    88.8,-0.000034,-0.000199,-0.001095,0.000152,  26.566
    89.0,-0.000012,-0.000195,-0.000980,0.000152,  26.558
    89.2,0.000013,-0.000173,-0.000813,0.000139,  26.559
    89.4,0.000039,-0.000149,-0.000654,0.000126,  26.554
    89.6,0.000052,-0.000126,-0.000736,0.000100,  26.548
    89.8,0.000072,-0.000098,-0.000901,0.000039,  26.544
    90.0,0.000089,-0.000084,-0.001155,0.000021,  26.539
    90.2,0.000091,-0.000070,-0.001174,-0.000044,  26.537
    90.4,0.000106,-0.000056,-0.001143,-0.000083,  26.542
    90.6,0.000116,-0.000046,-0.001023,-0.000122,  26.538
    90.8,0.000089,-0.000031,-0.001023,-0.000187,  26.539
    91.0,0.000059,-0.000013,-0.001030,-0.000200,  26.536
    91.2,0.000014,0.000010,-0.001082,-0.000187,  26.539
    91.4,-0.000026,0.000018,-0.001134,-0.000187,  26.539
    91.6,-0.000060,0.000029,-0.001191,-0.000161,  26.539
    91.8,-0.000092,0.000030,-0.001261,-0.000122,  26.536
    92.0,-0.000120,0.000017,-0.001574,-0.000083,  26.536
    92.2,-0.000155,0.000002,-0.002025,-0.000044,  26.537
    92.4,-0.000170,-0.000018,-0.002609,-0.000018,  26.540
    92.6,-0.000196,-0.000042,-0.002629,0.000008,  26.539
    92.8,-0.000196,-0.000071,-0.002426,0.000035,  26.540
    93.0,-0.000187,-0.000105,-0.002001,0.000061,  26.549
    93.2,-0.000168,-0.000132,-0.001836,0.000074,  26.556
    93.4,-0.000149,-0.000170,-0.001696,0.000087,  26.561
    93.6,-0.000118,-0.000206,-0.001569,0.000100,  26.567
    93.8,-0.000075,-0.000221,-0.001409,0.000113,  26.568
    94.0,-0.000051,-0.000221,-0.001269,0.000113,  26.571
    94.2,-0.000026,-0.000211,-0.001115,0.000113,  26.566
    94.4,0.000000,-0.000196,-0.000993,0.000100,  26.557
    94.6,0.000018,-0.000179,-0.000890,0.000087,  26.555
    94.8,0.000038,-0.000146,-0.000813,0.000035,  26.551
    95.0,0.000061,-0.000119,-0.000787,-0.000031,  26.551
    95.2,0.000072,-0.000089,-0.000800,-0.000057,  26.546
    95.4,0.000086,-0.000064,-0.000858,-0.000122,  26.549
    95.6,0.000101,-0.000048,-0.000929,-0.000174,  26.541
    95.8,0.000088,-0.000031,-0.001012,-0.000187,  26.543
    96.0,0.000075,-0.000023,-0.001108,-0.000200,  26.546
    96.2,0.000054,-0.000012,-0.001427,-0.000213,  26.542
    96.4,0.000017,-0.000003,-0.001860,-0.000200,  26.541
    96.6,-0.000016,0.000013,-0.002425,-0.000161,  26.545
    96.8,-0.000063,0.000015,-0.002439,-0.000135,  26.546
    97.0,-0.000109,0.000013,-0.002262,-0.000096,  26.544
    97.2,-0.000147,0.000004,-0.001881,-0.000057,  26.545
    97.4,-0.000192,-0.000018,-0.001825,-0.000018,  26.545
    97.6,-0.000210,-0.000050,-0.001837,0.000008,  26.546
    97.8,-0.000206,-0.000090,-0.001919,0.000048,  26.549
    98.0,-0.000192,-0.000127,-0.001894,0.000061,  26.553
    98.2,-0.000176,-0.000166,-0.001863,0.000061,  26.560
    98.4,-0.000141,-0.000197,-0.001812,0.000052,  26.564
    98.6,-0.000102,-0.000221,-0.001755,0.000087,  26.571
    98.8,-0.000078,-0.000231,-0.001660,0.000100,  26.569
    99.0,-0.000041,-0.000236,-0.001519,0.000126,  26.575
    99.2,-0.000013,-0.000229,-0.001346,0.000126,  26.575
    99.4,0.000008,-0.000216,-0.001237,0.000126,  26.573
    99.6,0.000037,-0.000197,-0.001166,0.000113,  26.567
    99.8,0.000060,-0.000169,-0.001126,0.000074,  26.559
   100.0,0.000075,-0.000148,-0.001081,0.000008,  26.554
   100.2,0.000096,-0.000123,-0.001068,-0.000044,  26.557
   100.4,0.000107,-0.000095,-0.001094,-0.000083,  26.550
   100.6,0.000116,-0.000068,-0.001183,-0.000122,  26.548
   100.8,0.000116,-0.000047,-0.001317,-0.000161,  26.546
   101.0,0.000109,-0.000027,-0.001515,-0.000200,  26.543
   101.2,0.000107,-0.000010,-0.001534,-0.000226,  26.542
   101.4,0.000077,0.000010,-0.001529,-0.000178,  26.548
   101.6,0.000035,0.000020,-0.001460,-0.000165,  26.547
   101.8,-0.000018,0.000028,-0.001492,-0.000139,  26.548
   102.0,-0.000064,0.000035,-0.001575,-0.000065,  26.542
   102.2,-0.000102,0.000044,-0.001671,-0.000039,  26.541
   102.4,-0.000147,0.000026,-0.001665,-0.000022,  26.543
   102.6,-0.000176,-0.000002,-0.001659,0.000017,  26.544
   102.8,-0.000186,-0.000038,-0.001602,0.000043,  26.545
   103.0,-0.000194,-0.000073,-0.001622,0.000069,  26.549
   103.2,-0.000190,-0.000104,-0.001660,0.000095,  26.556
   103.4,-0.000161,-0.000134,-0.001736,0.000122,  26.557
   103.6,-0.000127,-0.000164,-0.001685,0.000135,  26.562
   103.8,-0.000106,-0.000185,-0.001570,0.000161,  26.564
   104.0,-0.000069,-0.000204,-0.001430,0.000174,  26.568
   104.2,-0.000038,-0.000205,-0.001289,0.000174,  26.566
   104.4,-0.000017,-0.000197,-0.001110,0.000174,  26.568
   104.6,0.000015,-0.000171,-0.000911,0.000161,  26.561
   104.8,0.000037,-0.000157,-0.000860,0.000109,  26.558
   105.0,0.000053,-0.000136,-0.000846,0.000082,  26.555
   105.2,0.000077,-0.000107,-0.000878,0.000030,  26.552
   105.4,0.000091,-0.000081,-0.000884,-0.000022,  26.552
   105.6,0.000098,-0.000060,-0.000910,-0.000061,  26.549
   105.8,0.000113,-0.000039,-0.000954,-0.000113,  26.548
   106.0,0.000119,-0.000015,-0.001006,-0.000165,  26.545
   106.2,0.000092,0.000002,-0.001050,-0.000178,  26.547
   106.4,0.000065,0.000017,-0.001127,-0.000178,  26.541
   106.6,0.000015,0.000025,-0.001211,-0.000200,  26.539
   106.8,-0.000031,0.000038,-0.001237,-0.000152,  26.541
   107.0,-0.000060,0.000052,-0.001243,-0.000161,  26.538
   107.2,-0.000099,0.000048,-0.001244,-0.000135,  26.543
   107.4,-0.000137,0.000035,-0.001276,-0.000061,  26.539
   107.6,-0.000161,0.000018,-0.001328,-0.000035,  26.538
   107.8,-0.000194,-0.000011,-0.001404,0.000004,  26.539
   108.0,-0.000201,-0.000043,-0.001424,0.000030,  26.541
   108.2,-0.000178,-0.000072,-0.001430,0.000056,  26.544
   108.4,-0.000150,-0.000108,-0.001437,0.000082,  26.548
   108.6,-0.000129,-0.000145,-0.001399,0.000109,  26.555
   108.8,-0.000085,-0.000177,-0.001329,0.000148,  26.559
   109.0,-0.000049,-0.000208,-0.001239,0.000174,  26.558
   109.2,-0.000024,-0.000221,-0.001181,0.000174,  26.563
   109.4,-0.000002,-0.000217,-0.001130,0.000174,  26.561
   109.6,0.000006,-0.000197,-0.001090,0.000174,  26.552
   109.8,0.000026,-0.000183,-0.001045,0.000148,  26.552
   110.0,0.000046,-0.000155,-0.000974,0.000109,  26.547
   110.2,0.000068,-0.000121,-0.000935,0.000056,  26.546
   110.4,0.000088,-0.000096,-0.000884,0.000004,  26.541
   110.6,0.000098,-0.000075,-0.000840,-0.000022,  26.538
   110.8,0.000116,-0.000053,-0.000803,-0.000087,  26.533
   111.0,0.000124,-0.000039,-0.000860,-0.000139,  26.537
   111.2,0.000109,-0.000022,-0.000982,-0.000187,  26.530
   111.4,0.000093,-0.000002,-0.001148,-0.000200,  26.527
   111.6,0.000057,0.000008,-0.001218,-0.000200,  26.525
   111.8,0.000020,0.000025,-0.001302,-0.000209,  26.523
   112.0,-0.000017,0.000039,-0.001341,-0.000183,  26.526
   112.2,-0.000059,0.000034,-0.001373,-0.000109,  26.523
   112.4,-0.000105,0.000030,-0.001392,-0.000083,  26.521
   112.6,-0.000144,0.000019,-0.001412,-0.000044,  26.524
   112.8,-0.000182,-0.000007,-0.001450,-0.000005,  26.526
   113.0,-0.000197,-0.000035,-0.001476,0.000021,  26.528
   113.2,-0.000188,-0.000066,-0.001526,0.000035,  26.530
   113.4,-0.000169,-0.000102,-0.001552,0.000061,  26.537
   113.6,-0.000146,-0.000141,-0.001558,0.000087,  26.546
   113.8,-0.000116,-0.000176,-0.001577,0.000100,  26.552
   114.0,-0.000075,-0.000198,-0.001494,0.000113,  26.558
   114.2,-0.000054,-0.000201,-0.001385,0.000126,  26.557
   114.4,-0.000020,-0.000199,-0.001232,0.000126,  26.556
   114.6,0.000015,-0.000191,-0.001142,0.000126,  26.557
   114.8,0.000034,-0.000167,-0.001065,0.000113,  26.551
   115.0,0.000063,-0.000136,-0.001007,0.000087,  26.548
   115.2,0.000082,-0.000115,-0.000961,0.000048,  26.541
   115.4,0.000098,-0.000098,-0.000878,-0.000005,  26.539
   115.6,0.000121,-0.000080,-0.000821,-0.000079,  26.535
   115.8,0.000133,-0.000062,-0.000764,-0.000083,  26.537
   116.0,0.000129,-0.000043,-0.000834,-0.000135,  26.531
   116.2,0.000124,-0.000024,-0.000968,-0.000148,  26.526
   116.4,0.000105,-0.000003,-0.001173,-0.000174,  26.522
   116.6,0.000070,0.000010,-0.001237,-0.000213,  26.524
   116.8,0.000035,0.000030,-0.001263,-0.000200,  26.521
   117.0,-0.000018,0.000046,-0.001251,-0.000161,  26.519
   117.2,-0.000067,0.000048,-0.001296,-0.000135,  26.526
   117.4,-0.000105,0.000052,-0.001360,-0.000096,  26.522
   117.6,-0.000153,0.000049,-0.001430,-0.000057,  26.524
   117.8,-0.000178,0.000030,-0.001474,-0.000018,  26.527
   118.0,-0.000192,-0.000001,-0.001519,0.000035,  26.522
   118.2,-0.000201,-0.000042,-0.001570,0.000048,  26.524
   118.4,-0.000192,-0.000073,-0.001564,0.000061,  26.528
   118.6,-0.000175,-0.000104,-0.001545,0.000122,  26.534
   118.8,-0.000144,-0.000133,-0.001488,0.000135,  26.542
   119.0,-0.000108,-0.000157,-0.001418,0.000148,  26.552
   119.2,-0.000084,-0.000184,-0.001353,0.000196,  26.551
   119.4,-0.000044,-0.000206,-0.001270,0.000209,  26.550
   119.6,-0.000013,-0.000207,-0.001135,0.000174,  26.548
   119.8,0.000011,-0.000188,-0.000975,0.000161,  26.547
   120.0,0.000043,-0.000155,-0.000802,0.000135,  26.538
   120.2,0.000068,-0.000132,-0.000712,0.000069,  26.540
   120.4,0.000084,-0.000107,-0.000699,0.000030,  26.536
   120.6,0.000113,-0.000083,-0.000711,-0.000009,  26.533
   120.8,0.000127,-0.000062,-0.000686,-0.000061,  26.534
   121.0,0.000131,-0.000039,-0.000680,-0.000100,  26.531
   121.2,0.000146,-0.000022,-0.000681,-0.000139,  26.525
   121.4,0.000146,-0.000001,-0.000732,-0.000191,  26.528
   121.6,0.000117,0.000018,-0.000816,-0.000204,  26.521
   121.8,0.000081,0.000037,-0.000950,-0.000178,  26.525
   122.0,0.000025,0.000052,-0.000982,-0.000152,  26.522
   122.2,-0.000021,0.000061,-0.000976,-0.000126,  26.525
   122.4,-0.000063,0.000067,-0.000957,-0.000074,  26.520
   122.6,-0.000098,0.000054,-0.001556,-0.000035,  26.522
   122.8,-0.000130,0.000031,-0.002472,0.000004,  26.522
   123.0,-0.000152,0.000000,-0.003687,0.000043,  26.524
   123.2,-0.000162,-0.000037,-0.003915,0.000056,  26.523
   123.4,-0.000160,-0.000066,-0.003795,0.000082,  26.525
   123.6,-0.000135,-0.000099,-0.003340,0.000109,  26.531
   123.8,-0.000095,-0.000131,-0.002561,0.000074,  26.535
   124.0,-0.000071,-0.000157,-0.002332,0.000122,  26.540
   124.2,-0.000034,-0.000183,-0.002115,0.000100,  26.550
   124.4,0.000010,-0.000189,-0.001937,0.000113,  26.554
   124.6,0.000036,-0.000192,-0.001689,0.000161,  26.554
   124.8,0.000075,-0.000179,-0.001420,0.000161,  26.549
   125.0,0.000107,-0.000155,-0.001146,0.000148,  26.541
   125.2,0.000125,-0.000134,-0.000973,0.000122,  26.543
   125.4,0.000154,-0.000113,-0.000864,0.000095,  26.534
   125.6,0.000174,-0.000076,-0.000793,0.000030,  26.534
   125.8,0.000184,-0.000055,-0.000743,-0.000022,  26.529
   126.0,0.000198,-0.000025,-0.000724,-0.000061,  26.523
   126.2,0.000209,0.000001,-0.000724,-0.000113,  26.520
   126.4,0.000206,0.000017,-0.000992,-0.000165,  26.518
   126.6,0.000190,0.000043,-0.001400,-0.000178,  26.521
   126.8,0.000160,0.000060,-0.001934,-0.000178,  26.520
   127.0,0.000124,0.000072,-0.001966,-0.000165,  26.514
   127.2,0.000091,0.000089,-0.001795,-0.000174,  26.510
   127.4,0.000054,0.000104,-0.001445,-0.000135,  26.510
   127.6,0.000010,0.000099,-0.001331,-0.000083,  26.508
   127.8,-0.000034,0.000086,-0.001241,-0.000079,  26.508
   128.0,-0.000063,0.000072,-0.001197,-0.000053,  26.505
   128.2,-0.000099,0.000042,-0.001107,0.000008,  26.508
   128.4,-0.000109,0.000010,-0.001044,0.000035,  26.506
   128.6,-0.000091,-0.000028,-0.000960,0.000061,  26.515
   128.8,-0.000066,-0.000064,-0.000903,0.000087,  26.518
   129.0,-0.000048,-0.000100,-0.000839,0.000113,  26.524
   129.2,-0.000010,-0.000129,-0.000813,0.000113,  26.528
   129.4,0.000026,-0.000147,-0.000730,0.000126,  26.536
   129.6,0.000050,-0.000146,-0.000621,0.000139,  26.537
   129.8,0.000088,-0.000130,-0.000492,0.000139,  26.538
   130.0,0.000113,-0.000120,-0.000370,0.000126,  26.531
   130.2,0.000134,-0.000099,-0.000255,0.000100,  26.520
   130.4,0.000163,-0.000067,-0.000120,0.000061,  26.520
   130.6,0.000183,-0.000049,-0.000068,0.000008,  26.511
   130.8,0.000198,-0.000027,-0.000068,-0.000044,  26.512
   131.0,0.000225,-0.000002,-0.000106,-0.000083,  26.512
   131.2,0.000248,0.000019,-0.000074,-0.000122,  26.504
   131.4,0.000244,0.000034,-0.000056,-0.000148,  26.504
   131.6,0.000239,0.000061,-0.000018,-0.000174,  26.498
   131.8,0.000229,0.000081,-0.000024,-0.000174,  26.498
   132.0,0.000194,0.000095,-0.000062,-0.000161,  26.494
   132.2,0.000162,0.000105,-0.000113,-0.000148,  26.488
   132.4,0.000110,0.000114,-0.000107,-0.000122,  26.487
   132.6,0.000061,0.000120,-0.000088,-0.000109,  26.485
   132.8,0.000026,0.000125,-0.000050,-0.000118,  26.489
   133.0,-0.000019,0.000101,0.000008,-0.000057,  26.486
   133.2,-0.000042,0.000069,0.000065,-0.000018,  26.490
   133.4,-0.000042,0.000030,0.000123,0.000008,  26.487
   133.6,-0.000028,0.000004,0.000168,0.000035,  26.492
   133.8,-0.000013,-0.000022,0.000226,0.000048,  26.498
   134.0,0.000024,-0.000045,0.000283,0.000074,  26.509
   134.2,0.000078,-0.000064,0.000341,0.000100,  26.515
   134.4,0.000110,-0.000082,0.000361,0.000113,  26.519
   134.6,0.000149,-0.000099,0.000362,0.000126,  26.520
   134.8,0.000186,-0.000110,0.000331,0.000139,  26.520
   135.0,0.000212,-0.000106,0.000395,0.000139,  26.518
   135.2,0.000250,-0.000090,0.000498,0.000126,  26.514
   135.4,0.000278,-0.000051,0.000627,0.000100,  26.507
   135.6,0.000300,-0.000023,0.000685,0.000035,  26.500
   135.8,0.000323,0.000004,0.000736,-0.000005,  26.498
   136.0,0.000335,0.000036,0.000756,-0.000044,  26.493
   136.2,0.000356,0.000063,0.000756,-0.000096,  26.485
   136.4,0.000373,0.000091,0.000743,-0.000135,  26.484
   136.6,0.000384,0.000119,0.000731,-0.000161,  26.480
   136.8,0.000395,0.000143,0.000334,-0.000213,  26.476
   137.0,0.000369,0.000160,-0.000241,-0.000213,  26.478
   137.2,0.000339,0.000180,-0.000999,-0.000187,  26.478
   137.4,0.000283,0.000197,-0.000947,-0.000161,  26.475
   137.6,0.000238,0.000210,-0.000603,-0.000122,  26.471
   137.8,0.000205,0.000223,0.000035,-0.000083,  26.474
   138.0,0.000166,0.000204,0.000285,-0.000044,  26.470
   138.2,0.000134,0.000185,0.000464,-0.000005,  26.471
   138.4,0.000124,0.000156,0.000580,0.000035,  26.469
   138.6,0.000113,0.000128,0.000799,0.000048,  26.472
   138.8,0.000126,0.000096,0.001023,0.000109,  26.478
   139.0,0.000166,0.000065,0.001248,0.000135,  26.485
   139.2,0.000216,0.000040,0.001415,0.000135,  26.493
   139.4,0.000252,0.000018,0.001544,0.000196,  26.498
   139.6,0.000306,-0.000008,0.001634,0.000209,  26.512
   139.8,0.000353,-0.000006,0.001763,0.000174,  26.510
   140.0,0.000391,0.000014,0.001873,0.000174,  26.514
   140.2,0.000440,0.000050,0.002009,0.000174,  26.508
   140.4,0.000474,0.000075,0.001913,0.000135,  26.500
   140.6,0.000503,0.000109,0.001715,0.000109,  26.495
   140.8,0.000546,0.000145,0.001401,0.000056,  26.482
   141.0,0.000574,0.000177,0.001427,-0.000009,  26.484
   141.2,0.000596,0.000208,0.001575,-0.000035,  26.480
   141.4,0.000628,0.000244,0.001845,-0.000087,  26.474
   141.6,0.000647,0.000266,0.001980,-0.000139,  26.468
   141.8,0.000629,0.000295,0.002109,-0.000152,  26.468
   142.0,0.000611,0.000324,0.002225,-0.000152,  26.471
   142.2,0.000569,0.000343,0.002341,-0.000174,  26.467
   142.4,0.000529,0.000357,0.002450,-0.000126,  26.463
   142.6,0.000499,0.000374,0.002567,-0.000135,  26.466
   142.8,0.000460,0.000382,0.002665,-0.000109,  26.466
   143.0,0.000419,0.000380,0.002814,-0.000057,  26.463
   143.2,0.000387,0.000367,0.002989,-0.000053,  26.461
   143.4,0.000352,0.000353,0.003189,-0.000026,  26.466
   143.6,0.000345,0.000324,0.003377,0.000035,  26.464
   143.8,0.000362,0.000300,0.003552,0.000095,  26.471
   144.0,0.000395,0.000264,0.003708,0.000109,  26.472
   144.2,0.000425,0.000229,0.003825,0.000122,  26.478
   144.4,0.000482,0.000198,0.003922,0.000183,  26.490
   144.6,0.000544,0.000162,0.003968,0.000183,  26.495
   144.8,0.000588,0.000148,0.004058,0.000161,  26.496
   145.0,0.000625,0.000151,0.004169,0.000174,  26.498
   145.2,0.000657,0.000163,0.004279,0.000174,  26.497
   145.4,0.000695,0.000184,0.004215,0.000161,  26.483
   145.6,0.000737,0.000215,0.004060,0.000087,  26.479
   145.8,0.000779,0.000263,0.003815,0.000048,  26.479
   146.0,0.000826,0.000295,0.003887,-0.000005,  26.470
   146.2,0.000859,0.000332,0.004061,-0.000092,  26.468
   146.4,0.000902,0.000370,0.004326,-0.000131,  26.465
   146.6,0.000934,0.000401,0.004495,-0.000122,  26.462
   146.8,0.000936,0.000437,0.004658,-0.000148,  26.464
   147.0,0.000933,0.000471,0.004833,-0.000161,  26.464
   147.2,0.000923,0.000498,0.005048,-0.000187,  26.459
   147.4,0.000891,0.000525,0.005281,-0.000174,  26.457
   147.6,0.000849,0.000558,0.005568,-0.000148,  26.456
   147.8,0.000805,0.000570,0.005796,-0.000122,  26.456
   148.0,0.000756,0.000578,0.006004,-0.000096,  26.458
   148.2,0.000714,0.000580,0.006220,-0.000057,  26.460
   148.4,0.000676,0.000559,0.006423,-0.000018,  26.454
   148.6,0.000661,0.000529,0.006599,0.000021,  26.449
   148.8,0.000672,0.000486,0.006783,0.000048,  26.454
   149.0,0.000707,0.000455,0.007018,0.000048,  26.459
   149.2,0.000740,0.000419,0.007259,0.000074,  26.465
   149.4,0.000793,0.000383,0.007514,0.000100,  26.482
   149.6,0.000858,0.000373,0.007651,0.000100,  26.481
   149.8,0.000908,0.000368,0.007717,0.000126,  26.482
   150.0,0.000969,0.000369,0.007737,0.000126,  26.491
   150.2,0.001035,0.000385,0.007777,0.000126,  26.486
   150.4,0.001084,0.000417,0.007770,0.000113,  26.482
   150.6,0.001137,0.000463,0.007771,0.000100,  26.475
   150.8,0.001188,0.000498,0.007712,0.000061,  26.472
   151.0,0.001229,0.000525,0.007777,0.000021,  26.469
   151.2,0.001277,0.000566,0.007868,-0.000039,  26.469
   151.4,0.001326,0.000598,0.007999,-0.000044,  26.465
   151.6,0.001350,0.000631,0.008117,-0.000096,  26.461
   151.8,0.001367,0.000677,0.008235,-0.000135,  26.461
   152.0,0.001385,0.000717,0.008347,-0.000161,  26.457
   152.2,0.001361,0.000750,0.008525,-0.000200,  26.451
   152.4,0.001325,0.000784,0.008741,-0.000200,  26.447
   152.6,0.001273,0.000819,0.008971,-0.000187,  26.447
   152.8,0.001227,0.000844,0.009215,-0.000148,  26.447
   153.0,0.001188,0.000869,0.009478,-0.000109,  26.450
   153.2,0.001155,0.000888,0.009761,-0.000083,  26.446
   153.4,0.001136,0.000877,0.010064,-0.000044,  26.443
   153.6,0.001127,0.000851,0.010360,-0.000005,  26.447
   153.8,0.001124,0.000813,0.010690,0.000021,  26.447
   154.0,0.001136,0.000785,0.010941,0.000035,  26.449
   154.2,0.001172,0.000753,0.011145,0.000061,  26.452
   154.4,0.001222,0.000732,0.011337,0.000087,  26.455
   154.6,0.001287,0.000713,0.011463,0.000100,  26.462
   154.8,0.001339,0.000700,0.011568,0.000126,  26.468
   155.0,0.001406,0.000684,0.011615,0.000139,  26.469
   155.2,0.001483,0.000694,0.011681,0.000139,  26.470
   155.4,0.001535,0.000724,0.011740,0.000139,  26.470
   155.6,0.001594,0.000767,0.011773,0.000126,  26.464
   155.8,0.001653,0.000805,0.011832,0.000087,  26.456
   156.0,0.001700,0.000852,0.011892,0.000061,  26.447
   156.2,0.001754,0.000914,0.011958,-0.000005,  26.441
   156.4,0.001799,0.000962,0.012104,-0.000057,  26.445
   156.6,0.001840,0.001009,0.012276,-0.000083,  26.439
   156.8,0.001889,0.001051,0.012481,-0.000135,  26.438
   157.0,0.001928,0.001089,0.012766,-0.000174,  26.433
   157.2,0.001924,0.001131,0.013098,-0.000174,  26.426
   157.4,0.001908,0.001167,0.013469,-0.000187,  26.424
   157.6,0.001864,0.001199,0.013788,-0.000174,  26.424
   157.8,0.001829,0.001237,0.014081,-0.000148,  26.420
   158.0,0.001802,0.001274,0.014347,-0.000122,  26.416
   158.2,0.001762,0.001280,0.014706,-0.000083,  26.411
   158.4,0.001731,0.001276,0.015086,-0.000044,  26.415
   158.6,0.001712,0.001256,0.015519,-0.000018,  26.411
   158.8,0.001692,0.001241,0.015820,0.000008,  26.408
   159.0,0.001705,0.001216,0.016060,0.000035,  26.412
   159.2,0.001754,0.001184,0.016260,0.000048,  26.413
   159.4,0.001816,0.001162,0.016448,0.000074,  26.415
   159.6,0.001871,0.001141,0.016615,0.000074,  26.420
   159.8,0.001945,0.001120,0.016749,0.000052,  26.422
   160.0,0.002021,0.001115,0.016849,0.000100,  26.421
   160.2,0.002084,0.001128,0.016882,0.000113,  26.426
   160.4,0.002161,0.001146,0.016856,0.000113,  26.420
   160.6,0.002231,0.001178,0.016769,0.000113,  26.416
   160.8,0.002292,0.001214,0.016809,0.000113,  26.413
   161.0,0.002361,0.001264,0.016882,0.000087,  26.405
   161.2,0.002417,0.001327,0.016963,0.000048,  26.404
   161.4,0.002466,0.001380,0.017077,-0.000018,  26.399
   161.6,0.002524,0.001438,0.017231,-0.000044,  26.387
   161.8,0.002566,0.001488,0.017378,-0.000083,  26.387
   162.0,0.002573,0.001538,0.017492,-0.000135,  26.382
   162.2,0.002574,0.001586,0.017606,-0.000135,  26.370
   162.4,0.002552,0.001630,0.017686,-0.000148,  26.375
   162.6,0.002538,0.001670,0.018061,-0.000161,  26.370
   162.8,0.002518,0.001711,0.018585,-0.000135,  26.369
   163.0,0.002486,0.001753,0.019224,-0.000109,  26.361
   163.2,0.002462,0.001776,0.019682,-0.000083,  26.361
   163.4,0.002434,0.001782,0.020080,-0.000044,  26.351
   163.6,0.002403,0.001786,0.020464,-0.000018,  26.346
   163.8,0.002372,0.001781,0.020855,0.000008,  26.343
   164.0,0.002373,0.001753,0.021241,0.000035,  26.338
   164.2,0.002396,0.001720,0.021592,0.000061,  26.339
   164.4,0.002432,0.001705,0.021883,0.000074,  26.338
   164.6,0.002476,0.001684,0.022127,0.000087,  26.341
   164.8,0.002541,0.001662,0.022324,0.000100,  26.345
   165.0,0.002624,0.001662,0.022391,0.000113,  26.344
   165.2,0.002684,0.001668,0.022378,0.000126,  26.346
   165.4,0.002761,0.001683,0.022283,0.000139,  26.344
   165.6,0.002841,0.001713,0.022249,0.000139,  26.336
   165.8,0.002905,0.001752,0.022215,0.000126,  26.335
   166.0,0.002979,0.001810,0.022167,0.000100,  26.328
   166.2,0.003047,0.001856,0.022045,0.000021,  26.321
   166.4,0.003105,0.001905,0.021854,-0.000018,  26.317
   166.6,0.003173,0.001968,0.021590,-0.000031,  26.299
   166.8,0.003227,0.002021,0.021847,-0.000070,  26.298
   167.0,0.003254,0.002072,0.022335,-0.000096,  26.287
   167.2,0.003286,0.002126,0.023021,-0.000109,  26.283
   167.4,0.003301,0.002174,0.023449,-0.000135,  26.269
   167.6,0.003280,0.002221,0.023843,-0.000135,  26.262
   167.8,0.003244,0.002266,0.024196,-0.000122,  26.258
   168.0,0.003197,0.002302,0.024550,-0.000109,  26.256
   168.2,0.003159,0.002332,0.024871,-0.000083,  26.244
   168.4,0.003125,0.002356,0.025164,-0.000105,  26.231
   168.6,0.003098,0.002360,0.025437,-0.000044,  26.225
   168.8,0.003086,0.002353,0.025812,-0.000018,  26.221
   169.0,0.003089,0.002330,0.026222,0.000008,  26.215
   169.2,0.003103,0.002298,0.026653,0.000021,  26.213
   169.4,0.003138,0.002280,0.026996,0.000035,  26.213
   169.6,0.003201,0.002268,0.027304,0.000061,  26.213
   169.8,0.003275,0.002255,0.027599,0.000074,  26.215
   170.0,0.003338,0.002248,0.027716,0.000074,  26.220
   170.2,0.003414,0.002239,0.027730,0.000087,  26.214
   170.4,0.003496,0.002240,0.027661,0.000100,  26.220
   170.6,0.003565,0.002263,0.027634,0.000100,  26.211
   170.8,0.003647,0.002297,0.027538,0.000100,  26.206
   171.0,0.003733,0.002347,0.027415,0.000074,  26.195
   171.2,0.003798,0.002396,0.027415,0.000035,  26.184
   171.4,0.003853,0.002449,0.027415,0.000008,  26.173
   171.6,0.003908,0.002511,0.027456,-0.000018,  26.156
   171.8,0.003956,0.002569,0.027648,-0.000070,  26.153
   172.0,0.004015,0.002628,0.027943,-0.000096,  26.145
   172.2,0.004078,0.002686,0.028315,-0.000122,  26.124
   172.4,0.004134,0.002746,0.028058,-0.000161,  26.121
   172.6,0.004130,0.002805,0.027552,-0.000161,  26.109
   172.8,0.004112,0.002867,0.026800,-0.000161,  26.107
   173.0,0.004061,0.002920,0.027128,-0.000161,  26.095
   173.2,0.004026,0.002967,0.027863,-0.000135,  26.080
   173.4,0.004002,0.003012,0.029048,-0.000109,  26.071
   173.6,0.003962,0.003027,0.029752,-0.000083,  26.062
   173.8,0.003933,0.003023,0.030402,-0.000057,  26.051
   174.0,0.003923,0.003000,0.031025,-0.000031,  26.040
   174.2,0.003915,0.002991,0.031614,-0.000005,  26.033
   174.4,0.003937,0.002978,0.032155,0.000008,  26.025
   174.6,0.003990,0.002966,0.032642,0.000035,  26.019
   174.8,0.004064,0.002960,0.032941,0.000048,  26.024
   175.0,0.004130,0.002948,0.033116,0.000074,  26.023
   175.2,0.004225,0.002937,0.033158,0.000100,  26.026
   175.4,0.004318,0.002950,0.033180,0.000100,  26.027
   175.6,0.004401,0.002979,0.033118,0.000113,  26.018
   175.8,0.004504,0.003013,0.032972,0.000100,  26.014
   176.0,0.004600,0.003057,0.032861,0.000087,  26.005
   176.2,0.004687,0.003117,0.032736,0.000074,  25.988
   176.4,0.004787,0.003192,0.032575,0.000021,  25.981
   176.6,0.004877,0.003256,0.032554,-0.000031,  25.967
   176.8,0.004955,0.003323,0.032602,-0.000070,  25.955
   177.0,0.005044,0.003395,0.032706,-0.000083,  25.936
   177.2,0.005117,0.003468,0.032872,-0.000122,  25.929
   177.4,0.005133,0.003536,0.033157,-0.000135,  25.913
   177.6,0.005134,0.003603,0.033506,-0.000170,  25.895
   177.8,0.005097,0.003655,0.033937,-0.000148,  25.891
   178.0,0.005065,0.003709,0.034362,-0.000148,  25.876
   178.2,0.005032,0.003748,0.034809,-0.000122,  25.867
   178.4,0.004979,0.003791,0.035276,-0.000109,  25.846
   178.6,0.004941,0.003819,0.035758,-0.000083,  25.828
   178.8,0.004919,0.003832,0.036282,-0.000057,  25.820
   179.0,0.004888,0.003839,0.036814,-0.000031,  25.806
   179.2,0.004902,0.003836,0.037312,-0.000005,  25.788
   179.4,0.004953,0.003816,0.037811,0.000021,  25.780
   179.6,0.005029,0.003795,0.038303,0.000035,  25.777
   179.8,0.005086,0.003784,0.038585,0.000061,  25.775
   180.0,0.005150,0.003764,0.038761,0.000087,  25.771
   180.2,0.005226,0.003754,0.038845,0.000100,  25.767
   180.4,0.005300,0.003760,0.038370,0.000113,  25.771
   180.6,0.005383,0.003778,0.037549,0.000126,  25.763
   180.8,0.005491,0.003809,0.036434,0.000139,  25.766
   181.0,0.005613,0.003855,0.036196,0.000139,  25.754
   181.2,0.005717,0.003906,0.036191,0.000126,  25.736
   181.4,0.005822,0.003973,0.036475,0.000100,  25.722
   181.6,0.005930,0.004039,0.036652,0.000035,  25.704
   181.8,0.006025,0.004110,0.036912,0.000008,  25.695
   182.0,0.006125,0.004187,0.037243,-0.000018,  25.681
   182.2,0.006216,0.004255,0.037651,-0.000044,  25.662
   182.4,0.006263,0.004323,0.038143,-0.000057,  25.645
   182.6,0.006298,0.004399,0.038706,-0.000070,  25.625
   182.8,0.006304,0.004465,0.039278,-0.000096,  25.613
   183.0,0.006274,0.004529,0.039864,-0.000083,  25.595
   183.2,0.006236,0.004598,0.040472,-0.000057,  25.584
   183.4,0.006156,0.004640,0.041052,-0.000044,  25.566
   183.6,0.006096,0.004682,0.041625,-0.000018,  25.543
   183.8,0.006049,0.004712,0.042169,0.000008,  25.528
   184.0,0.005989,0.004709,0.042787,0.000021,  25.512
   184.2,0.005977,0.004692,0.043435,0.000048,  25.491
   184.4,0.006000,0.004653,0.044098,0.000074,  25.472
   184.6,0.006043,0.004632,0.044620,0.000087,  25.463
   184.8,0.006110,0.004606,0.045071,0.000113,  25.457
   185.0,0.006216,0.004574,0.045472,0.000113,  25.452
   185.2,0.006343,0.004561,0.045066,0.000126,  25.447
   185.4,0.006461,0.004559,0.044187,0.000139,  25.443
   185.6,0.006601,0.004561,0.042895,0.000152,  25.438
   185.8,0.006743,0.004593,0.042353,0.000152,  25.435
   186.0,0.006876,0.004649,0.041983,0.000152,  25.420
   186.2,0.007022,0.004721,0.041765,0.000139,  25.411
   186.4,0.007161,0.004784,0.041705,0.000113,  25.393
   186.6,0.007290,0.004866,0.041700,0.000087,  25.373
   186.8,0.007428,0.004955,0.041815,0.000026,  25.360
   187.0,0.007563,0.005024,0.042045,0.000035,  25.342
   187.2,0.007658,0.005090,0.042438,-0.000018,  25.325
   187.4,0.007744,0.005154,0.042980,-0.000044,  25.304
   187.6,0.007816,0.005214,0.043672,-0.000083,  25.282
   187.8,0.007806,0.005291,0.044350,-0.000135,  25.265
   188.0,0.007758,0.005374,0.045065,-0.000122,  25.247
   188.2,0.007667,0.005466,0.045836,-0.000109,  25.226
   188.4,0.007592,0.005543,0.046668,-0.000096,  25.194
   188.6,0.007522,0.005612,0.047530,-0.000070,  25.175
   188.8,0.007434,0.005674,0.048451,-0.000031,  25.156
   189.0,0.007398,0.005687,0.049352,-0.000018,  25.139
   189.2,0.007406,0.005674,0.050276,0.000021,  25.113
   189.4,0.007430,0.005638,0.051201,0.000035,  25.092
   189.6,0.007481,0.005598,0.051976,0.000061,  25.072
   189.8,0.007557,0.005562,0.052687,0.000087,  25.059
   190.0,0.007658,0.005517,0.053305,0.000100,  25.052
   190.2,0.007795,0.005486,0.053250,0.000113,  25.041
   190.4,0.007948,0.005467,0.052800,0.000126,  25.036
   190.6,0.008128,0.005454,0.051958,0.000139,  25.027
   190.8,0.008330,0.005487,0.051567,0.000139,  25.023
   191.0,0.008508,0.005541,0.051215,0.000152,  25.009
   191.2,0.008694,0.005618,0.050881,0.000165,  24.999
   191.4,0.008879,0.005709,0.050666,0.000139,  24.983
   191.6,0.009058,0.005810,0.050531,0.000113,  24.961
   191.8,0.009243,0.005917,0.050437,0.000074,  24.951
   192.0,0.009436,0.006024,0.050676,0.000008,  24.927
   192.2,0.009595,0.006136,0.051140,-0.000009,  24.907
   192.4,0.009760,0.006250,0.051776,-0.000061,  24.891
   192.6,0.009919,0.006362,0.052611,-0.000126,  24.860
   192.8,0.009958,0.006469,0.053631,-0.000139,  24.845
   193.0,0.009950,0.006582,0.054842,-0.000139,  24.824
   193.2,0.009882,0.006682,0.055991,-0.000161,  24.800
   193.4,0.009795,0.006779,0.057215,-0.000157,  24.772
   193.6,0.009684,0.006874,0.058501,-0.000118,  24.744
   193.8,0.009533,0.006921,0.059822,-0.000044,  24.725
   194.0,0.009452,0.006943,0.061184,0.000008,  24.701
   194.2,0.009399,0.006936,0.062623,0.000048,  24.675
   194.4,0.009362,0.006895,0.063989,0.000087,  24.647
   194.6,0.009430,0.006824,0.065328,0.000126,  24.619
   194.8,0.009568,0.006721,0.066665,0.000139,  24.611
   195.0,0.009764,0.006652,0.067463,0.000152,  24.597
   195.2,0.009963,0.006586,0.067991,0.000165,  24.586
   195.4,0.010206,0.006526,0.068226,0.000178,  24.581
   195.6,0.010479,0.006534,0.068196,0.000191,  24.574
   195.8,0.010722,0.006577,0.067886,0.000204,  24.565
   196.0,0.010971,0.006666,0.067304,0.000195,  24.559
   196.2,0.011223,0.006748,0.066438,0.000217,  24.543
   196.4,0.011472,0.006836,0.065899,0.000217,  24.527
   196.6,0.011727,0.006954,0.065366,0.000191,  24.510
   196.8,0.011983,0.007075,0.064836,0.000139,  24.497
   197.0,0.012215,0.007208,0.064951,0.000048,  24.473
   197.2,0.012449,0.007362,0.065408,-0.000005,  24.452
   197.4,0.012664,0.007521,0.066182,-0.000083,  24.429
   197.6,0.012796,0.007663,0.066972,-0.000174,  24.400
   197.8,0.012898,0.007809,0.067946,-0.000213,  24.381
   198.0,0.012944,0.007959,0.069085,-0.000252,  24.359
   198.2,0.012885,0.008090,0.070693,-0.000265,  24.338
   198.4,0.012768,0.008220,0.072609,-0.000239,  24.308
   198.6,0.012569,0.008352,0.074830,-0.000200,  24.276
   198.8,0.012460,0.008444,0.076857,-0.000135,  24.260
   199.0,0.012360,0.008531,0.078919,-0.000070,  24.237
   199.2,0.012255,0.008599,0.081028,-0.000005,  24.207
   199.4,0.012173,0.008575,0.082851,0.000048,  24.189
   199.6,0.012216,0.008503,0.084543,0.000100,  24.159
   199.8,0.012314,0.008373,0.086118,0.000152,  24.142
   200.0,0.012476,0.008265,0.087483,0.000165,  24.130
   200.2,0.012708,0.008140,0.088660,0.000204,  24.119
   200.4,0.013016,0.008002,0.089656,0.000243,  24.111
   200.6,0.013400,0.007961,0.090246,0.000256,  24.106
   200.8,0.013725,0.007969,0.090530,0.000282,  24.103
   201.0,0.014068,0.008021,0.090512,0.000308,  24.097
   201.2,0.014430,0.008138,0.090187,0.000308,  24.087
   201.4,0.014764,0.008308,0.089540,0.000282,  24.073
   201.6,0.015105,0.008529,0.088592,0.000230,  24.054
   201.8,0.015445,0.008723,0.088518,0.000152,  24.044
   202.0,0.015757,0.008929,0.088719,0.000074,  24.030
   202.2,0.016064,0.009147,0.089189,-0.000031,  24.007
   202.4,0.016364,0.009344,0.090308,-0.000148,  23.985
   202.6,0.016595,0.009544,0.091883,-0.000226,  23.964
   202.8,0.016798,0.009738,0.093923,-0.000317,  23.950
   203.0,0.016971,0.009917,0.096041,-0.000395,  23.935
   203.2,0.016976,0.010097,0.098443,-0.000382,  23.916
   203.4,0.016883,0.010271,0.101116,-0.000330,  23.896
   203.6,0.016701,0.010418,0.103649,-0.000252,  23.869
   203.8,0.016560,0.010559,0.106233,-0.000174,  23.860
   204.0,0.016398,0.010681,0.108879,-0.000096,  23.842
   204.2,0.016219,0.010690,0.111207,-0.000005,  23.824
   204.4,0.016195,0.010652,0.113414,0.000061,  23.805
   204.6,0.016250,0.010544,0.115468,0.000113,  23.786
   204.8,0.016381,0.010428,0.117387,0.000152,  23.773
   205.0,0.016618,0.010286,0.119792,0.000191,  23.766
   205.2,0.016955,0.010113,0.122314,0.000195,  23.759
   205.4,0.017395,0.010035,0.124946,0.000269,  23.754
   205.6,0.017776,0.009991,0.126256,0.000308,  23.755
   205.8,0.018189,0.009983,0.126932,0.000334,  23.756
   206.0,0.018630,0.010003,0.127005,0.000347,  23.751
   206.2,0.019018,0.010115,0.126822,0.000347,  23.750
   206.4,0.019409,0.010287,0.126181,0.000334,  23.745
   206.6,0.019793,0.010517,0.125101,0.000295,  23.730
   206.8,0.020152,0.010736,0.124970,0.000243,  23.722
   207.0,0.020503,0.010979,0.125080,0.000200,  23.718
   207.2,0.020850,0.011248,0.125447,0.000095,  23.706
   207.4,0.021151,0.011478,0.126461,-0.000048,  23.693
   207.6,0.021436,0.011709,0.127894,-0.000117,  23.686
   207.8,0.021707,0.011934,0.129773,-0.000235,  23.677
   208.0,0.021827,0.012143,0.132328,-0.000374,  23.663
   208.2,0.021869,0.012347,0.135417,-0.000400,  23.658
   208.4,0.021827,0.012546,0.139086,-0.000387,  23.646
   208.6,0.021704,0.012721,0.142393,-0.000322,  23.642
   208.8,0.021613,0.012883,0.145817,-0.000291,  23.626
   209.0,0.021478,0.013038,0.149312,-0.000200,  23.624
   209.2,0.021308,0.013104,0.152648,-0.000096,  23.620
   209.4,0.021252,0.013120,0.155937,-0.000053,  23.613
   209.6,0.021225,0.013099,0.159178,0.000026,  23.601
   209.8,0.021248,0.013036,0.162310,0.000113,  23.602
   210.0,0.021405,0.012923,0.165300,0.000165,  23.597
   210.2,0.021661,0.012773,0.168221,0.000204,  23.608
   210.4,0.022008,0.012688,0.170224,0.000243,  23.606
   210.6,0.022345,0.012616,0.171675,0.000282,  23.620
   210.8,0.022746,0.012555,0.172601,0.000308,  23.619
   211.0,0.023182,0.012594,0.172946,0.000308,  23.627
   211.2,0.023568,0.012699,0.172723,0.000321,  23.636
   211.4,0.023963,0.012865,0.171938,0.000308,  23.632
   211.6,0.024356,0.013040,0.171817,0.000295,  23.628
   211.8,0.024728,0.013257,0.171740,0.000243,  23.627
   212.0,0.025098,0.013521,0.171683,0.000165,  23.620
   212.2,0.025463,0.013740,0.172473,0.000048,  23.621
   212.4,0.025791,0.013960,0.173694,-0.000031,  23.615
   212.6,0.026106,0.014187,0.175329,-0.000109,  23.610
   212.8,0.026403,0.014402,0.177661,-0.000213,  23.609
   213.0,0.026584,0.014608,0.180532,-0.000265,  23.611
   213.2,0.026708,0.014812,0.183993,-0.000291,  23.616
   213.4,0.026772,0.014999,0.186709,-0.000304,  23.616
   213.6,0.026774,0.015167,0.189368,-0.000304,  23.621
   213.8,0.026720,0.015335,0.191944,-0.000300,  23.631
   214.0,0.026614,0.015450,0.194415,-0.000213,  23.638
   214.2,0.026575,0.015540,0.197372,-0.000161,  23.644
   214.4,0.026548,0.015597,0.200450,-0.000109,  23.649
   214.6,0.026540,0.015616,0.203665,-0.000057,  23.660
   214.8,0.026625,0.015603,0.206997,-0.000005,  23.670
   215.0,0.026771,0.015548,0.210452,0.000035,  23.680
   215.2,0.026983,0.015465,0.214037,0.000074,  23.688
   215.4,0.027238,0.015425,0.216900,0.000100,  23.705
   215.6,0.027553,0.015385,0.219419,0.000139,  23.721
   215.8,0.027932,0.015344,0.221652,0.000165,  23.734
   216.0,0.028265,0.015356,0.222726,0.000165,  23.744
   216.2,0.028615,0.015402,0.223055,0.000191,  23.756
   216.4,0.028986,0.015477,0.222645,0.000191,  23.763
   216.6,0.029325,0.015593,0.222589,0.000178,  23.764
   216.8,0.029679,0.015752,0.222354,0.000187,  23.766
   217.0,0.030027,0.015950,0.221891,0.000148,  23.767
   217.2,0.030312,0.016123,0.221995,0.000082,  23.766
   217.4,0.030554,0.016308,0.222277,0.000056,  23.769
   217.6,0.030776,0.016504,0.222691,0.000030,  23.775
   217.8,0.030962,0.016687,0.224485,-0.000044,  23.783
   218.0,0.031172,0.016870,0.227084,-0.000105,  23.791
   218.2,0.031373,0.017053,0.230430,-0.000131,  23.801
   218.4,0.031559,0.017225,0.232886,-0.000135,  23.818
   218.6,0.031625,0.017395,0.235298,-0.000135,  23.831
   218.8,0.031631,0.017565,0.237605,-0.000135,  23.841
   219.0,0.031571,0.017701,0.240953,-0.000122,  23.857
   219.2,0.031570,0.017822,0.244806,-0.000109,  23.870
   219.4,0.031583,0.017933,0.249153,-0.000083,  23.890
   219.6,0.031592,0.017968,0.252824,-0.000070,  23.906
   219.8,0.031643,0.017969,0.256356,-0.000044,  23.917
   220.0,0.031724,0.017927,0.259780,-0.000018,  23.928
   220.2,0.031839,0.017925,0.262912,-0.000018,  23.948
   220.4,0.032025,0.017929,0.265771,0.000008,  23.971
   220.6,0.032268,0.017936,0.268401,0.000008,  23.990
   220.8,0.032573,0.017953,0.269960,0.000008,  24.007
   221.0,0.032853,0.017984,0.270810,0.000021,  24.025
   221.2,0.033151,0.018024,0.270985,0.000035,  24.036
   221.4,0.033475,0.018096,0.271099,0.000035,  24.052
   221.6,0.033773,0.018198,0.270810,0.000035,  24.056
   221.8,0.034081,0.018328,0.270121,0.000035,  24.058
   222.0,0.034396,0.018454,0.270289,0.000021,  24.061
   222.2,0.034686,0.018596,0.270673,0.000008,  24.059
   222.4,0.034980,0.018756,0.271263,0.000008,  24.061
   222.6,0.035277,0.018909,0.272612,-0.000005,  24.068
   222.8,0.035541,0.019067,0.274431,-0.000018,  24.080
   223.0,0.035795,0.019235,0.276751,-0.000018,  24.088
   223.2,0.036039,0.019394,0.278752,-0.000005,  24.100
   223.4,0.036160,0.019551,0.280847,-0.000018,  24.113
   223.6,0.036230,0.019711,0.283051,-0.000018,  24.130
   223.8,0.036236,0.019857,0.285360,-0.000031,  24.150
   224.0,0.036257,0.020001,0.288169,-0.000044,  24.165
   224.2,0.036269,0.020138,0.291186,-0.000079,  24.181
   224.4,0.036257,0.020218,0.294502,-0.000057,  24.198
   224.6,0.036281,0.020262,0.297544,-0.000057,  24.219
   224.8,0.036327,0.020281,0.300581,-0.000057,  24.239
   225.0,0.036379,0.020270,0.303613,-0.000057,  24.253
   225.2,0.036497,0.020290,0.306342,-0.000070,  24.269
   225.4,0.036664,0.020303,0.308950,-0.000057,  24.291
   225.6,0.036881,0.020313,0.311377,-0.000057,  24.313
   225.8,0.037105,0.020332,0.313002,-0.000057,  24.331
   226.0,0.037370,0.020363,0.314142,-0.000044,  24.346
   226.2,0.037676,0.020397,0.314793,-0.000044,  24.364
   226.4,0.037952,0.020443,0.315338,-0.000031,  24.380
   226.6,0.038242,0.020500,0.315544,-0.000018,  24.386
   226.8,0.038548,0.020572,0.315404,-0.000018,  24.391
   227.0,0.038792,0.020669,0.315583,-0.000018,  24.392
   227.2,0.039019,0.020789,0.315749,-0.000005,  24.390
   227.4,0.039227,0.020934,0.315869,-0.000018,  24.392
   227.6,0.039405,0.021067,0.316669,-0.000031,  24.399
   227.8,0.039646,0.021220,0.317752,-0.000005,  24.401
   228.0,0.039913,0.021379,0.319132,0.000008,  24.412
   228.2,0.040186,0.021529,0.321036,0.000035,  24.423
   228.4,0.040341,0.021687,0.323334,0.000048,  24.431
   228.6,0.040455,0.021842,0.326019,0.000035,  24.449
   228.8,0.040519,0.021987,0.328604,0.000008,  24.460
   229.0,0.040555,0.022126,0.331294,-0.000005,  24.474
   229.2,0.040562,0.022260,0.334125,-0.000005,  24.488
   229.4,0.040535,0.022353,0.336884,-0.000018,  24.500
   229.6,0.040555,0.022431,0.339683,-0.000018,  24.520
   229.8,0.040589,0.022492,0.342458,-0.000031,  24.529
   230.0,0.040632,0.022516,0.345037,-0.000031,  24.550
   230.2,0.040727,0.022520,0.347536,-0.000018,  24.560
   230.4,0.040865,0.022503,0.349871,-0.000018,  24.575
   230.6,0.041025,0.022514,0.351892,-0.000018,  24.595
   230.8,0.041227,0.022541,0.353720,0.000008,  24.609
   231.0,0.041477,0.022573,0.355270,0.000008,  24.626
   231.2,0.041760,0.022606,0.355739,0.000008,  24.645
   231.4,0.042018,0.022657,0.355511,0.000021,  24.653
   231.6,0.042295,0.022709,0.354589,0.000048,  24.662
   231.8,0.042586,0.022801,0.354566,0.000048,  24.670
   232.0,0.042853,0.022916,0.354679,0.000048,  24.671
   232.2,0.043138,0.023059,0.354809,0.000035,  24.668
   232.4,0.043422,0.023195,0.355219,0.000008,  24.669
   232.6,0.043681,0.023336,0.355783,0.000008,  24.668
   232.8,0.043938,0.023486,0.356516,0.000008,  24.669
   233.0,0.044182,0.023631,0.357410,0.000021,  24.672
   233.2,0.044374,0.023778,0.359064,0.000021,  24.675
   233.4,0.044544,0.023928,0.361138,-0.000013,  24.680
   233.6,0.044684,0.024071,0.363639,0.000008,  24.693
   233.8,0.044730,0.024214,0.366027,0.000008,  24.703
   234.0,0.044726,0.024353,0.368593,-0.000005,  24.706
   234.2,0.044671,0.024461,0.371303,-0.000005,  24.719
   234.4,0.044655,0.024552,0.373894,-0.000005,  24.727
   234.6,0.044643,0.024622,0.376507,0.000017,  24.738
   234.8,0.044637,0.024678,0.379113,0.000017,  24.745
   235.0,0.044674,0.024703,0.381647,0.000030,  24.765
   235.2,0.044736,0.024698,0.384079,0.000078,  24.765
   235.4,0.044832,0.024681,0.386444,0.000091,  24.777
   235.6,0.044990,0.024674,0.388643,0.000069,  24.785
   235.8,0.045198,0.024665,0.390671,0.000095,  24.802
   236.0,0.045462,0.024653,0.392574,0.000109,  24.816
   236.2,0.045697,0.024658,0.393668,0.000109,  24.832
   236.4,0.045955,0.024671,0.394300,0.000122,  24.840
   236.6,0.046232,0.024696,0.394407,0.000135,  24.848
   236.8,0.046453,0.024761,0.394128,0.000135,  24.858
   237.0,0.046658,0.024853,0.393418,0.000148,  24.854
   237.2,0.046842,0.024977,0.392260,0.000135,  24.855
   237.4,0.047004,0.025095,0.392362,0.000122,  24.851
   237.6,0.047234,0.025228,0.392844,0.000122,  24.849
   237.8,0.047483,0.025376,0.393732,0.000095,  24.848
   238.0,0.047745,0.025518,0.394886,0.000056,  24.852
   238.2,0.047960,0.025659,0.396363,0.000008,  24.853
   238.4,0.048163,0.025803,0.398168,-0.000005,  24.861
   238.6,0.048360,0.025944,0.400059,-0.000044,  24.863
   238.8,0.048444,0.026081,0.402127,-0.000079,  24.866
   239.0,0.048472,0.026223,0.404356,-0.000079,  24.869
   239.2,0.048451,0.026352,0.406550,-0.000044,  24.880
   239.4,0.048432,0.026471,0.408821,-0.000018,  24.883
   239.6,0.048400,0.026591,0.411111,-0.000005,  24.891
   239.8,0.048351,0.026655,0.413399,0.000008,  24.896
   240.0,0.048344,0.026682,0.415700,0.000035,  24.899
   240.2,0.048357,0.026674,0.417939,0.000061,  24.904
   240.4,0.048385,0.026667,0.420027,0.000074,  24.912
   240.6,0.048491,0.026640,0.422063,0.000100,  24.923
   240.8,0.048647,0.026602,0.423966,0.000113,  24.929
   241.0,0.048860,0.026590,0.425295,0.000126,  24.941
   241.2,0.049063,0.026579,0.426255,0.000152,  24.949
   241.4,0.049298,0.026580,0.426909,0.000165,  24.957
   241.6,0.049561,0.026618,0.427253,0.000178,  24.970
   241.8,0.049796,0.026682,0.427225,0.000191,  24.979
   242.0,0.050047,0.026759,0.426860,0.000178,  24.974
   242.2,0.050295,0.026854,0.426901,0.000178,  24.977
   242.4,0.050531,0.026978,0.426942,0.000152,  24.972
   242.6,0.050763,0.027122,0.426983,0.000139,  24.972
   242.8,0.050996,0.027248,0.427059,0.000100,  24.967
   243.0,0.051200,0.027386,0.427610,0.000061,  24.963
   243.2,0.051398,0.027531,0.428362,-0.000000,  24.961
   243.4,0.051590,0.027648,0.429295,-0.000005,  24.964
   243.6,0.051697,0.027754,0.430674,-0.000044,  24.968
   243.8,0.051773,0.027846,0.432336,-0.000057,  24.970
   244.0,0.051798,0.027930,0.434292,-0.000057,  24.974
   244.2,0.051794,0.028043,0.436137,-0.000070,  24.980
   244.4,0.051769,0.028154,0.438132,-0.000022,  24.980
   244.6,0.051703,0.028278,0.440249,0.000004,  24.985
   244.8,0.051681,0.028350,0.442198,0.000030,  24.984
   245.0,0.051681,0.028412,0.444199,0.000091,  24.989
   245.2,0.051684,0.028448,0.446186,0.000117,  24.992
   245.4,0.051732,0.028445,0.448031,0.000109,  24.988
   245.6,0.051794,0.028428,0.449818,0.000148,  24.999
   245.8,0.051899,0.028379,0.451430,0.000174,  25.001
   246.0,0.052018,0.028356,0.452815,0.000174,  25.010
   246.2,0.052185,0.028333,0.454052,0.000200,  25.020
   246.4,0.052386,0.028316,0.455029,0.000213,  25.027
   246.6,0.052626,0.028331,0.455573,0.000213,  25.034
   246.8,0.052831,0.028369,0.455830,0.000226,  25.044
   247.0,0.053046,0.028426,0.455683,0.000239,  25.047
   247.2,0.053270,0.028505,0.455824,0.000252,  25.046
   247.4,0.053472,0.028618,0.455891,0.000239,  25.039
   247.6,0.053678,0.028747,0.455891,0.000200,  25.032
   247.8,0.053878,0.028863,0.456215,0.000135,  25.027
   248.0,0.054054,0.028992,0.456731,0.000074,  25.025
   248.2,0.054229,0.029121,0.457334,0.000035,  25.020
   248.4,0.054390,0.029239,0.458406,-0.000018,  25.019
   248.6,0.054510,0.029362,0.459733,-0.000066,  25.018
   248.8,0.054612,0.029475,0.461362,-0.000092,  25.020
   249.0,0.054688,0.029579,0.462861,-0.000096,  25.019
   249.2,0.054703,0.029682,0.464410,-0.000083,  25.018
   249.4,0.054691,0.029780,0.466002,-0.000057,  25.017
   249.6,0.054637,0.029859,0.467299,-0.000031,  25.021
   249.8,0.054608,0.029927,0.468438,0.000008,  25.027
   250.0,0.054593,0.029988,0.469410,0.000035,  25.020
   250.2,0.054571,0.030004,0.470634,0.000074,  25.027
   250.4,0.054596,0.029988,0.471937,0.000113,  25.024
   250.6,0.054637,0.029947,0.473269,0.000152,  25.028
   250.8,0.054711,0.029920,0.474526,0.000165,  25.030
   251.0,0.054824,0.029893,0.475722,0.000178,  25.035
   251.2,0.054980,0.029858,0.476870,0.000204,  25.048
   251.4,0.055173,0.029849,0.477994,0.000217,  25.052
   251.6,0.055341,0.029856,0.478812,0.000217,  25.062
   251.8,0.055532,0.029867,0.479406,0.000195,  25.067
   252.0,0.055723,0.029901,0.479813,0.000230,  25.071
   252.2,0.055891,0.029953,0.480097,0.000243,  25.067
   252.4,0.056069,0.030010,0.480233,0.000230,  25.067
   252.6,0.056231,0.030092,0.480213,0.000217,  25.059
   252.8,0.056380,0.030182,0.480472,0.000165,  25.057
   253.0,0.056534,0.030286,0.480719,0.000126,  25.052
   253.2,0.056677,0.030411,0.481011,0.000087,  25.050
   253.4,0.056801,0.030518,0.481668,0.000035,  25.047
   253.6,0.056915,0.030621,0.482534,-0.000005,  25.047
   253.8,0.057011,0.030723,0.483591,-0.000044,  25.045
   254.0,0.057062,0.030816,0.484415,-0.000083,  25.039
   254.2,0.057081,0.030900,0.485157,-0.000083,  25.040
   254.4,0.057065,0.030985,0.485880,-0.000083,  25.044
   254.6,0.057027,0.031053,0.487248,-0.000057,  25.045
   254.8,0.057014,0.031126,0.488817,-0.000031,  25.043
   255.0,0.056992,0.031190,0.490671,0.000008,  25.047
   255.2,0.056957,0.031210,0.492128,0.000048,  25.046
   255.4,0.056953,0.031220,0.493408,0.000087,  25.048
   255.6,0.056960,0.031202,0.494579,0.000126,  25.042
   255.8,0.056985,0.031183,0.495807,0.000152,  25.049
   256.0,0.057055,0.031163,0.496917,0.000178,  25.050
   256.2,0.057164,0.031129,0.497983,0.000204,  25.053
   256.4,0.057314,0.031108,0.498774,0.000217,  25.062
   256.6,0.057441,0.031097,0.499370,0.000243,  25.074
   256.8,0.057588,0.031095,0.499770,0.000256,  25.081
   257.0,0.057747,0.031120,0.500049,0.000256,  25.089
   257.2,0.057884,0.031170,0.500184,0.000291,  25.091
   257.4,0.058028,0.031238,0.500150,0.000291,  25.087
   257.6,0.058159,0.031306,0.500388,0.000265,  25.079
   257.8,0.058280,0.031396,0.500721,0.000261,  25.074
   258.0,0.058408,0.031488,0.501088,0.000209,  25.076
   258.2,0.058524,0.031565,0.501530,0.000122,  25.070
   258.4,0.058626,0.031649,0.502028,0.000095,  25.059
   258.6,0.058731,0.031731,0.502601,0.000030,  25.057
   258.8,0.058828,0.031806,0.503304,-0.000022,  25.061
   259.0,0.058875,0.031879,0.504063,-0.000035,  25.055
   259.2,0.058911,0.031945,0.504954,-0.000048,  25.057
   259.4,0.058924,0.032006,0.505860,-0.000048,  25.051
   259.6,0.058917,0.032067,0.506810,-0.000022,  25.053
   259.8,0.058895,0.032120,0.507839,0.000017,  25.055
   260.0,0.058857,0.032152,0.508662,0.000056,  25.050
   260.2,0.058837,0.032177,0.509473,0.000082,  25.053
   260.4,0.058827,0.032193,0.510098,0.000122,  25.050
   260.6,0.058821,0.032195,0.510745,0.000100,  25.056
   260.8,0.058850,0.032184,0.511532,0.000161,  25.053
   261.0,0.058907,0.032165,0.512327,0.000152,  25.055
   261.2,0.058991,0.032131,0.513137,0.000165,  25.062
   261.4,0.059071,0.032108,0.513731,0.000226,  25.065
   261.6,0.059180,0.032095,0.514242,0.000252,  25.072
   261.8,0.059302,0.032074,0.514677,0.000265,  25.075
   262.0,0.059401,0.032079,0.515091,0.000278,  25.091
   262.2,0.059510,0.032097,0.515380,0.000291,  25.094
   262.4,0.059613,0.032125,0.515613,0.000304,  25.092
   262.6,0.059702,0.032161,0.515973,0.000291,  25.088
   262.8,0.059796,0.032218,0.516304,0.000265,  25.085
   263.0,0.059876,0.032290,0.516636,0.000226,  25.076
   263.2,0.059943,0.032344,0.516890,0.000161,  25.076
   263.4,0.059997,0.032410,0.517108,0.000109,  25.070
   263.6,0.060049,0.032479,0.517255,0.000069,  25.063
   263.8,0.060087,0.032531,0.517686,0.000017,  25.059
   264.0,0.060129,0.032586,0.518116,-0.000009,  25.057
   264.2,0.060177,0.032641,0.518682,-0.000035,  25.056
   264.4,0.060219,0.032684,0.519277,-0.000061,  25.055
   264.6,0.060216,0.032728,0.519867,-0.000048,  25.057
   264.8,0.060206,0.032774,0.520464,-0.000022,  25.057
   265.0,0.060171,0.032803,0.521055,0.000004,  25.060
   265.2,0.060148,0.032829,0.521647,0.000043,  25.057
   265.4,0.060139,0.032860,0.522197,0.000069,  25.053
   265.6,0.060123,0.032857,0.522675,0.000109,  25.056
   265.8,0.060122,0.032841,0.523045,0.000148,  25.056
   266.0,0.060135,0.032815,0.523379,0.000187,  25.057
   266.2,0.060155,0.032797,0.523809,0.000200,  25.059
   266.4,0.060199,0.032776,0.524246,0.000226,  25.065
   266.6,0.060267,0.032751,0.524627,0.000252,  25.071
   266.8,0.060357,0.032735,0.525008,0.000252,  25.078
   267.0,0.060421,0.032725,0.525310,0.000278,  25.091
   267.2,0.060488,0.032723,0.525526,0.000278,  25.093
   267.4,0.060562,0.032746,0.525828,0.000278,  25.092
   267.6,0.060617,0.032782,0.526137,0.000265,  25.090
   267.8,0.060669,0.032837,0.526330,0.000252,  25.086
   268.0,0.060724,0.032880,0.526540,0.000200,  25.081
   268.2,0.060769,0.032921,0.526786,0.000161,  25.078
   268.4,0.060801,0.032970,0.526989,0.000122,  25.072
   268.6,0.060839,0.033001,0.527193,0.000069,  25.063
   268.8,0.060874,0.033033,0.527453,0.000030,  25.061
   269.0,0.060907,0.033066,0.527706,0.000004,  25.056
   269.2,0.060939,0.033093,0.527960,-0.000070,  25.053
   269.4,0.060938,0.033125,0.528207,-0.000061,  25.054
   269.6,0.060926,0.033155,0.528455,-0.000083,  25.051
   269.8,0.060897,0.033175,0.528665,-0.000083,  25.049
   270.0,0.060877,0.033189,0.528839,-0.000022,  25.052
   270.2,0.060864,0.033202,0.528977,0.000017,  25.054
   270.4,0.060855,0.033212,0.529171,0.000043,  25.052
   270.6,0.060835,0.033207,0.529338,0.000095,  25.052
   270.8,0.060819,0.033202,0.529506,0.000135,  25.051
   271.0,0.060810,0.033184,0.529630,0.000161,  25.052
   271.2,0.060819,0.033175,0.529798,0.000187,  25.052
   271.4,0.060851,0.033155,0.529922,0.000213,  25.058
   271.6,0.060900,0.033132,0.530053,0.000239,  25.065
   271.8,0.060932,0.033111,0.530264,0.000252,  25.076
   272.0,0.060973,0.033095,0.530496,0.000278,  25.081
   272.2,0.061022,0.033072,0.530728,0.000291,  25.088
   272.4,0.061051,0.033069,0.531034,0.000291,  25.095
   272.6,0.061073,0.033083,0.531353,0.000291,  25.092
   272.8,0.061090,0.033106,0.531673,0.000291,  25.090
   273.0,0.061099,0.033134,0.531936,0.000265,  25.086
   273.2,0.061112,0.033159,0.532199,0.000226,  25.077
   273.4,0.061122,0.033191,0.532462,0.000161,  25.075
   273.6,0.061128,0.033221,0.532624,0.000095,  25.067
   273.8,0.061128,0.033242,0.532692,0.000056,  25.063
   274.0,0.061134,0.033263,0.532709,0.000004,  25.059
   274.2,0.061147,0.033271,0.532753,-0.000048,  25.055
   274.4,0.061138,0.033288,0.532665,-0.000061,  25.052
   274.6,0.061131,0.033297,0.532540,-0.000061,  25.053
   274.8,0.061128,0.033304,0.532459,-0.000061,  25.051
   275.0,0.061118,0.033320,0.532341,-0.000035,  25.048
   275.2,0.061109,0.033327,0.532172,0.000017,  25.049
   275.4,0.061106,0.033327,0.532071,0.000056,  25.047
   275.6,0.061080,0.033325,0.531926,0.000095,  25.047
   275.8,0.061054,0.033321,0.531825,0.000135,  25.047
   276.0,0.061032,0.033312,0.531768,0.000161,  25.046
   276.2,0.061012,0.033294,0.531660,0.000187,  25.045
   276.4,0.061009,0.033274,0.531603,0.000213,  25.047
   276.6,0.061013,0.033254,0.531573,0.000226,  25.055
   276.8,0.061009,0.033231,0.531562,0.000252,  25.058
   277.0,0.061026,0.033197,0.531515,0.000265,  25.069
   277.2,0.061035,0.033176,0.531771,0.000278,  25.073
   277.4,0.061028,0.033169,0.532152,0.000291,  25.082
   277.6,0.061032,0.033166,0.532702,0.000304,  25.088
   277.8,0.061022,0.033168,0.533047,0.000291,  25.081
   278.0,0.061003,0.033172,0.533392,0.000278,  25.080
   278.2,0.060993,0.033193,0.533737,0.000252,  25.071
   278.4,0.060964,0.033200,0.534008,0.000178,  25.064
   278.6,0.060935,0.033209,0.534014,0.000161,  25.059
   278.8,0.060919,0.033213,0.533889,0.000087,  25.056
   279.0,0.060894,0.033213,0.533645,0.000035,  25.052
   279.2,0.060871,0.033213,0.533425,0.000017,  25.050
   279.4,0.060858,0.033210,0.533162,-0.000009,  25.043
   279.6,0.060848,0.033211,0.532847,-0.000035,  25.041
   279.8,0.060829,0.033204,0.532496,-0.000061,  25.039
   280.0,0.060810,0.033193,0.532108,-0.000048,  25.044
   280.2,0.060791,0.033182,0.531677,-0.000009,  25.041
   280.4,0.060768,0.033173,0.531158,0.000017,  25.040
   280.6,0.060752,0.033165,0.530610,0.000056,  25.038
   280.8,0.060736,0.033161,0.530019,0.000095,  25.038
   281.0,0.060717,0.033145,0.529546,0.000135,  25.043
   281.2,0.060694,0.033127,0.529067,0.000187,  25.043
   281.4,0.060682,0.033099,0.528625,0.000200,  25.045
   281.6,0.060665,0.033078,0.528284,0.000213,  25.051
   281.8,0.060643,0.033060,0.527950,0.000252,  25.059
   282.0,0.060627,0.033044,0.527623,0.000265,  25.063
   282.2,0.060608,0.033020,0.527623,0.000278,  25.069
   282.4,0.060575,0.032997,0.527803,0.000291,  25.076
   282.6,0.060556,0.032971,0.528157,0.000317,  25.084
   282.8,0.060524,0.032957,0.528665,0.000317,  25.085
   283.0,0.060476,0.032953,0.529248,0.000304,  25.080
   283.2,0.060437,0.032953,0.529955,0.000265,  25.076
   283.4,0.060380,0.032953,0.530210,0.000213,  25.073
   283.6,0.060321,0.032947,0.530254,0.000174,  25.060
   283.8,0.060277,0.032940,0.530049,0.000135,  25.057
   284.0,0.060222,0.032933,0.529794,0.000082,  25.054
   284.2,0.060174,0.032917,0.529358,0.000043,  25.052
   284.4,0.060142,0.032894,0.528719,0.000017,  25.048
   284.6,0.060113,0.032871,0.527970,-0.000035,  25.046
   284.8,0.060078,0.032844,0.527026,-0.000035,  25.050
   285.0,0.060062,0.032814,0.525882,-0.000009,  25.051
   285.2,0.060039,0.032784,0.525192,0.000017,  25.048
   285.4,0.060020,0.032768,0.524605,0.000056,  25.048
   285.6,0.060014,0.032752,0.524134,0.000082,  25.050
   285.8,0.060002,0.032726,0.523591,0.000122,  25.048
   286.0,0.059970,0.032706,0.523000,0.000161,  25.052
   286.2,0.059928,0.032686,0.522366,0.000174,  25.047
   286.4,0.059876,0.032672,0.521054,0.000222,  25.052
   286.6,0.059838,0.032658,0.519339,0.000213,  25.055
   286.8,0.059789,0.032647,0.517275,0.000239,  25.054
   287.0,0.059748,0.032627,0.516836,0.000287,  25.062
   287.2,0.059693,0.032592,0.517050,0.000313,  25.070
   287.4,0.059638,0.032553,0.517797,0.000304,  25.076
   287.6,0.059587,0.032533,0.519243,0.000304,  25.084
   287.8,0.059516,0.032508,0.519877,0.000304,  25.088
   288.0,0.059449,0.032485,0.520611,0.000269,  25.085
   288.2,0.059385,0.032465,0.521324,0.000256,  25.079
   288.4,0.059308,0.032451,0.521767,0.000265,  25.072
   288.6,0.059234,0.032433,0.522083,0.000226,  25.064
   288.8,0.059161,0.032420,0.522284,0.000174,  25.060
   289.0,0.059087,0.032395,0.522142,0.000109,  25.063
   289.2,0.059026,0.032360,0.521701,0.000069,  25.056
   289.4,0.058959,0.032328,0.521052,0.000017,  25.055
   289.6,0.058907,0.032289,0.520448,-0.000048,  25.052
   289.8,0.058882,0.032253,0.519645,-0.000048,  25.051
   290.0,0.058859,0.032214,0.518709,-0.000048,  25.057
   290.2,0.058840,0.032173,0.517924,-0.000022,  25.052
   290.4,0.058831,0.032139,0.517141,0.000017,  25.052
   290.6,0.058821,0.032109,0.516311,0.000043,  25.053
   290.8,0.058831,0.032081,0.515517,0.000095,  25.051
   291.0,0.058802,0.032063,0.514725,0.000135,  25.054
   291.2,0.058767,0.032047,0.513898,0.000161,  25.054
   291.4,0.058729,0.032029,0.513087,0.000187,  25.053
   291.6,0.058674,0.032015,0.512206,0.000213,  25.052
   291.8,0.058620,0.032004,0.511348,0.000226,  25.058
   292.0,0.058559,0.031976,0.510846,0.000226,  25.062
   292.2,0.058485,0.031945,0.510513,0.000252,  25.069
   292.4,0.058415,0.031914,0.510394,0.000265,  25.073
   292.6,0.058348,0.031881,0.510456,0.000278,  25.076
   292.8,0.058265,0.031859,0.510685,0.000291,  25.082
   293.0,0.058188,0.031836,0.511094,0.000304,  25.086
   293.2,0.058112,0.031806,0.511477,0.000291,  25.086
   293.4,0.058019,0.031774,0.511888,0.000252,  25.078
   293.6,0.057927,0.031743,0.512329,0.000213,  25.073
   293.8,0.057825,0.031706,0.512168,0.000169,  25.065
   294.0,0.057725,0.031665,0.511727,0.000095,  25.058
   294.2,0.057636,0.031628,0.510974,0.000043,  25.058
   294.4,0.057541,0.031584,0.510299,-0.000009,  25.060
   294.6,0.057473,0.031539,0.509481,-0.000022,  25.059
   294.8,0.057429,0.031491,0.508499,-0.000022,  25.051
   295.0,0.057394,0.031443,0.507503,-0.000035,  25.056
   295.2,0.057358,0.031400,0.506310,-0.000009,  25.053
   295.4,0.057343,0.031352,0.505099,0.000030,  25.055
   295.6,0.057330,0.031311,0.504057,0.000056,  25.050
   295.8,0.057295,0.031281,0.502977,0.000082,  25.052
   296.0,0.057266,0.031259,0.501927,0.000109,  25.051
   296.2,0.057225,0.031227,0.501021,0.000100,  25.053
   296.4,0.057164,0.031204,0.500124,0.000148,  25.047
   296.6,0.057107,0.031181,0.499364,0.000139,  25.048
   296.8,0.057034,0.031158,0.498565,0.000165,  25.050
   297.0,0.056950,0.031138,0.497869,0.000226,  25.057
   297.2,0.056877,0.031117,0.497181,0.000252,  25.064
   297.4,0.056788,0.031102,0.496581,0.000265,  25.068
   297.6,0.056689,0.031072,0.496474,0.000265,  25.073
   297.8,0.056590,0.031033,0.496601,0.000278,  25.079
   298.0,0.056482,0.030997,0.496911,0.000291,  25.085
   298.2,0.056367,0.030955,0.497248,0.000291,  25.083
   298.4,0.056256,0.030917,0.497740,0.000278,  25.080
   298.6,0.056145,0.030876,0.498274,0.000252,  25.074
   298.8,0.056050,0.030828,0.498280,0.000174,  25.064
   299.0,0.055964,0.030780,0.498010,0.000135,  25.058
   299.2,0.055888,0.030737,0.497531,0.000095,  25.057
   299.4,0.055815,0.030682,0.496911,0.000043,  25.053
   299.6,0.055745,0.030626,0.496009,0.000004,  25.052
   299.8,0.055675,0.030574,0.494908,-0.000022,  25.049
   300.0,0.055618,0.030517,0.493823,-0.000061,  25.050
   300.2,0.055574,0.030460,0.492541,-0.000061,  25.045
   300.4,0.055532,0.030402,0.491122,-0.000022,  25.039
   300.6,0.055513,0.030355,0.489841,0.000017,  25.043
   300.8,0.055488,0.030312,0.488524,0.000056,  25.045
   301.0,0.055456,0.030271,0.487165,0.000082,  25.045
   301.2,0.055440,0.030230,0.485882,0.000122,  25.038
   301.4,0.055390,0.030205,0.484642,0.000161,  25.037
   301.6,0.055316,0.030178,0.483412,0.000187,  25.037
   301.8,0.055240,0.030153,0.482316,0.000200,  25.035
   302.0,0.055155,0.030139,0.481236,0.000226,  25.035
   302.2,0.055059,0.030123,0.480251,0.000252,  25.044
   302.4,0.054964,0.030091,0.479901,0.000265,  25.053
   302.6,0.054863,0.030055,0.479868,0.000278,  25.062
   302.8,0.054755,0.030009,0.480134,0.000291,  25.067
   303.0,0.054651,0.029963,0.480509,0.000291,  25.071
   303.2,0.054536,0.029916,0.481158,0.000291,  25.069
   303.4,0.054409,0.029864,0.481925,0.000278,  25.068
   303.6,0.054289,0.029814,0.482160,0.000226,  25.061
   303.8,0.054162,0.029762,0.482199,0.000187,  25.054
   304.0,0.054033,0.029717,0.482017,0.000148,  25.052
   304.2,0.053906,0.029665,0.481672,0.000082,  25.047
   304.4,0.053789,0.029605,0.481158,0.000043,  25.041
   304.6,0.053685,0.029543,0.480418,0.000017,  25.037
   304.8,0.053580,0.029493,0.479524,-0.000070,  25.029
   305.0,0.053504,0.029441,0.478438,-0.000061,  25.032
   305.2,0.053460,0.029393,0.477168,-0.000096,  25.029
   305.4,0.053425,0.029342,0.475671,-0.000096,  25.029
   305.6,0.053393,0.029283,0.474249,-0.000048,  25.025
   305.8,0.053387,0.029229,0.472768,-0.000022,  25.028
   306.0,0.053387,0.029163,0.471179,0.000017,  25.025
   306.2,0.053346,0.029118,0.469689,0.000056,  25.024
   306.4,0.053299,0.029079,0.468211,0.000082,  25.027
   306.6,0.053239,0.029052,0.466693,0.000122,  25.023
   306.8,0.053159,0.029027,0.465331,0.000148,  25.025
   307.0,0.053071,0.029013,0.464055,0.000174,  25.026
   307.2,0.052976,0.029004,0.462820,0.000200,  25.031
   307.4,0.052891,0.028977,0.462073,0.000226,  25.040
   307.6,0.052803,0.028945,0.461565,0.000265,  25.052
   307.8,0.052724,0.028911,0.461361,0.000278,  25.057
   308.0,0.052636,0.028872,0.461510,0.000278,  25.067
   308.2,0.052509,0.028827,0.461907,0.000278,  25.062
   308.4,0.052381,0.028789,0.462609,0.000278,  25.065
   308.6,0.052232,0.028740,0.462946,0.000265,  25.058
   308.8,0.052087,0.028685,0.463245,0.000226,  25.053
   309.0,0.051949,0.028629,0.463483,0.000174,  25.045
   309.2,0.051795,0.028563,0.463221,0.000109,  25.043
   309.4,0.051653,0.028495,0.462691,0.000069,  25.037
   309.6,0.051533,0.028429,0.461914,0.000030,  25.026
   309.8,0.051404,0.028352,0.460552,-0.000035,  25.027
   310.0,0.051319,0.028280,0.458771,-0.000048,  25.027
   310.2,0.051257,0.028204,0.456559,-0.000048,  25.024
   310.4,0.051222,0.028129,0.455096,-0.000048,  25.021
   310.6,0.051188,0.028059,0.453780,-0.000057,  25.019
   310.8,0.051156,0.027990,0.452508,-0.000018,  25.021
   311.0,0.051153,0.027935,0.451084,0.000021,  25.021
   311.2,0.051116,0.027897,0.449700,0.000026,  25.022
   311.4,0.051066,0.027867,0.448199,0.000065,  25.022
   311.6,0.051007,0.027833,0.446772,0.000126,  25.021
   311.8,0.050929,0.027808,0.445334,0.000152,  25.020
   312.0,0.050837,0.027788,0.443878,0.000178,  25.020
   312.2,0.050723,0.027754,0.442900,0.000191,  25.024
   312.4,0.050610,0.027720,0.442216,0.000217,  25.032
   312.6,0.050487,0.027689,0.441711,0.000230,  25.042
   312.8,0.050365,0.027643,0.441490,0.000243,  25.048
   313.0,0.050236,0.027598,0.441526,0.000256,  25.062
   313.2,0.050095,0.027551,0.441811,0.000256,  25.062
   313.4,0.049957,0.027492,0.442323,0.000269,  25.060
   313.6,0.049806,0.027435,0.442650,0.000256,  25.053
   313.8,0.049659,0.027382,0.443027,0.000195,  25.054
   314.0,0.049509,0.027330,0.443476,0.000178,  25.043
   314.2,0.049364,0.027282,0.443333,0.000113,  25.038
   314.4,0.049233,0.027233,0.442898,0.000061,  25.030
   314.6,0.049095,0.027185,0.442249,0.000021,  25.022
   314.8,0.048985,0.027120,0.441275,-0.000018,  25.026
   315.0,0.048905,0.027043,0.440025,-0.000031,  25.023
   315.2,0.048829,0.026964,0.438496,-0.000057,  25.022
   315.4,0.048766,0.026884,0.437072,-0.000096,  25.020
   315.6,0.048733,0.026815,0.435512,-0.000083,  25.022
   315.8,0.048704,0.026741,0.433824,-0.000044,  25.020
   316.0,0.048670,0.026673,0.431939,-0.000018,  25.020
   316.2,0.048635,0.026617,0.429894,0.000021,  25.017
   316.4,0.048611,0.026570,0.427639,0.000061,  25.019
   316.6,0.048589,0.026524,0.425995,0.000100,  25.019
   316.8,0.048523,0.026490,0.424571,0.000152,  25.022
   317.0,0.048454,0.026463,0.423267,0.000165,  25.021
   317.2,0.048364,0.026438,0.422054,0.000178,  25.024
   317.4,0.048254,0.026418,0.420981,0.000204,  25.031
   317.6,0.048132,0.026396,0.420019,0.000217,  25.036
   317.8,0.047995,0.026355,0.419667,0.000230,  25.047
   318.0,0.047857,0.026316,0.419660,0.000243,  25.051
   318.2,0.047714,0.026269,0.420026,0.000256,  25.058
   318.4,0.047574,0.026214,0.420480,0.000256,  25.062
   318.6,0.047424,0.026153,0.421111,0.000256,  25.059
   318.8,0.047271,0.026090,0.421900,0.000230,  25.054
   319.0,0.047122,0.026025,0.422091,0.000178,  25.045
   319.2,0.046972,0.025960,0.422057,0.000139,  25.045
   319.4,0.046829,0.025890,0.421717,0.000087,  25.037
   319.6,0.046689,0.025816,0.420969,0.000035,  25.028
   319.8,0.046558,0.025737,0.419851,-0.000005,  25.028
   320.0,0.046446,0.025654,0.418371,-0.000044,  25.027
   320.2,0.046347,0.025580,0.416889,-0.000083,  25.020
   320.4,0.046263,0.025502,0.415231,-0.000083,  25.024
   320.6,0.046210,0.025426,0.413353,-0.000070,  25.020
   320.8,0.046180,0.025357,0.411655,-0.000031,  25.022
   321.0,0.046142,0.025289,0.409925,0.000008,  25.018
   321.2,0.046121,0.025224,0.408142,0.000035,  25.020
   321.4,0.046105,0.025172,0.406491,0.000074,  25.019
   321.6,0.046046,0.025133,0.404846,0.000113,  25.026
   321.8,0.045981,0.025107,0.403208,0.000139,  25.025
   322.0,0.045894,0.025077,0.401991,0.000152,  25.020
   322.2,0.045785,0.025062,0.400906,0.000165,  25.023
   322.4,0.045670,0.025049,0.400109,0.000191,  25.022
   322.6,0.045537,0.025011,0.399424,0.000204,  25.033
   322.8,0.045400,0.024971,0.398882,0.000217,  25.039
   323.0,0.045264,0.024924,0.398501,0.000208,  25.050
   323.2,0.045115,0.024879,0.398264,0.000243,  25.054
   323.4,0.044963,0.024834,0.398393,0.000243,  25.064
   323.6,0.044817,0.024791,0.398761,0.000243,  25.063
   323.8,0.044656,0.024746,0.399316,0.000243,  25.060
   324.0,0.044492,0.024683,0.399535,0.000230,  25.055
   324.2,0.044341,0.024616,0.399697,0.000226,  25.044
   324.4,0.044173,0.024541,0.399722,0.000161,  25.043
   324.6,0.044021,0.024466,0.399148,0.000095,  25.038
   324.8,0.043889,0.024390,0.398175,0.000091,  25.031
   325.0,0.043756,0.024316,0.396819,0.000052,  25.028
   325.2,0.043660,0.024232,0.395556,-0.000035,  25.026
   325.4,0.043595,0.024152,0.394130,-0.000048,  25.026
   325.6,0.043546,0.024067,0.392504,-0.000035,  25.020
   325.8,0.043506,0.023983,0.390848,-0.000035,  25.023
   326.0,0.043471,0.023907,0.389060,-0.000009,  25.023
   326.2,0.043466,0.023829,0.387136,0.000043,  25.020
   326.4,0.043466,0.023768,0.385431,0.000082,  25.023
   326.6,0.043413,0.023731,0.383725,0.000122,  25.021
   326.8,0.043351,0.023705,0.382051,0.000161,  25.022
   327.0,0.043283,0.023666,0.380391,0.000174,  25.022
   327.2,0.043184,0.023639,0.378752,0.000200,  25.022
   327.4,0.043075,0.023617,0.377102,0.000226,  25.028
   327.6,0.042953,0.023581,0.376121,0.000239,  25.030
   327.8,0.042816,0.023543,0.375435,0.000265,  25.038
   328.0,0.042684,0.023500,0.375005,0.000265,  25.041
   328.2,0.042543,0.023448,0.374947,0.000278,  25.057
   328.4,0.042394,0.023397,0.375216,0.000291,  25.062
   328.6,0.042249,0.023336,0.375722,0.000304,  25.062
   328.8,0.042105,0.023269,0.376045,0.000291,  25.064
   329.0,0.041948,0.023202,0.376412,0.000265,  25.056
   329.2,0.041794,0.023128,0.376780,0.000226,  25.049
   329.4,0.041634,0.023055,0.376450,0.000161,  25.042
   329.6,0.041479,0.022975,0.375840,0.000109,  25.034
   329.8,0.041335,0.022900,0.374896,0.000069,  25.029
   330.0,0.041192,0.022819,0.373761,0.000017,  25.027
   330.2,0.041074,0.022736,0.372404,-0.000009,  25.024
   330.4,0.040979,0.022662,0.370832,-0.000035,  25.021
   330.6,0.040903,0.022583,0.369286,-0.000048,  25.021
   330.8,0.040832,0.022505,0.367632,-0.000035,  25.017
   331.0,0.040786,0.022429,0.365848,-0.000009,  25.020
   331.2,0.040759,0.022362,0.364355,0.000017,  25.017
   331.4,0.040703,0.022304,0.363023,0.000043,  25.021
   331.6,0.040657,0.022255,0.361719,0.000069,  25.022
   331.8,0.040617,0.022201,0.360513,0.000061,  25.022
   332.0,0.040546,0.022163,0.358951,0.000109,  25.016
   332.2,0.040466,0.022130,0.357254,0.000100,  25.016
   332.4,0.040374,0.022101,0.355447,0.000126,  25.015
   332.6,0.040263,0.022073,0.353856,0.000200,  25.018
   332.8,0.040151,0.022060,0.352262,0.000226,  25.027
   333.0,0.040023,0.022050,0.350688,0.000252,  25.036
   333.2,0.039881,0.022011,0.350175,0.000252,  25.044
   333.4,0.039734,0.021971,0.350140,0.000278,  25.057
   333.6,0.039588,0.021927,0.350654,0.000291,  25.063
   333.8,0.039428,0.021870,0.351067,0.000291,  25.060
   334.0,0.039272,0.021806,0.351596,0.000278,  25.060
   334.2,0.039116,0.021742,0.352365,0.000265,  25.049
   334.4,0.038982,0.021680,0.353642,0.000200,  25.047
   334.6,0.038863,0.021608,0.355260,0.000161,  25.038
   334.8,0.038750,0.021540,0.357195,0.000122,  25.028
   335.0,0.038649,0.021462,0.355961,0.000056,  25.031
   335.2,0.038533,0.021384,0.353329,0.000017,  25.029
   335.4,0.038414,0.021305,0.349283,-0.000022,  25.027
   335.6,0.038295,0.021220,0.347273,-0.000074,  25.021
   335.8,0.038209,0.021135,0.345605,-0.000074,  25.020
   336.0,0.038148,0.021055,0.344226,-0.000048,  25.024
   336.2,0.038112,0.020979,0.342471,-0.000009,  25.022
   336.4,0.038065,0.020910,0.340668,-0.000005,  25.025
   336.6,0.038032,0.020846,0.338796,0.000035,  25.023
   336.8,0.038014,0.020792,0.337036,0.000074,  25.022
   337.0,0.037949,0.020754,0.335322,0.000078,  25.024
   337.2,0.037876,0.020721,0.333612,0.000117,  25.021
   337.4,0.037794,0.020689,0.332087,0.000165,  25.027
   337.6,0.037681,0.020662,0.330683,0.000191,  25.031
   337.8,0.037556,0.020646,0.329330,0.000217,  25.033
   338.0,0.037423,0.020604,0.328659,0.000217,  25.044
   338.2,0.037282,0.020556,0.328353,0.000243,  25.052
   338.4,0.037142,0.020513,0.328443,0.000243,  25.058
   338.6,0.037003,0.020457,0.328237,0.000243,  25.064
   338.8,0.036850,0.020397,0.328112,0.000243,  25.069
   339.0,0.036698,0.020333,0.327979,0.000243,  25.071
   339.2,0.036546,0.020269,0.328117,0.000217,  25.062
   339.4,0.036388,0.020202,0.328392,0.000191,  25.052
   339.6,0.036230,0.020131,0.328819,0.000126,  25.050
   339.8,0.036078,0.020058,0.328320,0.000061,  25.045
   340.0,0.035932,0.019983,0.327403,0.000021,  25.039
   340.2,0.035795,0.019903,0.326126,-0.000005,  25.035
   340.4,0.035669,0.019823,0.325104,-0.000044,  25.032
   340.6,0.035571,0.019738,0.324051,-0.000083,  25.027
   340.8,0.035502,0.019649,0.322899,-0.000131,  25.026
   341.0,0.035454,0.019575,0.321723,-0.000096,  25.026
   341.2,0.035405,0.019520,0.320227,-0.000083,  25.025
   341.4,0.035384,0.019463,0.318555,-0.000057,  25.026
   341.6,0.035369,0.019419,0.316703,-0.000018,  25.024
   341.8,0.035314,0.019365,0.315018,0.000035,  25.023
   342.0,0.035257,0.019321,0.313286,0.000074,  25.023
   342.2,0.035181,0.019281,0.311541,0.000113,  25.024
   342.4,0.035087,0.019248,0.309981,0.000139,  25.022
   342.6,0.034985,0.019221,0.308459,0.000165,  25.018
   342.8,0.034871,0.019199,0.307027,0.000191,  25.030
   343.0,0.034771,0.019164,0.305952,0.000204,  25.034
   343.2,0.034674,0.019121,0.305069,0.000217,  25.042
   343.4,0.034574,0.019071,0.304357,0.000217,  25.048
   343.6,0.034476,0.019022,0.304234,0.000230,  25.057
   343.8,0.034340,0.018974,0.304468,0.000230,  25.067
   344.0,0.034201,0.018919,0.305052,0.000230,  25.067
   344.2,0.034051,0.018862,0.305331,0.000230,  25.065
   344.4,0.033906,0.018795,0.305610,0.000204,  25.057
   344.6,0.033748,0.018724,0.305890,0.000152,  25.053
   344.8,0.033597,0.018658,0.305597,0.000074,  25.044
   345.0,0.033448,0.018594,0.305025,0.000048,  25.041
   345.2,0.033312,0.018523,0.304142,-0.000005,  25.031
   345.4,0.033180,0.018450,0.303022,-0.000057,  25.030
   345.6,0.033071,0.018370,0.301615,-0.000048,  25.025
   345.8,0.032996,0.018291,0.299968,-0.000074,  25.030
   346.0,0.032932,0.018218,0.298423,-0.000087,  25.028
   346.2,0.032872,0.018141,0.296807,-0.000039,  25.027
   346.4,0.032830,0.018066,0.295096,0.000000,  25.030
   346.6,0.032794,0.018004,0.293467,0.000017,  25.026
   346.8,0.032736,0.017953,0.291781,0.000035,  25.022
   347.0,0.032682,0.017918,0.290071,0.000061,  25.023
   347.2,0.032619,0.017873,0.288547,0.000087,  25.024
   347.4,0.032541,0.017836,0.287060,0.000091,  25.028
   347.6,0.032464,0.017804,0.285646,0.000117,  25.025
   347.8,0.032372,0.017763,0.284473,0.000165,  25.028
   348.0,0.032261,0.017730,0.283465,0.000191,  25.031
   348.2,0.032136,0.017697,0.282578,0.000217,  25.041
   348.4,0.032007,0.017652,0.282214,0.000217,  25.045
   348.6,0.031878,0.017613,0.282172,0.000217,  25.064
   348.8,0.031736,0.017567,0.282432,0.000243,  25.068
   349.0,0.031604,0.017509,0.282573,0.000243,  25.068
   349.2,0.031469,0.017455,0.282831,0.000243,  25.064
   349.4,0.031321,0.017391,0.283195,0.000182,  25.063
   349.6,0.031177,0.017338,0.283620,0.000178,  25.052
   349.8,0.031039,0.017289,0.283490,0.000126,  25.048
   350.0,0.030901,0.017236,0.283157,0.000074,  25.047
   350.2,0.030763,0.017197,0.282652,0.000035,  25.041
   350.4,0.030649,0.017128,0.281758,-0.000005,  25.035
   350.6,0.030543,0.017057,0.280539,-0.000044,  25.029
   350.8,0.030450,0.016980,0.279061,-0.000083,  25.035
   351.0,0.030378,0.016903,0.277619,-0.000109,  25.028
   351.2,0.030309,0.016828,0.276043,-0.000096,  25.028
   351.4,0.030267,0.016753,0.274341,-0.000070,  25.036
   351.6,0.030220,0.016682,0.272704,-0.000044,  25.033
   351.8,0.030171,0.016628,0.271049,-0.000005,  25.030
   352.0,0.030139,0.016578,0.269384,0.000035,  25.030
   352.2,0.030088,0.016527,0.267831,0.000074,  25.031
   352.4,0.030034,0.016483,0.266283,0.000113,  25.027
   352.6,0.029977,0.016445,0.264775,0.000139,  25.032
   352.8,0.029914,0.016409,0.263451,0.000152,  25.030
   353.0,0.029818,0.016385,0.262161,0.000178,  25.034
   353.2,0.029708,0.016368,0.260969,0.000204,  25.040
   353.4,0.029579,0.016321,0.260376,0.000217,  25.047
   353.6,0.029462,0.016283,0.260108,0.000243,  25.057
   353.8,0.029330,0.016233,0.260161,0.000243,  25.067
   354.0,0.029205,0.016177,0.260359,0.000243,  25.070
   354.2,0.029076,0.016120,0.260761,0.000243,  25.070
   354.4,0.028947,0.016062,0.261399,0.000217,  25.064
   354.6,0.028819,0.015998,0.261476,0.000178,  25.061
   354.8,0.028684,0.015936,0.261325,0.000139,  25.060
   355.0,0.028559,0.015868,0.261036,0.000087,  25.050
   355.2,0.028425,0.015804,0.260412,0.000035,  25.051
   355.4,0.028299,0.015741,0.259519,0.000017,  25.043
   355.6,0.028183,0.015670,0.258364,-0.000035,  25.038
   355.8,0.028066,0.015602,0.257122,-0.000087,  25.041
   356.0,0.027972,0.015533,0.255665,-0.000065,  25.038
   356.2,0.027905,0.015467,0.254018,-0.000052,  25.040
   356.4,0.027845,0.015399,0.252503,-0.000061,  25.032
   356.6,0.027794,0.015335,0.250946,-0.000022,  25.033
   356.8,0.027762,0.015279,0.249373,0.000017,  25.038
   357.0,0.027735,0.015228,0.247307,0.000043,  25.039
   357.2,0.027678,0.015177,0.244975,0.000069,  25.033
   357.4,0.027625,0.015136,0.242412,0.000109,  25.038
   357.6,0.027560,0.015105,0.241054,0.000135,  25.039
   357.8,0.027473,0.015070,0.240132,0.000161,  25.033
   358.0,0.027381,0.015049,0.239724,0.000187,  25.042
   358.2,0.027280,0.015024,0.239724,0.000152,  25.047
   358.4,0.027169,0.014990,0.239275,0.000200,  25.053
   358.6,0.027056,0.014957,0.238878,0.000178,  25.060
   358.8,0.026941,0.014924,0.238570,0.000204,  25.071
   359.0,0.026821,0.014877,0.238617,0.000239,  25.073
   359.2,0.026706,0.014831,0.238872,0.000252,  25.079
   359.4,0.026594,0.014784,0.239311,0.000239,  25.077
   359.6,0.026466,0.014733,0.239597,0.000239,  25.069
   359.8,0.026345,0.014683,0.239899,0.000213,  25.070
   360.0,0.026211,0.014631,0.240188,0.000161,  25.063
   360.2,0.026083,0.014571,0.239861,0.000082,  25.054
   360.4,0.025974,0.014517,0.239249,0.000043,  25.059
   360.6,0.025858,0.014457,0.238345,0.000004,  25.053
   360.8,0.025775,0.014398,0.237299,-0.000061,  25.051
   361.0,0.025703,0.014336,0.236027,-0.000087,  25.048
   361.2,0.025659,0.014273,0.234566,-0.000087,  25.044
   361.4,0.025630,0.014209,0.233190,-0.000087,  25.040
   361.6,0.025579,0.014150,0.231693,-0.000074,  25.042
   361.8,0.025535,0.014086,0.230128,-0.000035,  25.045
   362.0,0.025494,0.014033,0.228715,0.000017,  25.044
   362.2,0.025428,0.013989,0.227294,0.000069,  25.037
   362.4,0.025366,0.013953,0.225906,0.000095,  25.037
   362.6,0.025298,0.013913,0.224602,0.000109,  25.039
   362.8,0.025214,0.013874,0.223338,0.000148,  25.038
   363.0,0.025138,0.013837,0.222121,0.000174,  25.042
   363.2,0.025052,0.013797,0.221179,0.000174,  25.039
   363.4,0.024953,0.013751,0.220423,0.000200,  25.047
   363.6,0.024860,0.013705,0.219762,0.000213,  25.056
   363.8,0.024750,0.013664,0.219478,0.000213,  25.063
   364.0,0.024637,0.013623,0.219435,0.000226,  25.070
   364.2,0.024531,0.013585,0.219641,0.000226,  25.076
   364.4,0.024413,0.013537,0.219769,0.000239,  25.074
   364.6,0.024298,0.013484,0.219968,0.000226,  25.074
   364.8,0.024179,0.013433,0.220259,0.000187,  25.066
   365.0,0.024065,0.013380,0.219900,0.000135,  25.061
   365.2,0.023953,0.013330,0.219213,0.000109,  25.056
   365.4,0.023834,0.013278,0.218228,0.000056,  25.049
   365.6,0.023726,0.013219,0.217500,-0.000009,  25.039
   365.8,0.023634,0.013162,0.216727,-0.000035,  25.036
   366.0,0.023545,0.013103,0.215901,-0.000061,  25.034
   366.2,0.023478,0.013037,0.215000,-0.000087,  25.030
   366.4,0.023413,0.012984,0.214023,-0.000087,  25.031
   366.6,0.023347,0.012926,0.212971,-0.000074,  25.026
   366.8,0.023301,0.012871,0.211856,-0.000083,  25.033
   367.0,0.023244,0.012822,0.210544,-0.000022,  25.026
   367.2,0.023197,0.012771,0.209117,-0.000018,  25.029
   367.4,0.023150,0.012734,0.207577,0.000008,  25.031
   367.6,0.023084,0.012696,0.206257,0.000095,  25.026
   367.8,0.023019,0.012670,0.204934,0.000135,  25.027
   368.0,0.022945,0.012647,0.203657,0.000161,  25.027
   368.2,0.022859,0.012616,0.202533,0.000187,  25.026
   368.4,0.022772,0.012594,0.201495,0.000213,  25.037
   368.6,0.022681,0.012568,0.200493,0.000226,  25.042
   368.8,0.022580,0.012529,0.199512,0.000239,  25.045
   369.0,0.022487,0.012488,0.198594,0.000252,  25.062
   369.2,0.022384,0.012442,0.197678,0.000252,  25.061
   369.4,0.022274,0.012394,0.197664,0.000252,  25.067
   369.6,0.022175,0.012351,0.198064,0.000252,  25.067
   369.8,0.022066,0.012306,0.198931,0.000239,  25.062
   370.0,0.021951,0.012256,0.199237,0.000200,  25.053
   370.2,0.021843,0.012212,0.199462,0.000174,  25.047
   370.4,0.021728,0.012171,0.199626,0.000135,  25.044
   370.6,0.021640,0.012121,0.199287,0.000056,  25.033
   370.8,0.021557,0.012064,0.198637,0.000004,  25.030
   371.0,0.021493,0.012010,0.197723,-0.000035,  25.031
   371.2,0.021435,0.011953,0.196109,-0.000100,  25.028
   371.4,0.021363,0.011896,0.194024,-0.000100,  25.030
   371.6,0.021306,0.011839,0.191452,-0.000100,  25.027
   371.8,0.021241,0.011784,0.189857,-0.000074,  25.026
   372.0,0.021190,0.011734,0.188499,-0.000048,  25.026
   372.2,0.021162,0.011683,0.187376,-0.000009,  25.026
   372.4,0.021135,0.011634,0.186426,0.000030,  25.024
   372.6,0.021079,0.011597,0.185642,0.000056,  25.028
   372.8,0.021030,0.011565,0.185022,0.000082,  25.027
   373.0,0.020965,0.011532,0.184247,0.000122,  25.025
   373.2,0.020888,0.011504,0.183479,0.000161,  25.027
   373.4,0.020813,0.011478,0.182694,0.000174,  25.028
   373.6,0.020725,0.011444,0.182216,0.000187,  25.035
   373.8,0.020633,0.011408,0.181903,0.000213,  25.040
   374.0,0.020549,0.011362,0.181733,0.000226,  25.048
   374.2,0.020452,0.011313,0.181836,0.000226,  25.060
   374.4,0.020352,0.011275,0.182142,0.000239,  25.066
   374.6,0.020262,0.011236,0.182618,0.000226,  25.063
   374.8,0.020159,0.011191,0.182781,0.000213,  25.062
   375.0,0.020050,0.011145,0.182853,0.000187,  25.056
   375.2,0.019955,0.011106,0.182841,0.000135,  25.054
   375.4,0.019849,0.011060,0.182495,0.000069,  25.049
   375.6,0.019746,0.011010,0.181927,0.000030,  25.042
   375.8,0.019656,0.010966,0.181151,-0.000022,  25.035
   376.0,0.019566,0.010918,0.180254,-0.000074,  25.030
   376.2,0.019486,0.010868,0.179170,-0.000100,  25.031
   376.4,0.019424,0.010815,0.177908,-0.000100,  25.029
   376.6,0.019372,0.010767,0.176933,-0.000135,  25.026
   376.8,0.019315,0.010719,0.176037,-0.000087,  25.028
   377.0,0.019275,0.010673,0.175194,-0.000096,  25.025
   377.2,0.019240,0.010639,0.174411,-0.000057,  25.022
   377.4,0.019181,0.010608,0.173030,0.000017,  25.028
   377.6,0.019129,0.010581,0.171489,0.000069,  25.029
   377.8,0.019069,0.010554,0.169727,0.000095,  25.029
   378.0,0.019001,0.010516,0.168563,0.000122,  25.030
   378.2,0.018941,0.010487,0.167583,0.000161,  25.030
   378.4,0.018870,0.010445,0.166793,0.000174,  25.026
   378.6,0.018791,0.010409,0.166124,0.000187,  25.033
   378.8,0.018719,0.010366,0.165645,0.000213,  25.042
   379.0,0.018634,0.010326,0.165322,0.000226,  25.041
   379.2,0.018540,0.010293,0.165189,0.000226,  25.051
   379.4,0.018459,0.010256,0.165239,0.000239,  25.063
   379.6,0.018369,0.010220,0.165484,0.000252,  25.061
   379.8,0.018290,0.010185,0.165659,0.000252,  25.063
   380.0,0.018213,0.010148,0.165916,0.000239,  25.061
   380.2,0.018153,0.010107,0.166186,0.000200,  25.054
   380.4,0.018092,0.010066,0.166085,0.000135,  25.050
   380.6,0.018004,0.010025,0.165795,0.000109,  25.039
   380.8,0.017920,0.009985,0.165350,0.000056,  25.032
   381.0,0.017827,0.009934,0.164603,-0.000009,  25.032
   381.2,0.017744,0.009899,0.163614,-0.000035,  25.031
   381.4,0.017684,0.009856,0.162398,-0.000061,  25.027
   381.6,0.017620,0.009807,0.161363,-0.000087,  25.028
   381.8,0.017552,0.009764,0.160287,-0.000074,  25.028
   382.0,0.017504,0.009721,0.159177,-0.000061,  25.025
   382.2,0.017451,0.009677,0.158094,-0.000022,  25.025
   382.4,0.017392,0.009638,0.156959,0.000017,  25.026
   382.6,0.017347,0.009606,0.155810,0.000056,  25.024
   382.8,0.017297,0.009562,0.154772,0.000082,  25.026
   383.0,0.017241,0.009519,0.153762,0.000122,  25.028
   383.2,0.017201,0.009476,0.152754,0.000148,  25.026
   383.4,0.017149,0.009439,0.151728,0.000161,  25.028
   383.6,0.017081,0.009408,0.150705,0.000187,  25.031
   383.8,0.017024,0.009380,0.149626,0.000200,  25.036
   384.0,0.016951,0.009345,0.149275,0.000213,  25.043
   384.2,0.016872,0.009312,0.149289,0.000226,  25.050
   384.4,0.016800,0.009282,0.149640,0.000226,  25.057
   384.6,0.016719,0.009247,0.149355,0.000226,  25.064
   384.8,0.016631,0.009212,0.148949,0.000226,  25.063
   385.0,0.016556,0.009185,0.148398,0.000200,  25.061
   385.2,0.016469,0.009147,0.148316,0.000161,  25.060
   385.4,0.016384,0.009115,0.148448,0.000135,  25.054
   385.6,0.016313,0.009083,0.148700,0.000109,  25.049
   385.8,0.016231,0.009042,0.149155,0.000035,  25.042
   386.0,0.016159,0.009003,0.148825,-0.000005,  25.037
   386.2,0.016089,0.008962,0.148266,-0.000079,  25.034
   386.4,0.016026,0.008927,0.147523,-0.000083,  25.033
   386.6,0.015963,0.008893,0.146744,-0.000135,  25.033
   386.8,0.015898,0.008864,0.145829,-0.000122,  25.030
   387.0,0.015844,0.008839,0.144762,-0.000109,  25.027
   387.2,0.015792,0.008807,0.143826,-0.000096,  25.029
   387.4,0.015741,0.008767,0.142857,-0.000057,  25.026
   387.6,0.015708,0.008735,0.141866,-0.000005,  25.026
   387.8,0.015646,0.008696,0.140850,0.000021,  25.028
   388.0,0.015588,0.008659,0.139796,0.000048,  25.025
   388.2,0.015527,0.008620,0.138719,0.000087,  25.028
   388.4,0.015475,0.008583,0.137851,0.000113,  25.026
   388.6,0.015422,0.008548,0.137096,0.000139,  25.030
   388.8,0.015385,0.008518,0.136430,0.000152,  25.033
   389.0,0.015342,0.008481,0.135610,0.000178,  25.040
   389.2,0.015277,0.008438,0.134768,0.000239,  25.047
   389.4,0.015214,0.008393,0.133909,0.000239,  25.053
   389.6,0.015139,0.008358,0.133864,0.000226,  25.063
   389.8,0.015070,0.008323,0.134226,0.000274,  25.064
   390.0,0.014997,0.008296,0.134971,0.000261,  25.064
   390.2,0.014929,0.008259,0.135183,0.000213,  25.060
   390.4,0.014851,0.008233,0.135332,0.000187,  25.057
   390.6,0.014766,0.008206,0.135365,0.000135,  25.050
   390.8,0.014692,0.008166,0.135138,0.000056,  25.044
   391.0,0.014617,0.008139,0.134742,0.000004,  25.042
   391.2,0.014538,0.008109,0.134148,-0.000035,  25.037
   391.4,0.014475,0.008070,0.133445,-0.000087,  25.036
   391.6,0.014414,0.008030,0.132609,-0.000113,  25.036
   391.8,0.014357,0.007991,0.131615,-0.000113,  25.032
   392.0,0.014308,0.007956,0.130713,-0.000087,  25.035
   392.2,0.014262,0.007920,0.129768,-0.000061,  25.033
   392.4,0.014219,0.007886,0.128791,-0.000022,  25.030
   392.6,0.014181,0.007850,0.127861,0.000017,  25.031
   392.8,0.014129,0.007820,0.126922,0.000069,  25.032
   393.0,0.014075,0.007799,0.126002,0.000095,  25.029
   393.2,0.014008,0.007762,0.125125,0.000109,  25.034
   393.4,0.013953,0.007725,0.124264,0.000148,  25.031
   393.6,0.013901,0.007684,0.123438,0.000174,  25.033
   393.8,0.013849,0.007645,0.122812,0.000174,  25.033
   394.0,0.013795,0.007600,0.122286,0.000187,  25.038
   394.2,0.013737,0.007558,0.121880,0.000213,  25.047
   394.4,0.013679,0.007518,0.121699,0.000178,  25.056
   394.6,0.013622,0.007486,0.121675,0.000213,  25.061
   394.8,0.013552,0.007461,0.121822,0.000191,  25.064
   395.0,0.013491,0.007435,0.122099,0.000191,  25.067
   395.2,0.013430,0.007408,0.122184,0.000226,  25.065
   395.4,0.013357,0.007396,0.122293,0.000178,  25.059
   395.6,0.013298,0.007381,0.122391,0.000139,  25.055
   395.8,0.013234,0.007354,0.122221,0.000074,  25.051
   396.0,0.013162,0.007331,0.121904,0.000035,  25.045
   396.2,0.013102,0.007307,0.121467,-0.000018,  25.039
   396.4,0.013047,0.007278,0.120882,-0.000048,  25.043
   396.6,0.012989,0.007253,0.120135,-0.000039,  25.036
   396.8,0.012952,0.007222,0.119229,-0.000065,  25.035
   397.0,0.012900,0.007191,0.118421,-0.000113,  25.033
   397.2,0.012839,0.007159,0.117586,-0.000100,  25.029
   397.4,0.012788,0.007134,0.116679,-0.000074,  25.030
   397.6,0.012742,0.007104,0.115852,-0.000035,  25.028
   397.8,0.012695,0.007077,0.115026,0.000004,  25.027
   398.0,0.012664,0.007050,0.114218,0.000043,  25.033
   398.2,0.012626,0.007015,0.113414,0.000056,  25.024
   398.4,0.012586,0.006974,0.112579,0.000082,  25.027
   398.6,0.012546,0.006930,0.111736,0.000122,  25.026
   398.8,0.012509,0.006891,0.110417,0.000135,  25.026
   399.0,0.012469,0.006859,0.108858,0.000161,  25.026
   399.2,0.012413,0.006833,0.107014,0.000174,  25.034
   399.4,0.012371,0.006800,0.106751,0.000187,  25.047
   399.6,0.012322,0.006771,0.107108,0.000213,  25.052
   399.8,0.012264,0.006745,0.108128,0.000213,  25.058
   400.0,0.012213,0.006717,0.108540,0.000213,  25.064
   400.2,0.012158,0.006700,0.108989,0.000200,  25.061
   400.4,0.012094,0.006688,0.109442,0.000174,  25.060
   400.6,0.012041,0.006664,0.109597,0.000148,  25.050
   400.8,0.011976,0.006640,0.109617,0.000109,  25.046
   401.0,0.011916,0.006618,0.109485,0.000056,  25.038
   401.2,0.011856,0.006594,0.109147,0.000004,  25.036
   401.4,0.011797,0.006572,0.108604,-0.000022,  25.033
   401.6,0.011752,0.006546,0.107868,-0.000074,  25.029
   401.8,0.011704,0.006516,0.107011,-0.000113,  25.027
   402.0,0.011645,0.006489,0.105956,-0.000135,  25.022
   402.2,0.011595,0.006459,0.104743,-0.000122,  25.025
   402.4,0.011537,0.006430,0.103974,-0.000096,  25.020
   402.6,0.011484,0.006408,0.103304,-0.000092,  25.013
   402.8,0.011442,0.006381,0.102761,-0.000053,  25.016
   403.0,0.011397,0.006350,0.102187,0.000008,  25.015
   403.2,0.011344,0.006311,0.101646,0.000035,  25.014
   403.4,0.011308,0.006275,0.101145,0.000061,  25.012
   403.6,0.011262,0.006242,0.100684,0.000074,  25.013
   403.8,0.011212,0.006210,0.100061,0.000087,  25.013
   404.0,0.011176,0.006178,0.099403,0.000078,  25.015
   404.2,0.011136,0.006153,0.098721,0.000139,  25.018
   404.4,0.011086,0.006125,0.098440,0.000165,  25.025
   404.6,0.011047,0.006099,0.098339,0.000191,  25.039
   404.8,0.010998,0.006078,0.098400,0.000204,  25.047
   405.0,0.010945,0.006052,0.098439,0.000204,  25.059
   405.2,0.010900,0.006032,0.098542,0.000217,  25.056
   405.4,0.010843,0.006016,0.098708,0.000204,  25.052
   405.6,0.010789,0.005996,0.098766,0.000191,  25.049
   405.8,0.010739,0.005978,0.098817,0.000165,  25.041
   406.0,0.010687,0.005961,0.098836,0.000113,  25.033
   406.2,0.010641,0.005939,0.098510,0.000035,  25.030
   406.4,0.010601,0.005917,0.097998,-0.000005,  25.024
   406.6,0.010563,0.005898,0.097267,-0.000057,  25.020
   406.8,0.010527,0.005873,0.096579,-0.000109,  25.016
   407.0,0.010465,0.005845,0.095812,-0.000122,  25.013
   407.2,0.010411,0.005815,0.094957,-0.000122,  25.012
   407.4,0.010354,0.005792,0.094214,-0.000109,  25.011
   407.6,0.010307,0.005767,0.093482,-0.000096,  25.008
   407.8,0.010279,0.005742,0.092799,-0.000057,  25.011
   408.0,0.010245,0.005714,0.092085,-0.000018,  25.009
   408.2,0.010192,0.005686,0.091363,0.000021,  25.008
   408.4,0.010148,0.005651,0.090655,0.000048,  25.012
   408.6,0.010087,0.005611,0.090049,0.000074,  25.007
   408.8,0.010041,0.005577,0.089497,0.000113,  25.010
   409.0,0.010004,0.005542,0.088987,0.000139,  25.007
   409.2,0.009972,0.005501,0.088604,0.000139,  25.012
   409.4,0.009931,0.005460,0.088313,0.000152,  25.017
   409.6,0.009897,0.005422,0.088133,0.000178,  25.030
   409.8,0.009869,0.005397,0.088111,0.000165,  25.038
   410.0,0.009825,0.005375,0.088199,0.000178,  25.045
   410.2,0.009795,0.005360,0.088419,0.000178,  25.050
   410.4,0.009762,0.005343,0.088261,0.000178,  25.054
   410.6,0.009720,0.005330,0.087972,0.000152,  25.046
   410.8,0.009679,0.005319,0.087537,0.000100,  25.043
   411.0,0.009632,0.005306,0.087233,0.000035,  25.028
   411.2,0.009589,0.005296,0.086932,-0.000005,  25.025
   411.4,0.009540,0.005287,0.086627,-0.000057,  25.024
   411.6,0.009496,0.005277,0.086246,-0.000109,  25.017
   411.8,0.009452,0.005260,0.085820,-0.000135,  25.011
   412.0,0.009408,0.005236,0.085357,-0.000148,  25.010
   412.2,0.009385,0.005222,0.084939,-0.000161,  25.005
   412.4,0.009342,0.005200,0.084512,-0.000161,  25.009
   412.6,0.009287,0.005172,0.084101,-0.000148,  25.004
   412.8,0.009239,0.005153,0.083689,-0.000109,  25.006
   413.0,0.009188,0.005133,0.083129,-0.000070,  25.007
   413.2,0.009127,0.005114,0.082500,-0.000079,  25.004
   413.4,0.009070,0.005088,0.081824,-0.000005,  25.003
   413.6,0.009027,0.005062,0.081292,0.000035,  24.999
   413.8,0.008986,0.005028,0.080784,0.000061,  24.999
   414.0,0.008954,0.005001,0.080299,0.000087,  25.004
   414.2,0.008923,0.004962,0.079859,0.000113,  25.003
   414.4,0.008891,0.004923,0.079435,0.000126,  25.010
   414.6,0.008875,0.004885,0.079015,0.000152,  25.021
   414.8,0.008839,0.004855,0.078861,0.000165,  25.026
   415.0,0.008805,0.004829,0.078839,0.000191,  25.037
   415.2,0.008768,0.004803,0.078954,0.000204,  25.044
   415.4,0.008724,0.004783,0.079022,0.000191,  25.043
   415.6,0.008694,0.004770,0.079128,0.000178,  25.042
   415.8,0.008651,0.004768,0.079287,0.000152,  25.035
   416.0,0.008617,0.004759,0.079303,0.000100,  25.027
   416.2,0.008576,0.004746,0.079225,0.000074,  25.020
   416.4,0.008554,0.004739,0.079088,0.000021,  25.008
   416.6,0.008523,0.004731,0.078718,-0.000031,  25.006
   416.8,0.008482,0.004714,0.078169,-0.000057,  24.999
   417.0,0.008455,0.004690,0.077468,-0.000109,  24.997
   417.2,0.008415,0.004670,0.076853,-0.000148,  24.995
   417.4,0.008362,0.004656,0.076199,-0.000135,  24.997
   417.6,0.008318,0.004637,0.075508,-0.000122,  24.991
   417.8,0.008258,0.004615,0.074904,-0.000083,  24.994
   418.0,0.008203,0.004606,0.074325,-0.000044,  24.996
   418.2,0.008164,0.004593,0.073762,-0.000005,  24.992
   418.4,0.008118,0.004561,0.073215,0.000021,  24.990
   418.6,0.008072,0.004533,0.072677,0.000048,  24.990
   418.8,0.008042,0.004495,0.072170,0.000087,  24.991
   419.0,0.008005,0.004456,0.071662,0.000100,  24.991
   419.2,0.007969,0.004424,0.071153,0.000126,  24.993
   419.4,0.007951,0.004394,0.070649,0.000139,  24.995
   419.6,0.007925,0.004362,0.070446,0.000152,  25.000
   419.8,0.007890,0.004327,0.070372,0.000178,  25.015
   420.0,0.007871,0.004301,0.070434,0.000191,  25.020
   420.2,0.007842,0.004281,0.070456,0.000191,  25.030
   420.4,0.007807,0.004267,0.070537,0.000191,  25.039
   420.6,0.007783,0.004258,0.070654,0.000178,  25.033
   420.8,0.007751,0.004247,0.070661,0.000152,  25.029
   421.0,0.007713,0.004243,0.070646,0.000113,  25.023
   421.2,0.007686,0.004234,0.070607,0.000061,  25.015
   421.4,0.007649,0.004218,0.070464,-0.000005,  25.000
   421.6,0.007615,0.004211,0.070284,-0.000044,  24.993
   421.8,0.007578,0.004198,0.069992,-0.000070,  24.994
   422.0,0.007548,0.004181,0.069676,-0.000109,  24.985
   422.2,0.007495,0.004170,0.069208,-0.000135,  24.987
   422.4,0.007450,0.004159,0.068634,-0.000183,  24.984
   422.6,0.007396,0.004148,0.067976,-0.000148,  24.983
   422.8,0.007344,0.004133,0.067420,-0.000122,  24.980
   423.0,0.007311,0.004120,0.066849,-0.000061,  24.980
   423.2,0.007268,0.004109,0.066285,-0.000035,  24.974
   423.4,0.007216,0.004088,0.065731,-0.000009,  24.976
   423.6,0.007177,0.004060,0.065183,0.000065,  24.974
   423.8,0.007129,0.004038,0.064607,0.000104,  24.975
   424.0,0.007091,0.004000,0.064106,0.000082,  24.975
   424.2,0.007071,0.003968,0.063606,0.000109,  24.978
   424.4,0.007057,0.003931,0.063136,0.000135,  24.976
   424.6,0.007033,0.003890,0.062786,0.000148,  24.986
   424.8,0.007023,0.003851,0.062508,0.000161,  24.996
   425.0,0.007009,0.003814,0.062299,0.000187,  25.006
   425.2,0.006992,0.003797,0.062361,0.000200,  25.016
   425.4,0.006969,0.003780,0.062603,0.000213,  25.020
   425.6,0.006961,0.003767,0.063026,0.000226,  25.022
   425.8,0.006944,0.003766,0.063185,0.000200,  25.019
   426.0,0.006915,0.003766,0.063282,0.000174,  25.013
   426.2,0.006887,0.003763,0.063312,0.000135,  25.004
   426.4,0.006853,0.003759,0.063178,0.000056,  24.999
   426.6,0.006818,0.003756,0.062923,0.000004,  24.995
   426.8,0.006799,0.003752,0.062550,-0.000035,  24.994
   427.0,0.006768,0.003743,0.062155,-0.000087,  24.989
   427.2,0.006730,0.003732,0.061665,-0.000148,  24.984
   427.4,0.006703,0.003721,0.061117,-0.000161,  24.975
   427.6,0.006669,0.003708,0.060582,-0.000161,  24.974
   427.8,0.006620,0.003695,0.060019,-0.000157,  24.975
   428.0,0.006581,0.003692,0.059426,-0.000131,  24.974
   428.2,0.006527,0.003682,0.058941,-0.000057,  24.975
   428.4,0.006472,0.003664,0.058485,-0.000018,  24.975
   428.6,0.006425,0.003647,0.058068,0.000021,  24.972
   428.8,0.006365,0.003621,0.057604,0.000048,  24.973
   429.0,0.006327,0.003579,0.057103,0.000074,  24.975
   429.2,0.006311,0.003533,0.056587,0.000100,  24.972
   429.4,0.006300,0.003492,0.056257,0.000113,  24.970
   429.6,0.006279,0.003451,0.056010,0.000126,  24.980
   429.8,0.006275,0.003418,0.055851,0.000152,  24.982
   430.0,0.006269,0.003390,0.055346,0.000165,  24.996
   430.2,0.006248,0.003374,0.054699,0.000191,  25.007
   430.4,0.006241,0.003361,0.053910,0.000204,  25.017
   430.6,0.006221,0.003352,0.053813,0.000204,  25.019
   430.8,0.006194,0.003354,0.053982,0.000191,  25.020
   431.0,0.006181,0.003365,0.054440,0.000178,  25.017
   431.2,0.006155,0.003369,0.055173,0.000126,  25.013
   431.4,0.006133,0.003364,0.055278,0.000087,  25.004
   431.6,0.006107,0.003369,0.055293,0.000013,  24.992
   431.8,0.006086,0.003364,0.055222,0.000008,  24.992
   432.0,0.006063,0.003355,0.055063,-0.000044,  24.988
   432.2,0.006031,0.003355,0.054811,-0.000070,  24.978
   432.4,0.006012,0.003349,0.054463,-0.000109,  24.975
   432.6,0.005972,0.003337,0.054078,-0.000148,  24.977
   432.8,0.005915,0.003330,0.053663,-0.000135,  24.977
   433.0,0.005862,0.003319,0.053161,-0.000109,  24.977
   433.2,0.005817,0.003305,0.052718,-0.000070,  24.977
   433.4,0.005762,0.003292,0.052267,-0.000031,  24.978
   433.6,0.005720,0.003282,0.051816,0.000008,  24.980
   433.8,0.005686,0.003257,0.051447,0.000035,  24.980
   434.0,0.005651,0.003223,0.051115,0.000061,  24.977
   434.2,0.005635,0.003180,0.050805,0.000087,  24.975
   434.4,0.005612,0.003148,0.050444,0.000113,  24.980
   434.6,0.005588,0.003118,0.050074,0.000126,  24.983
   434.8,0.005581,0.003084,0.049675,0.000152,  24.989
   435.0,0.005572,0.003054,0.049523,0.000165,  24.997
   435.2,0.005554,0.003026,0.049465,0.000191,  25.010
   435.4,0.005549,0.002998,0.049494,0.000204,  25.021
   435.6,0.005538,0.002983,0.049617,0.000191,  25.024
   435.8,0.005520,0.002978,0.049814,0.000191,  25.027
   436.0,0.005513,0.002980,0.050076,0.000178,  25.030
   436.2,0.005496,0.002980,0.050098,0.000139,  25.022
   436.4,0.005469,0.002980,0.050075,0.000100,  25.012
   436.6,0.005453,0.002983,0.049978,0.000061,  25.006
   436.8,0.005428,0.002983,0.049761,-0.000005,  25.004
   437.0,0.005401,0.002976,0.049481,-0.000057,  25.003
   437.2,0.005385,0.002971,0.049120,-0.000122,  24.999
   437.4,0.005360,0.002967,0.048760,-0.000174,  24.999
   437.6,0.005316,0.002956,0.048350,-0.000174,  24.998
   437.8,0.005278,0.002950,0.047882,-0.000161,  24.995
   438.0,0.005221,0.002942,0.047320,-0.000135,  24.996
   438.2,0.005175,0.002929,0.046665,-0.000096,  24.995
   438.4,0.005142,0.002920,0.045952,-0.000070,  24.995
   438.6,0.005102,0.002898,0.045537,-0.000031,  24.996
   438.8,0.005056,0.002869,0.045225,0.000021,  24.999
   439.0,0.005023,0.002841,0.045027,0.000048,  24.998
   439.2,0.004986,0.002811,0.044771,0.000074,  24.998
   439.4,0.004960,0.002774,0.044573,0.000100,  24.998
   439.6,0.004958,0.002747,0.044366,0.000113,  25.002
   439.8,0.004958,0.002713,0.044203,0.000126,  25.005
   440.0,0.004949,0.002675,0.043852,0.000126,  25.015
   440.2,0.004943,0.002637,0.043421,0.000117,  25.014
   440.4,0.004935,0.002623,0.042948,0.000152,  25.017
   440.6,0.004919,0.002607,0.042991,0.000165,  25.032
   440.8,0.004915,0.002612,0.043257,0.000165,  25.036
   441.0,0.004905,0.002616,0.043766,0.000178,  25.035
   441.2,0.004884,0.002610,0.043960,0.000165,  25.037
   441.4,0.004871,0.002617,0.044103,0.000139,  25.026
   441.6,0.004854,0.002627,0.044203,0.000087,  25.018
   441.8,0.004834,0.002631,0.044168,0.000008,  25.015
   442.0,0.004822,0.002631,0.044040,-0.000044,  25.012
   442.2,0.004810,0.002629,0.043806,-0.000083,  25.010
   442.4,0.004787,0.002629,0.043500,-0.000135,  25.007
   442.6,0.004765,0.002627,0.043123,-0.000148,  25.006
   442.8,0.004738,0.002628,0.042660,-0.000161,  25.003
   443.0,0.004706,0.002624,0.042283,-0.000148,  24.998
   443.2,0.004656,0.002617,0.041900,-0.000109,  24.999
   443.4,0.004616,0.002609,0.041510,-0.000096,  25.001
   443.6,0.004566,0.002604,0.041185,-0.000057,  25.000
   443.8,0.004514,0.002593,0.040882,-0.000018,  24.997
   444.0,0.004472,0.002578,0.040608,0.000021,  24.999
   444.2,0.004419,0.002553,0.040277,0.000048,  24.996
   444.4,0.004387,0.002517,0.039937,0.000074,  24.997
   444.6,0.004379,0.002465,0.039590,0.000100,  24.992
   444.8,0.004376,0.002427,0.039308,0.000113,  24.996
   445.0,0.004364,0.002388,0.039082,0.000126,  24.999
   445.2,0.004368,0.002346,0.038870,0.000139,  25.009
   445.4,0.004371,0.002322,0.038835,0.000152,  25.014
   445.6,0.004371,0.002309,0.038913,0.000200,  25.025
   445.8,0.004372,0.002301,0.039083,0.000213,  25.026
   446.0,0.004370,0.002301,0.039175,0.000200,  25.028
   446.2,0.004364,0.002303,0.039273,0.000174,  25.026
   446.4,0.004349,0.002314,0.039386,0.000148,  25.020
   446.6,0.004335,0.002322,0.039330,0.000048,  25.009
   446.8,0.004324,0.002329,0.039202,-0.000026,  25.008
   447.0,0.004303,0.002337,0.038997,-0.000066,  25.000
   447.2,0.004296,0.002339,0.038558,-0.000096,  25.000
   447.4,0.004281,0.002340,0.037959,-0.000122,  24.989
   447.6,0.004255,0.002343,0.037204,-0.000148,  24.991
   447.8,0.004245,0.002338,0.036868,-0.000174,  24.988
   448.0,0.004208,0.002333,0.036638,-0.000161,  24.979
   448.2,0.004153,0.002331,0.036557,-0.000135,  24.981
   448.4,0.004104,0.002324,0.036347,-0.000096,  24.983
   448.6,0.004049,0.002322,0.036138,-0.000070,  24.978
   448.8,0.003998,0.002318,0.035942,-0.000031,  24.976
   449.0,0.003947,0.002300,0.035739,-0.000018,  24.978
   449.2,0.003913,0.002278,0.035538,0.000008,  24.978
   449.4,0.003900,0.002248,0.035329,-0.000000,  24.971
   449.6,0.003888,0.002218,0.035121,0.000061,  24.977
   449.8,0.003879,0.002188,0.034919,0.000074,  24.977
   450.0,0.003879,0.002152,0.034689,0.000100,  24.976
   450.2,0.003890,0.002118,0.034486,0.000113,  24.987
   450.4,0.003886,0.002093,0.034431,0.000126,  24.997
   450.6,0.003889,0.002065,0.034424,0.000174,  25.008
   450.8,0.003893,0.002048,0.034507,0.000200,  25.012
   451.0,0.003883,0.002046,0.034570,0.000200,  25.019
   451.2,0.003887,0.002050,0.034653,0.000222,  25.015
   451.4,0.003888,0.002062,0.034757,0.000209,  25.015
   451.6,0.003883,0.002067,0.033652,0.000148,  25.000
   451.8,0.003867,0.002073,0.031936,0.000109,  24.998
   452.0,0.003866,0.002082,0.029584,0.000056,  24.995
   452.2,0.003854,0.002084,0.029398,0.000004,  24.986
   452.4,0.003843,0.002089,0.029954,-0.000057,  24.976
   452.6,0.003826,0.002096,0.031281,-0.000109,  24.973
   452.8,0.003813,0.002100,0.031548,-0.000161,  24.975
   453.0,0.003782,0.002100,0.031638,-0.000183,  24.974
   453.2,0.003733,0.002098,0.031579,-0.000170,  24.970
   453.4,0.003689,0.002096,0.031611,-0.000109,  24.972
   453.6,0.003650,0.002087,0.031618,-0.000083,  24.966
   453.8,0.003598,0.002079,0.031578,-0.000044,  24.971
   454.0,0.003560,0.002064,0.031476,-0.000005,  24.971
   454.2,0.003526,0.002037,0.031333,0.000021,  24.968
   454.4,0.003488,0.002003,0.031142,0.000048,  24.971
   454.6,0.003469,0.001980,0.030994,0.000087,  24.965
   454.8,0.003458,0.001950,0.030826,0.000126,  24.968
   455.0,0.003449,0.001915,0.030672,0.000139,  24.967
   455.2,0.003464,0.001881,0.030602,0.000139,  24.976
   455.4,0.003466,0.001849,0.030580,0.000165,  24.982
   455.6,0.003468,0.001819,0.030600,0.000178,  24.991
   455.8,0.003477,0.001803,0.030633,0.000178,  25.001
   456.0,0.003473,0.001799,0.030680,0.000178,  25.005
   456.2,0.003473,0.001810,0.030776,0.000165,  25.014
   456.4,0.003467,0.001822,0.030879,0.000152,  25.008
   456.6,0.003458,0.001830,0.030990,0.000126,  24.998
   456.8,0.003456,0.001843,0.031108,0.000074,  24.998
   457.0,0.003451,0.001854,0.031094,0.000008,  24.986
   457.2,0.003436,0.001863,0.030998,-0.000031,  24.980
   457.4,0.003432,0.001868,0.030845,-0.000057,  24.977
   457.6,0.003418,0.001869,0.030617,-0.000096,  24.973
   457.8,0.003395,0.001873,0.030396,-0.000135,  24.969
   458.0,0.003364,0.001871,0.030113,-0.000183,  24.968
   458.2,0.003331,0.001871,0.029802,-0.000148,  24.968
   458.4,0.003288,0.001868,0.029519,-0.000135,  24.967
   458.6,0.003239,0.001866,0.029223,-0.000096,  24.966
   458.8,0.003197,0.001867,0.028927,-0.000070,  24.966
   459.0,0.003148,0.001854,0.028659,-0.000044,  24.968
   459.2,0.003107,0.001846,0.028411,0.000008,  24.964
   459.4,0.003066,0.001831,0.028164,0.000035,  24.967
   459.6,0.003039,0.001800,0.027882,0.000061,  24.965
   459.8,0.003038,0.001766,0.027621,0.000100,  24.966
   460.0,0.003040,0.001724,0.027332,0.000113,  24.963
   460.2,0.003040,0.001685,0.027154,0.000126,  24.968
   460.4,0.003039,0.001650,0.027058,0.000139,  24.974
   460.6,0.003054,0.001612,0.027003,0.000165,  24.984
   460.8,0.003066,0.001590,0.027024,0.000165,  24.991
   461.0,0.003065,0.001584,0.027113,0.000200,  25.003
   461.2,0.003074,0.001581,0.027237,0.000213,  25.009
   461.4,0.003080,0.001585,0.026927,0.000200,  25.005
   461.6,0.003076,0.001592,0.026424,0.000209,  25.002
   461.8,0.003080,0.001605,0.025724,0.000183,  24.996
   462.0,0.003077,0.001616,0.025676,0.000082,  24.987
   462.2,0.003067,0.001626,0.025868,0.000043,  24.980
   462.4,0.003066,0.001642,0.026273,0.000004,  24.974
   462.6,0.003054,0.001648,0.026302,-0.000048,  24.970
   462.8,0.003039,0.001657,0.026241,-0.000074,  24.966
   463.0,0.003029,0.001661,0.026105,-0.000100,  24.965
   463.2,0.003009,0.001664,0.025982,-0.000113,  24.966
   463.4,0.002969,0.001661,0.025812,-0.000100,  24.965
   463.6,0.002931,0.001659,0.025607,-0.000087,  24.965
   463.8,0.002872,0.001654,0.025417,-0.000061,  24.965
   464.0,0.002817,0.001647,0.025205,-0.000057,  24.962
   464.2,0.002776,0.001650,0.024980,-0.000005,  24.959
   464.4,0.002725,0.001626,0.024783,0.000021,  24.959
   464.6,0.002696,0.001589,0.024585,0.000013,  24.959
   464.8,0.002692,0.001546,0.024381,0.000039,  24.961
   465.0,0.002689,0.001509,0.023911,0.000087,  24.959
   465.2,0.002688,0.001477,0.023338,0.000113,  24.963
   465.4,0.002706,0.001441,0.022611,0.000126,  24.967
   465.6,0.002723,0.001417,0.022156,0.000139,  24.974
   465.8,0.002727,0.001398,0.021763,0.000165,  24.980
   466.0,0.002735,0.001390,0.021424,0.000178,  24.993
   466.2,0.002747,0.001388,0.021471,0.000178,  25.000
   466.4,0.002743,0.001398,0.021783,0.000178,  25.003
   466.6,0.002743,0.001420,0.022291,0.000165,  24.998
   466.8,0.002747,0.001425,0.023058,0.000139,  24.995
   467.0,0.002740,0.001437,0.023344,0.000100,  24.985
   467.2,0.002741,0.001450,0.023562,0.000026,  24.981
   467.4,0.002742,0.001455,0.023712,0.000008,  24.976
   467.6,0.002733,0.001464,0.023767,-0.000044,  24.969
   467.8,0.002728,0.001470,0.023748,-0.000070,  24.967
   468.0,0.002717,0.001475,0.023639,-0.000109,  24.965
   468.2,0.002679,0.001482,0.023483,-0.000161,  24.963
   468.4,0.002641,0.001482,0.023252,-0.000148,  24.964
   468.6,0.002585,0.001482,0.022960,-0.000122,  24.962
   468.8,0.002536,0.001484,0.022716,-0.000096,  24.962
   469.0,0.002498,0.001479,0.022452,-0.000057,  24.964
   469.2,0.002453,0.001484,0.022187,-0.000018,  24.964
   469.4,0.002422,0.001470,0.021977,0.000008,  24.964
   469.6,0.002390,0.001436,0.021781,0.000035,  24.960
   469.8,0.002377,0.001398,0.021612,0.000061,  24.968
   470.0,0.002363,0.001369,0.021456,0.000087,  24.965
   470.2,0.002356,0.001336,0.021308,0.000113,  24.964
   470.4,0.002368,0.001302,0.021152,0.000126,  24.963
   470.6,0.002385,0.001268,0.020686,0.000152,  24.975
   470.8,0.002390,0.001240,0.020064,0.000200,  24.978
   471.0,0.002411,0.001220,0.019276,0.000213,  24.986
   471.2,0.002422,0.001211,0.019094,0.000200,  24.992
   471.4,0.002426,0.001209,0.019121,0.000235,  24.997
   471.6,0.002439,0.001223,0.019363,0.000235,  25.000
   471.8,0.002444,0.001231,0.019625,0.000174,  24.994
   472.0,0.002443,0.001240,0.020010,0.000100,  24.995
   472.2,0.002447,0.001259,0.020536,0.000061,  24.986
   472.4,0.002444,0.001267,0.020685,-0.000018,  24.974
   472.6,0.002444,0.001282,0.020726,-0.000092,  24.968
   472.8,0.002436,0.001293,0.020632,-0.000144,  24.965
   473.0,0.002434,0.001299,0.020571,-0.000161,  24.959
   473.2,0.002408,0.001310,0.020457,-0.000161,  24.960
   473.4,0.002370,0.001315,0.020281,-0.000174,  24.953
   473.6,0.002331,0.001318,0.020120,-0.000174,  24.946
   473.8,0.002285,0.001320,0.019938,-0.000135,  24.946
   474.0,0.002243,0.001322,0.019742,-0.000109,  24.946
   474.2,0.002202,0.001310,0.019547,-0.000057,  24.946
   474.4,0.002155,0.001295,0.019365,-0.000018,  24.943
   474.6,0.002116,0.001279,0.019170,0.000008,  24.943
   474.8,0.002081,0.001253,0.019002,0.000035,  24.944
   475.0,0.002063,0.001214,0.018861,0.000061,  24.947
   475.2,0.002072,0.001174,0.018693,0.000087,  24.948
   475.4,0.002096,0.001144,0.018599,0.000100,  24.946
   475.6,0.002100,0.001116,0.018538,0.000113,  24.950
   475.8,0.002121,0.001085,0.018525,0.000126,  24.958
   476.0,0.002141,0.001065,0.018525,0.000139,  24.972
   476.2,0.002151,0.001058,0.018558,0.000139,  24.978
   476.4,0.002172,0.001058,0.018632,0.000117,  24.987
   476.6,0.002183,0.001060,0.018720,0.000152,  24.986
   476.8,0.002187,0.001064,0.018814,0.000139,  24.985
   477.0,0.002200,0.001082,0.018921,0.000100,  24.978
   477.2,0.002200,0.001105,0.019029,0.000061,  24.970
   477.4,0.002204,0.001119,0.019063,-0.000005,  24.963
   477.6,0.002212,0.001139,0.019069,-0.000057,  24.959
   477.8,0.002211,0.001153,0.019029,-0.000109,  24.958
   478.0,0.002209,0.001165,0.018888,-0.000148,  24.955
   478.2,0.002201,0.001172,0.018659,-0.000161,  24.950
   478.4,0.002183,0.001181,0.018344,-0.000174,  24.948
   478.6,0.002161,0.001189,0.018142,-0.000187,  24.945
   478.8,0.002121,0.001193,0.017941,-0.000161,  24.945
   479.0,0.002078,0.001197,0.017760,-0.000122,  24.950
   479.2,0.002022,0.001194,0.017103,-0.000096,  24.947
   479.4,0.001977,0.001192,0.016187,-0.000057,  24.948
   479.6,0.001927,0.001191,0.015054,-0.000018,  24.951
   479.8,0.001876,0.001162,0.014854,0.000008,  24.949
   480.0,0.001860,0.001129,0.014987,0.000035,  24.948
   480.2,0.001851,0.001083,0.015460,0.000061,  24.949
   480.4,0.001860,0.001044,0.015600,0.000074,  24.951
   480.6,0.001871,0.001011,0.015733,0.000100,  24.952
   480.8,0.001890,0.000975,0.015833,0.000126,  24.964
   481.0,0.001913,0.000953,0.015967,0.000139,  24.977
   481.2,0.001930,0.000941,0.016087,0.000152,  24.982
   481.4,0.001943,0.000940,0.016207,0.000165,  24.988
   481.6,0.001959,0.000942,0.016341,0.000152,  24.995
   481.8,0.001964,0.000954,0.016488,0.000139,  24.995
   482.0,0.001975,0.000979,0.016628,0.000100,  24.989
   482.2,0.001981,0.000988,0.015604,0.000061,  24.980
   482.4,0.001986,0.001007,0.013999,0.000021,  24.981
   482.6,0.001992,0.001019,0.011793,-0.000018,  24.967
   482.8,0.001999,0.001032,0.011712,-0.000070,  24.968
   483.0,0.001999,0.001045,0.012409,-0.000109,  24.964
   483.2,0.001986,0.001058,0.013865,-0.000135,  24.964
   483.4,0.001985,0.001070,0.014222,-0.000187,  24.969
   483.6,0.001954,0.001076,0.014405,-0.000187,  24.967
   483.8,0.001902,0.001075,0.014433,-0.000174,  24.964
   484.0,0.001850,0.001079,0.014568,-0.000148,  24.962
   484.2,0.001805,0.001084,0.014675,-0.000109,  24.962
   484.4,0.001753,0.001090,0.014769,-0.000105,  24.959
   484.6,0.001718,0.001079,0.014816,-0.000044,  24.964
   484.8,0.001693,0.001062,0.014777,-0.000005,  24.966
   485.0,0.001664,0.001036,0.014671,0.000021,  24.963
   485.2,0.001654,0.001002,0.014525,0.000048,  24.966
   485.4,0.001656,0.000971,0.014492,0.000074,  24.968
   485.6,0.001661,0.000944,0.014479,0.000113,  24.968
   485.8,0.001687,0.000905,0.014485,0.000139,  24.972
   486.0,0.001704,0.000877,0.014359,0.000139,  24.981
   486.2,0.001711,0.000852,0.014173,0.000152,  24.981
   486.4,0.001738,0.000829,0.013935,0.000178,  24.991
   486.6,0.001752,0.000825,0.014028,0.000165,  24.996
   486.8,0.001756,0.000835,0.014267,0.000165,  25.003
   487.0,0.001771,0.000852,0.014660,0.000152,  25.000
   487.2,0.001780,0.000866,0.014520,0.000126,  24.994
   487.4,0.001785,0.000883,0.014181,0.000087,  24.988
   487.6,0.001791,0.000905,0.013657,0.000048,  24.982
   487.8,0.001791,0.000923,0.013233,-0.000018,  24.978
   488.0,0.001791,0.000936,0.012757,-0.000057,  24.978
   488.2,0.001794,0.000944,0.012221,-0.000109,  24.973
   488.4,0.001794,0.000954,0.012261,-0.000161,  24.980
   488.6,0.001774,0.000961,0.012578,-0.000161,  24.971
   488.8,0.001734,0.000965,0.013146,-0.000148,  24.978
   489.0,0.001698,0.000968,0.013265,-0.000135,  24.976
   489.2,0.001662,0.000972,0.013291,-0.000096,  24.977
   489.4,0.001616,0.000976,0.013218,-0.000070,  24.978
   489.6,0.001581,0.000963,0.013238,-0.000044,  24.977
   489.8,0.001544,0.000950,0.013245,-0.000005,  24.980
   490.0,0.001501,0.000939,0.013251,0.000035,  24.976
   490.2,0.001471,0.000914,0.013251,0.000048,  24.980
   490.4,0.001463,0.000883,0.013224,0.000074,  24.979
   490.6,0.001465,0.000843,0.013191,0.000100,  24.982
   490.8,0.001494,0.000807,0.013171,0.000113,  24.982
   491.0,0.001513,0.000780,0.013118,0.000126,  24.982
   491.2,0.001526,0.000740,0.013058,0.000139,  24.990
   491.4,0.001553,0.000725,0.013158,0.000152,  24.992
   491.6,0.001572,0.000722,0.013310,0.000165,  25.004
   491.8,0.001582,0.000729,0.013542,0.000178,  25.009
   492.0,0.001600,0.000739,0.013675,0.000165,  25.011
   492.2,0.001612,0.000758,0.013808,0.000139,  25.008
   492.4,0.001616,0.000784,0.013921,0.000100,  25.001
   492.6,0.001631,0.000803,0.013901,0.000021,  24.996
   492.8,0.001630,0.000820,0.013815,-0.000031,  24.994
   493.0,0.001633,0.000837,0.013649,-0.000070,  24.986
   493.2,0.001636,0.000855,0.013556,-0.000135,  24.982
   493.4,0.001623,0.000870,0.013456,-0.000161,  24.979
   493.6,0.001616,0.000875,0.013350,-0.000174,  24.975
   493.8,0.001596,0.000883,0.013250,-0.000174,  24.970
   494.0,0.001559,0.000894,0.013131,-0.000161,  24.969
   494.2,0.001520,0.000893,0.013018,-0.000170,  24.969
   494.4,0.001463,0.000900,0.012885,-0.000109,  24.967
   494.6,0.001412,0.000902,0.012713,-0.000057,  24.969
   494.8,0.001370,0.000897,0.012475,-0.000018,  24.965
   495.0,0.001329,0.000897,0.012223,0.000008,  24.969
   495.2,0.001308,0.000873,0.012084,0.000035,  24.968
   495.4,0.001312,0.000837,0.011965,0.000061,  24.964
   495.6,0.001330,0.000796,0.011879,0.000087,  24.963
   495.8,0.001340,0.000755,0.011615,0.000100,  24.964
   496.0,0.001369,0.000716,0.011259,0.000126,  24.970
   496.2,0.001395,0.000683,0.010818,0.000139,  24.976
   496.4,0.001411,0.000661,0.010824,0.000152,  24.982
   496.6,0.001421,0.000655,0.011002,0.000178,  24.990
   496.8,0.001439,0.000660,0.011345,0.000178,  24.996
   497.0,0.001448,0.000663,0.011510,0.000178,  25.004
   497.2,0.001452,0.000677,0.011669,0.000200,  25.001
   497.4,0.001470,0.000707,0.011807,0.000148,  24.993
   497.6,0.001481,0.000723,0.011906,0.000095,  24.979
   497.8,0.001490,0.000737,0.011992,0.000091,  24.978
   498.0,0.001495,0.000760,0.012032,0.000052,  24.971
   498.2,0.001502,0.000775,0.012025,-0.000035,  24.966
   498.4,0.001502,0.000788,0.011978,-0.000061,  24.963
   498.6,0.001495,0.000801,0.011899,-0.000087,  24.965
   498.8,0.001494,0.000810,0.011780,-0.000113,  24.962
   499.0,0.001466,0.000818,0.011614,-0.000100,  24.961
   499.2,0.001414,0.000823,0.011423,-0.000074,  24.961
   499.4,0.001362,0.000830,0.011330,-0.000035,  24.960
   499.6,0.001320,0.000832,0.011238,0.000004,  24.961
   499.8,0.001268,0.000836,0.011185,0.000043,  24.957
   500.0,0.001227,0.000813,0.011086,0.000056,  24.962
   500.2,0.001202,0.000786,0.010993,0.000082,  24.957
   500.4,0.001179,0.000746,0.010888,0.000122,  24.961
   500.6,0.001177,0.000711,0.010782,0.000135,  24.959
   500.8,0.001183,0.000675,0.010651,0.000161,  24.965
   501.0,0.001195,0.000645,0.010506,0.000174,  24.966
   501.2,0.001230,0.000617,0.010256,0.000187,  24.973
   501.4,0.001250,0.000595,0.009928,0.000213,  24.981
   501.6,0.001266,0.000579,0.009541,0.000226,  24.985
   501.8,0.001295,0.000574,0.009535,0.000226,  24.990
   502.0,0.001312,0.000585,0.009705,0.000226,  24.994
   502.2,0.001319,0.000611,0.010007,0.000226,  25.003
   502.4,0.001337,0.000623,0.010500,0.000178,  24.998
   502.6,0.001351,0.000644,0.010671,0.000174,  24.993
   502.8,0.001352,0.000665,0.010823,0.000113,  24.984
   503.0,0.001365,0.000680,0.010941,0.000061,  24.980
   503.2,0.001373,0.000690,0.010809,0.000030,  24.977
   503.4,0.001369,0.000703,0.010526,-0.000022,  24.974
   503.6,0.001376,0.000716,0.010112,-0.000074,  24.970
   503.8,0.001356,0.000725,0.009987,-0.000113,  24.969
   504.0,0.001316,0.000736,0.009947,-0.000100,  24.972
   504.2,0.001272,0.000750,0.009993,-0.000100,  24.966
   504.4,0.001233,0.000752,0.009966,-0.000074,  24.972
   504.6,0.001190,0.000762,0.009959,-0.000048,  24.971
   504.8,0.001155,0.000771,0.009952,-0.000009,  24.970
   505.0,0.001124,0.000757,0.009709,0.000017,  24.971
   505.2,0.001099,0.000747,0.009368,0.000056,  24.969
   505.4,0.001079,0.000724,0.008896,0.000082,  24.973
   505.6,0.001062,0.000694,0.008824,0.000109,  24.971
   505.8,0.001065,0.000665,0.008908,0.000148,  24.972
   506.0,0.001073,0.000632,0.009150,0.000174,  24.974
   506.2,0.001096,0.000602,0.009209,0.000174,  24.975
   506.4,0.001113,0.000567,0.009262,0.000187,  24.977
   506.6,0.001125,0.000534,0.009288,0.000213,  24.986
   506.8,0.001152,0.000525,0.009419,0.000200,  24.988
   507.0,0.001169,0.000527,0.009577,0.000200,  24.994
   507.2,0.001188,0.000540,0.009768,0.000213,  25.006
   507.4,0.001212,0.000548,0.009899,0.000200,  25.001
   507.6,0.001226,0.000566,0.010024,0.000174,  24.996
   507.8,0.001237,0.000592,0.010136,0.000135,  24.992
   508.0,0.001243,0.000606,0.010110,0.000056,  24.982
   508.2,0.001248,0.000623,0.010011,0.000017,  24.980
   508.4,0.001251,0.000640,0.009847,-0.000022,  24.978
   508.6,0.001258,0.000650,0.009781,-0.000074,  24.974
   508.8,0.001246,0.000658,0.009734,-0.000100,  24.975
   509.0,0.001220,0.000666,0.009681,-0.000100,  24.972
   509.2,0.001202,0.000670,0.009609,-0.000087,  24.974
   509.4,0.001171,0.000680,0.009543,-0.000074,  24.973
   509.6,0.001122,0.000689,0.009470,-0.000048,  24.973
   509.8,0.001074,0.000680,0.009365,0.000004,  24.975
   510.0,0.001035,0.000677,0.009240,0.000056,  24.970
   510.2,0.000987,0.000671,0.009102,0.000069,  24.974
   510.4,0.000944,0.000646,0.008919,0.000095,  24.972
   510.6,0.000933,0.000612,0.008703,0.000135,  24.974
   510.8,0.000929,0.000570,0.008441,0.000148,  24.974
   511.0,0.000950,0.000541,0.008356,0.000161,  24.974
   511.2,0.000964,0.000505,0.008336,0.000187,  24.978
   511.4,0.000980,0.000464,0.008375,0.000200,  24.978
   511.6,0.001017,0.000440,0.008473,0.000165,  24.983
   511.8,0.001037,0.000436,0.008519,0.000200,  24.988
   512.0,0.001050,0.000442,0.008591,0.000178,  24.996
   512.2,0.001076,0.000446,0.008670,0.000191,  25.002
   512.4,0.001093,0.000450,0.008788,0.000213,  25.004
   512.6,0.001095,0.000469,0.008939,0.000200,  24.997
   512.8,0.001107,0.000491,0.009103,0.000148,  24.998
   513.0,0.001109,0.000503,0.009182,0.000095,  24.987
   513.2,0.001114,0.000523,0.009214,0.000056,  24.982
   513.4,0.001120,0.000544,0.009227,0.000017,  24.981
   513.6,0.001113,0.000554,0.009135,-0.000035,  24.975
   513.8,0.001117,0.000569,0.008945,-0.000061,  24.975
   514.0,0.001109,0.000582,0.008683,-0.000087,  24.972
   514.2,0.001089,0.000591,0.008512,-0.000126,  24.972
   514.4,0.001057,0.000598,0.008329,-0.000113,  24.970
   514.6,0.001027,0.000613,0.008139,-0.000087,  24.969
   514.8,0.000983,0.000620,0.008060,-0.000048,  24.971
   515.0,0.000943,0.000621,0.008040,-0.000009,  24.970
   515.2,0.000896,0.000620,0.008059,0.000030,  24.973
   515.4,0.000855,0.000598,0.007595,0.000056,  24.971
   515.6,0.000831,0.000573,0.006911,0.000082,  24.969
   515.8,0.000820,0.000536,0.006007,0.000109,  24.972
   516.0,0.000823,0.000503,0.005896,0.000122,  24.970
   516.2,0.000830,0.000469,0.006084,0.000148,  24.968
   516.4,0.000862,0.000439,0.006572,0.000148,  24.974
   516.6,0.000896,0.000415,0.006799,0.000161,  24.981
   516.8,0.000921,0.000396,0.007047,0.000174,  24.987
   517.0,0.000946,0.000386,0.007288,0.000187,  24.990
   517.2,0.000973,0.000383,0.007523,0.000187,  24.990
   517.4,0.000992,0.000395,0.007778,0.000174,  24.999
   517.6,0.001008,0.000424,0.008007,0.000161,  25.001
   517.8,0.001029,0.000439,0.008111,0.000135,  24.995
   518.0,0.001043,0.000455,0.008157,0.000109,  24.992
   518.2,0.001044,0.000484,0.008157,0.000056,  24.983
   518.4,0.001057,0.000505,0.008177,-0.000009,  24.977
   518.6,0.001062,0.000521,0.008144,-0.000035,  24.975
   518.8,0.001058,0.000542,0.008091,-0.000074,  24.969
   519.0,0.001068,0.000557,0.008038,-0.000126,  24.969
   519.2,0.001045,0.000571,0.007979,-0.000113,  24.968
   519.4,0.000999,0.000580,0.007894,-0.000100,  24.969
   519.6,0.000956,0.000591,0.007776,-0.000074,  24.965
   519.8,0.000919,0.000597,0.007626,-0.000048,  24.965
   520.0,0.000873,0.000604,0.007456,-0.000009,  24.965
   520.2,0.000838,0.000592,0.007364,-0.000031,  24.965
   520.4,0.000810,0.000575,0.007331,0.000043,  24.959
   520.6,0.000778,0.000546,0.007305,0.000035,  24.962
   520.8,0.000762,0.000517,0.007344,0.000061,  24.961
   521.0,0.000768,0.000488,0.007246,0.000109,  24.965
   521.2,0.000775,0.000449,0.007142,0.000135,  24.958
   521.4,0.000807,0.000423,0.006998,0.000161,  24.962
   521.6,0.000830,0.000393,0.006998,0.000174,  24.965
   521.8,0.000845,0.000374,0.007044,0.000200,  24.977
   522.0,0.000872,0.000356,0.007115,0.000213,  24.980
   522.2,0.000891,0.000353,0.007233,0.000213,  24.983
   522.4,0.000904,0.000358,0.007390,0.000213,  24.989
   522.6,0.000925,0.000376,0.007573,0.000213,  24.991
   522.8,0.000939,0.000383,0.007638,0.000200,  24.988
   523.0,0.000941,0.000406,0.007652,0.000174,  24.983
   523.2,0.000956,0.000431,0.007613,0.000135,  24.980
   523.4,0.000964,0.000446,0.007619,0.000056,  24.976
   523.6,0.000970,0.000460,0.007606,0.000004,  24.970
   523.8,0.000973,0.000476,0.007573,-0.000035,  24.969
   524.0,0.000973,0.000491,0.007520,-0.000087,  24.968
   524.2,0.000959,0.000496,0.007435,-0.000113,  24.968
   524.4,0.000936,0.000509,0.007330,-0.000113,  24.963
   524.6,0.000908,0.000522,0.007245,-0.000087,  24.962
   524.8,0.000874,0.000523,0.007166,-0.000061,  24.965
   525.0,0.000829,0.000530,0.007068,-0.000035,  24.963
   525.2,0.000791,0.000530,0.006957,0.000004,  24.963
   525.4,0.000742,0.000521,0.006820,0.000021,  24.963
   525.6,0.000700,0.000508,0.006651,0.000035,  24.962
   525.8,0.000655,0.000482,0.006572,0.000061,  24.961
   526.0,0.000640,0.000448,0.006520,0.000065,  24.959
   526.2,0.000652,0.000412,0.006474,0.000078,  24.960
   526.4,0.000669,0.000376,0.006441,0.000126,  24.961
   526.6,0.000685,0.000332,0.006421,0.000139,  24.964
   526.8,0.000719,0.000299,0.006402,0.000165,  24.969
   527.0,0.000753,0.000284,0.006415,0.000165,  24.974
   527.2,0.000781,0.000273,0.006454,0.000178,  24.982
   527.4,0.000801,0.000279,0.006514,0.000178,  24.990
   527.6,0.000830,0.000294,0.006586,0.000178,  24.994
   527.8,0.000852,0.000318,0.006677,0.000152,  24.990
   528.0,0.000862,0.000349,0.006749,0.000113,  24.988
   528.2,0.000883,0.000377,0.006763,0.000048,  24.980
   528.4,0.000897,0.000395,0.006749,0.000043,  24.973
   528.6,0.000899,0.000419,0.006704,-0.000009,  24.969
   528.8,0.000911,0.000438,0.006600,-0.000074,  24.962
   529.0,0.000914,0.000451,0.006436,-0.000100,  24.963
   529.2,0.000901,0.000469,0.006254,-0.000113,  24.962
   529.4,0.000900,0.000485,0.006130,-0.000161,  24.954
   529.6,0.000872,0.000493,0.006032,-0.000161,  24.958
   529.8,0.000823,0.000508,0.005961,-0.000183,  24.957
   530.0,0.000774,0.000518,0.005889,-0.000122,  24.956
   530.2,0.000722,0.000516,0.005850,-0.000083,  24.958
   530.4,0.000677,0.000523,0.005823,-0.000044,  24.955
   530.6,0.000630,0.000516,0.005823,-0.000005,  24.952
   530.8,0.000606,0.000494,0.005809,0.000035,  24.953
   531.0,0.000607,0.000462,0.005822,0.000061,  24.954
   531.2,0.000613,0.000415,0.005835,0.000087,  24.950
   531.4,0.000620,0.000375,0.005808,0.000100,  24.944
   531.6,0.000652,0.000336,0.005763,0.000126,  24.946
   531.8,0.000683,0.000304,0.005717,0.000139,  24.954
   532.0,0.000701,0.000285,0.005743,0.000139,  24.965
   532.2,0.000733,0.000271,0.005757,0.000152,  24.973
   532.4,0.000761,0.000264,0.005815,0.000178,  24.976
   532.6,0.000781,0.000273,0.005952,0.000165,  24.978
   532.8,0.000791,0.000288,0.006122,0.000152,  24.982
   533.0,0.000812,0.000312,0.006330,0.000139,  24.974
   533.2,0.000820,0.000328,0.005980,0.000100,  24.971
   533.4,0.000827,0.000351,0.005383,0.000074,  24.965
   533.6,0.000843,0.000377,0.004490,0.000021,  24.959
   533.8,0.000854,0.000395,0.004373,-0.000031,  24.957
   534.0,0.000855,0.000412,0.004522,-0.000057,  24.954
   534.2,0.000865,0.000431,0.004916,-0.000109,  24.954
   534.4,0.000865,0.000443,0.005019,-0.000148,  24.950
   534.6,0.000833,0.000452,0.005096,-0.000135,  24.946
   534.8,0.000803,0.000469,0.005173,-0.000122,  24.945
   535.0,0.000745,0.000479,0.005244,-0.000083,  24.944
   535.2,0.000699,0.000490,0.005315,-0.000044,  24.947
   535.4,0.000663,0.000493,0.005366,-0.000018,  24.941
   535.6,0.000621,0.000483,0.005353,0.000008,  24.943
   535.8,0.000587,0.000457,0.005314,0.000035,  24.942
   536.0,0.000568,0.000424,0.005204,0.000061,  24.944
   536.2,0.000551,0.000390,0.005210,0.000087,  24.946
   536.4,0.000550,0.000357,0.005249,0.000113,  24.947
   536.6,0.000574,0.000327,0.005313,0.000126,  24.947
   536.8,0.000605,0.000295,0.005320,0.000152,  24.952
   537.0,0.000630,0.000268,0.005300,0.000178,  24.960
   537.2,0.000655,0.000244,0.005255,0.000178,  24.967
   537.4,0.000687,0.000237,0.004919,0.000178,  24.970
   537.6,0.000705,0.000245,0.004421,0.000178,  24.975
   537.8,0.000722,0.000260,0.003770,0.000178,  24.980
   538.0,0.000736,0.000272,0.003712,0.000165,  24.976
   538.2,0.000750,0.000291,0.003893,0.000139,  24.971
   538.4,0.000764,0.000318,0.004280,0.000113,  24.966
   538.6,0.000776,0.000337,0.004901,0.000061,  24.960
   538.8,0.000782,0.000354,0.005011,0.000008,  24.959
   539.0,0.000781,0.000371,0.005043,-0.000079,  24.960
   539.2,0.000791,0.000388,0.005030,-0.000083,  24.952
   539.4,0.000774,0.000395,0.005082,-0.000135,  24.955
   539.6,0.000739,0.000411,0.005127,-0.000148,  24.953
   539.8,0.000707,0.000413,0.005165,-0.000148,  24.952
   540.0,0.000673,0.000424,0.005138,-0.000122,  24.951
   540.2,0.000627,0.000430,0.005067,-0.000096,  24.950
   540.4,0.000589,0.000431,0.004943,-0.000057,  24.947
   540.6,0.000546,0.000426,0.004904,-0.000018,  24.943
   540.8,0.000510,0.000412,0.004865,0.000035,  24.947
   541.0,0.000473,0.000398,0.004845,0.000061,  24.948
   541.2,0.000462,0.000373,0.004741,0.000074,  24.948
   541.4,0.000455,0.000341,0.004599,0.000113,  24.949
   541.6,0.000476,0.000303,0.004418,0.000139,  24.946
   541.8,0.000501,0.000270,0.004411,0.000139,  24.947
   542.0,0.000517,0.000228,0.004469,0.000152,  24.954
   542.2,0.000549,0.000195,0.004598,0.000165,  24.964
   542.4,0.000585,0.000184,0.004676,0.000152,  24.968
   542.6,0.000604,0.000187,0.004754,0.000152,  24.976
   542.8,0.000633,0.000200,0.004845,0.000165,  24.978
   543.0,0.000652,0.000208,0.004943,0.000165,  24.980
   543.2,0.000665,0.000232,0.005047,0.000139,  24.975
   543.4,0.000686,0.000255,0.005158,0.000100,  24.971
   543.6,0.000703,0.000269,0.005190,0.000021,  24.967
   543.8,0.000710,0.000294,0.005177,-0.000031,  24.961
   544.0,0.000725,0.000313,0.005112,-0.000070,  24.958
   544.2,0.000733,0.000327,0.005066,-0.000122,  24.960
   544.4,0.000731,0.000344,0.004982,-0.000148,  24.956
   544.6,0.000722,0.000361,0.004890,-0.000174,  24.954
   544.8,0.000715,0.000376,0.004812,-0.000174,  24.949
   545.0,0.000684,0.000384,0.004727,-0.000148,  24.949
   545.2,0.000633,0.000397,0.004662,-0.000109,  24.942
   545.4,0.000583,0.000405,0.004390,-0.000070,  24.944
   545.6,0.000541,0.000400,0.004008,-0.000031,  24.942
   545.8,0.000487,0.000401,0.003524,0.000008,  24.942
   546.0,0.000446,0.000383,0.003414,0.000035,  24.946
   546.2,0.000432,0.000344,0.003408,0.000061,  24.947
   546.4,0.000428,0.000296,0.003537,0.000087,  24.946
   546.6,0.000449,0.000260,0.003601,0.000100,  24.943
   546.8,0.000469,0.000226,0.003685,0.000113,  24.946
   547.0,0.000490,0.000187,0.003794,0.000126,  24.947
   547.2,0.000533,0.000168,0.003923,0.000139,  24.955
   547.4,0.000554,0.000158,0.004033,0.000152,  24.965
   547.6,0.000579,0.000160,0.004136,0.000130,  24.969
   547.8,0.000607,0.000160,0.004247,0.000178,  24.974
   548.0,0.000623,0.000175,0.004079,0.000178,  24.972
   548.2,0.000652,0.000191,0.003776,0.000165,  24.975
   548.4,0.000669,0.000219,0.003333,0.000126,  24.970
   548.6,0.000679,0.000235,0.003397,0.000087,  24.962
   548.8,0.000697,0.000258,0.003604,0.000048,  24.959
   549.0,0.000703,0.000286,0.003984,-0.000005,  24.957
   549.2,0.000701,0.000308,0.004113,-0.000070,  24.950
   549.4,0.000701,0.000326,0.004190,-0.000096,  24.949
   549.6,0.000701,0.000344,0.004202,-0.000135,  24.943
   549.8,0.000687,0.000357,0.004241,-0.000174,  24.945
   550.0,0.000659,0.000372,0.004266,-0.000161,  24.943
   550.2,0.000626,0.000380,0.004266,-0.000170,  24.936
   550.4,0.000581,0.000380,0.004227,-0.000131,  24.940
   550.6,0.000545,0.000388,0.004155,-0.000092,  24.937
   550.8,0.000500,0.000397,0.004058,-0.000074,  24.937
   551.0,0.000455,0.000384,0.004032,-0.000013,  24.934
   551.2,0.000423,0.000354,0.004013,0.000013,  24.939
   551.4,0.000419,0.000324,0.004019,0.000052,  24.934
   551.6,0.000417,0.000301,0.004038,0.000100,  24.935
   551.8,0.000419,0.000269,0.004076,0.000126,  24.936
   552.0,0.000445,0.000230,0.004134,0.000139,  24.940
   552.2,0.000476,0.000204,0.004115,0.000152,  24.943
   552.4,0.000497,0.000180,0.004070,0.000178,  24.950
   552.6,0.000529,0.000163,0.003993,0.000191,  24.957
   552.8,0.000560,0.000163,0.004116,0.000191,  24.963
   553.0,0.000578,0.000170,0.004310,0.000191,  24.965
   553.2,0.000601,0.000194,0.004583,0.000178,  24.965
   553.4,0.000618,0.000216,0.004661,0.000152,  24.969
   553.6,0.000628,0.000232,0.004681,0.000113,  24.960
   553.8,0.000642,0.000257,0.004616,0.000061,  24.956
   554.0,0.000659,0.000276,0.004396,-0.000005,  24.949
   554.2,0.000664,0.000289,0.004066,-0.000022,  24.942
   554.4,0.000672,0.000314,0.003614,-0.000074,  24.940
   554.6,0.000682,0.000326,0.004721,-0.000126,  24.936
   554.8,0.000658,0.000343,0.006552,-0.000091,  24.934
   555.0,0.000630,0.000355,0.009100,-0.000078,  24.933
   555.2,0.000592,0.000366,0.009159,-0.000100,  24.931
   555.4,0.000549,0.000372,0.008328,-0.000087,  24.930
   555.6,0.000510,0.000380,0.006627,-0.000061,  24.926
   555.8,0.000472,0.000370,0.006090,-0.000070,  24.929
   556.0,0.000432,0.000364,0.005723,0.000004,  24.927
   556.2,0.000402,0.000344,0.005509,0.000008,  24.923
   556.4,0.000375,0.000325,0.005454,0.000035,  24.923
   556.6,0.000369,0.000297,0.005194,0.000109,  24.919
   556.8,0.000386,0.000277,0.004935,0.000113,  24.920
   557.0,0.000414,0.000246,0.004671,0.000139,  24.925
   557.2,0.000433,0.000211,0.004491,0.000139,  24.928
   557.4,0.000465,0.000180,0.004358,0.000130,  24.937
   557.6,0.000496,0.000144,0.004297,0.000143,  24.946
   557.8,0.000514,0.000129,0.004294,0.000178,  24.952
   558.0,0.000536,0.000134,0.004344,0.000191,  24.960
   558.2,0.000556,0.000149,0.004440,0.000178,  24.963
   558.4,0.000573,0.000163,0.004342,0.000178,  24.964
   558.6,0.000587,0.000187,0.004186,0.000152,  24.954
   558.8,0.000595,0.000213,0.003921,0.000100,  24.951
   559.0,0.000604,0.000237,0.003701,0.000021,  24.942
   559.2,0.000615,0.000254,0.003461,-0.000031,  24.943
   559.4,0.000630,0.000269,0.003203,-0.000070,  24.934
   559.6,0.000638,0.000286,0.003163,-0.000122,  24.929
   559.8,0.000626,0.000298,0.003227,-0.000148,  24.929
   560.0,0.000615,0.000314,0.003387,-0.000161,  24.925
   560.2,0.000595,0.000324,0.003425,-0.000148,  24.927
   560.4,0.000558,0.000334,0.003463,-0.000109,  24.924
   560.6,0.000513,0.000345,0.003475,-0.000096,  24.918
   560.8,0.000466,0.000349,0.003468,-0.000057,  24.920
   561.0,0.000418,0.000350,0.003435,-0.000018,  24.919
   561.2,0.000373,0.000345,0.003397,0.000008,  24.919
   561.4,0.000332,0.000319,0.003409,0.000035,  24.915
   561.6,0.000314,0.000285,0.003422,0.000061,  24.915
   561.8,0.000317,0.000244,0.003434,0.000087,  24.913
   562.0,0.000343,0.000211,0.003402,0.000100,  24.917
   562.2,0.000359,0.000170,0.003356,0.000126,  24.916
   562.4,0.000384,0.000131,0.003286,0.000139,  24.918
   562.6,0.000427,0.000116,0.003363,0.000139,  24.935
   562.8,0.000448,0.000109,0.003492,0.000152,  24.939
   563.0,0.000476,0.000113,0.003699,0.000178,  24.947
   563.2,0.000506,0.000120,0.003867,0.000165,  24.954
   563.4,0.000521,0.000135,0.004029,0.000139,  24.961
   563.6,0.000541,0.000167,0.004192,0.000113,  24.955
   563.8,0.000564,0.000186,0.004250,0.000048,  24.950
   564.0,0.000574,0.000205,0.004244,0.000008,  24.939
   564.2,0.000586,0.000222,0.004166,-0.000031,  24.934
   564.4,0.000604,0.000239,0.004121,-0.000083,  24.930
   564.6,0.000602,0.000258,0.004049,-0.000109,  24.921
   564.8,0.000605,0.000279,0.003965,-0.000135,  24.917
   565.0,0.000600,0.000294,0.003849,-0.000148,  24.914
   565.2,0.000565,0.000310,0.003771,-0.000161,  24.913
   565.4,0.000532,0.000321,0.003680,-0.000183,  24.915
   565.6,0.000483,0.000334,0.003583,-0.000122,  24.913
   565.8,0.000435,0.000338,0.003544,-0.000096,  24.914
   566.0,0.000393,0.000347,0.003550,-0.000057,  24.916
   566.2,0.000355,0.000346,0.003575,-0.000018,  24.914
   566.4,0.000323,0.000322,0.003510,0.000008,  24.915
   566.6,0.000309,0.000300,0.003426,0.000035,  24.916
   566.8,0.000304,0.000261,0.003297,0.000061,  24.913
   567.0,0.000306,0.000233,0.003220,0.000087,  24.915
   567.2,0.000338,0.000206,0.003149,0.000113,  24.915
   567.4,0.000378,0.000175,0.003066,0.000126,  24.924
   567.6,0.000399,0.000152,0.003123,0.000139,  24.928
   567.8,0.000434,0.000127,0.003233,0.000152,  24.938
   568.0,0.000462,0.000101,0.003433,0.000178,  24.942
   568.2,0.000482,0.000101,0.003562,0.000165,  24.947
   568.4,0.000494,0.000110,0.003679,0.000165,  24.950
   568.6,0.000512,0.000134,0.003810,0.000152,  24.954
   568.8,0.000524,0.000146,0.003900,0.000126,  24.952
   569.0,0.000531,0.000172,0.003946,0.000087,  24.945
   569.2,0.000551,0.000198,0.003985,0.000048,  24.940
   569.4,0.000563,0.000214,0.004004,-0.000018,  24.936
   569.6,0.000567,0.000238,0.003978,-0.000057,  24.931
   569.8,0.000585,0.000257,0.003925,-0.000122,  24.928
   570.0,0.000588,0.000269,0.003802,-0.000174,  24.927
   570.2,0.000562,0.000282,0.003660,-0.000174,  24.925
   570.4,0.000537,0.000295,0.003447,-0.000161,  24.921
   570.6,0.000490,0.000300,0.003356,-0.000135,  24.919
   570.8,0.000447,0.000308,0.003304,-0.000096,  24.922
   571.0,0.000414,0.000320,0.003284,-0.000070,  24.920
   571.2,0.000372,0.000311,0.003213,-0.000031,  24.917
   571.4,0.000335,0.000292,0.003161,0.000021,  24.914
   571.6,0.000311,0.000272,0.003077,0.000035,  24.915
   571.8,0.000283,0.000247,0.003032,0.000061,  24.918
   572.0,0.000279,0.000212,0.003019,0.000087,  24.916
   572.2,0.000303,0.000176,0.003019,0.000100,  24.921
   572.4,0.000333,0.000146,0.002935,0.000113,  24.917
   572.6,0.000352,0.000112,0.002800,0.000126,  24.923
   572.8,0.000386,0.000089,0.002653,0.000139,  24.929
   573.0,0.000420,0.000088,0.002332,0.000152,  24.940
   573.2,0.000441,0.000088,0.001863,0.000165,  24.941
   573.4,0.000470,0.000105,0.001306,0.000165,  24.950
   573.6,0.000496,0.000125,0.001261,0.000152,  24.950
   573.8,0.000511,0.000144,0.001441,0.000139,  24.950
   574.0,0.000535,0.000167,0.001813,0.000113,  24.945
   574.2,0.000551,0.000181,0.002411,0.000061,  24.937
   574.4,0.000562,0.000206,0.002546,0.000008,  24.931
   574.6,0.000577,0.000234,0.002630,-0.000066,  24.928
   574.8,0.000585,0.000251,0.002662,-0.000070,  24.924
   575.0,0.000573,0.000263,0.002751,-0.000135,  24.917
   575.2,0.000565,0.000276,0.002841,-0.000148,  24.918
   575.4,0.000537,0.000283,0.002936,-0.000161,  24.918
   575.6,0.000500,0.000291,0.002968,-0.000148,  24.917
   575.8,0.000468,0.000305,0.002980,-0.000109,  24.913
   576.0,0.000420,0.000317,0.002961,-0.000096,  24.915
   576.2,0.000371,0.000321,0.002909,-0.000057,  24.915
   576.4,0.000336,0.000321,0.002832,-0.000018,  24.912
   576.6,0.000291,0.000316,0.002703,0.000008,  24.914
   576.8,0.000276,0.000292,0.002670,0.000035,  24.911
   577.0,0.000294,0.000260,0.002683,0.000061,  24.914
   577.2,0.000317,0.000223,0.002715,0.000087,  24.911
   577.4,0.000333,0.000182,0.002767,0.000113,  24.913
   577.6,0.000353,0.000146,0.002824,0.000126,  24.916
   577.8,0.000378,0.000114,0.002895,0.000152,  24.921
   578.0,0.000410,0.000096,0.002954,0.000165,  24.927
   578.2,0.000435,0.000092,0.002973,0.000191,  24.935
   578.4,0.000460,0.000100,0.002967,0.000191,  24.940
   578.6,0.000485,0.000110,0.002839,0.000178,  24.947
   578.8,0.000504,0.000129,0.002647,0.000165,  24.950
   579.0,0.000521,0.000158,0.002352,0.000113,  24.942
   579.2,0.000535,0.000178,0.002404,0.000061,  24.936
   579.4,0.000542,0.000198,0.002584,0.000021,  24.930
   579.6,0.000563,0.000224,0.002880,-0.000018,  24.922
   579.8,0.000568,0.000244,0.002950,-0.000070,  24.919
   580.0,0.000564,0.000262,0.002950,-0.000096,  24.911
   580.2,0.000574,0.000278,0.002898,-0.000122,  24.915
   580.4,0.000568,0.000293,0.002872,-0.000148,  24.910
   580.6,0.000540,0.000307,0.002833,-0.000135,  24.912
   580.8,0.000498,0.000317,0.002775,-0.000109,  24.909
   581.0,0.000446,0.000328,0.002723,-0.000070,  24.909
   581.2,0.000402,0.000336,0.002684,-0.000031,  24.907
   581.4,0.000350,0.000336,0.002633,0.000008,  24.908
   581.6,0.000312,0.000315,0.002678,0.000035,  24.905
   581.8,0.000286,0.000285,0.002761,0.000061,  24.908
   582.0,0.000277,0.000243,0.002902,0.000087,  24.907
   582.2,0.000283,0.000211,0.002889,0.000100,  24.905
   582.4,0.000293,0.000177,0.002819,0.000126,  24.909
   582.6,0.000325,0.000146,0.002684,0.000139,  24.908
   582.8,0.000358,0.000127,0.002709,0.000152,  24.913
   583.0,0.000377,0.000110,0.002767,0.000165,  24.923
   583.2,0.000412,0.000091,0.002896,0.000143,  24.924
   583.4,0.000440,0.000095,0.003044,0.000191,  24.930
   583.6,0.000455,0.000112,0.003174,0.000178,  24.941
   583.8,0.000482,0.000139,0.003310,0.000178,  24.945
   584.0,0.000501,0.000156,0.003452,0.000152,  24.939
   584.2,0.000511,0.000175,0.003504,0.000126,  24.932
   584.4,0.000532,0.000187,0.003485,0.000087,  24.925
   584.6,0.000543,0.000204,0.003460,0.000048,  24.913
   584.8,0.000548,0.000216,0.003453,-0.000005,  24.910
   585.0,0.000563,0.000236,0.003440,-0.000057,  24.911
   585.2,0.000565,0.000253,0.003413,-0.000096,  24.904
   585.4,0.000539,0.000266,0.003387,-0.000135,  24.903
   585.6,0.000512,0.000279,0.003348,-0.000122,  24.901
   585.8,0.000465,0.000289,0.003296,-0.000109,  24.898
   586.0,0.000430,0.000300,0.003250,-0.000083,  24.901
   586.2,0.000393,0.000313,0.003211,-0.000044,  24.899
   586.4,0.000360,0.000325,0.003153,-0.000005,  24.899
   586.6,0.000338,0.000324,0.003134,0.000021,  24.894
   586.8,0.000312,0.000303,0.003127,0.000048,  24.899
   587.0,0.000300,0.000271,0.003107,0.000087,  24.896
   587.2,0.000284,0.000252,0.003068,0.000100,  24.892
   587.4,0.000288,0.000223,0.003030,0.000126,  24.894
   587.6,0.000310,0.000184,0.002952,0.000139,  24.896
   587.8,0.000344,0.000153,0.002888,0.000152,  24.897
   588.0,0.000372,0.000125,0.002817,0.000178,  24.905
   588.2,0.000393,0.000098,0.002747,0.000178,  24.911
   588.4,0.000427,0.000091,0.002825,0.000178,  24.916
   588.6,0.000455,0.000094,0.002980,0.000178,  24.930
   588.8,0.000473,0.000118,0.003193,0.000178,  24.931
   589.0,0.000499,0.000137,0.003284,0.000165,  24.931
   589.2,0.000512,0.000163,0.003343,0.000139,  24.932
   589.4,0.000529,0.000192,0.003369,0.000087,  24.922
   589.6,0.000537,0.000214,0.003375,0.000008,  24.914
   589.8,0.000542,0.000233,0.003336,-0.000009,  24.909
   590.0,0.000553,0.000252,0.003284,-0.000048,  24.903
   590.2,0.000559,0.000269,0.003226,-0.000100,  24.900
   590.4,0.000544,0.000282,0.003168,-0.000113,  24.896
   590.6,0.000527,0.000300,0.003071,-0.000113,  24.896
   590.8,0.000506,0.000315,0.002980,-0.000122,  24.894
   591.0,0.000472,0.000320,0.002909,-0.000131,  24.894
   591.2,0.000440,0.000328,0.002825,-0.000127,  24.893
   591.4,0.000400,0.000332,0.002786,-0.000053,  24.891
   591.6,0.000361,0.000325,0.002754,-0.000000,  24.890
   591.8,0.000315,0.000317,0.002748,-0.000009,  24.884
   592.0,0.000276,0.000291,0.002715,0.000039,  24.879
   592.2,0.000261,0.000258,0.002657,0.000078,  24.888
   592.4,0.000263,0.000216,0.002580,0.000069,  24.889
   592.6,0.000283,0.000183,0.002586,0.000104,  24.889
   592.8,0.000296,0.000147,0.002612,0.000117,  24.889
   593.0,0.000333,0.000112,0.002670,0.000121,  24.891
   593.2,0.000367,0.000095,0.002753,0.000143,  24.898
   593.4,0.000385,0.000084,0.002798,0.000156,  24.909
   593.6,0.000420,0.000083,0.002864,0.000169,  24.914
   593.8,0.000442,0.000091,0.002916,0.000169,  24.918
   594.0,0.000455,0.000099,0.003007,0.000156,  24.921
   594.2,0.000482,0.000120,0.003104,0.000143,  24.919
   594.4,0.000493,0.000148,0.003214,0.000091,  24.913
   594.6,0.000500,0.000167,0.003253,0.000061,  24.904
   594.8,0.000518,0.000188,0.003259,0.000021,  24.903
   595.0,0.000524,0.000212,0.003227,-0.000018,  24.899
   595.2,0.000526,0.000230,0.003175,-0.000070,  24.896
   595.4,0.000520,0.000245,0.003097,-0.000096,  24.890
   595.6,0.000521,0.000259,0.003000,-0.000109,  24.891
   595.8,0.000515,0.000272,0.002884,-0.000135,  24.891
   596.0,0.000478,0.000285,0.002749,-0.000122,  24.889
   596.2,0.000442,0.000288,0.002594,-0.000096,  24.888
   596.4,0.000386,0.000293,0.002555,-0.000070,  24.887
   596.6,0.000335,0.000295,0.002542,-0.000031,  24.888
   596.8,0.000293,0.000297,0.002580,0.000008,  24.888
   597.0,0.000245,0.000278,0.002580,0.000035,  24.889
   597.2,0.000225,0.000242,0.002580,0.000061,  24.893
   597.4,0.000219,0.000201,0.002573,0.000087,  24.892
   597.6,0.000237,0.000172,0.002605,0.000100,  24.893
   597.8,0.000250,0.000138,0.002656,0.000126,  24.895
   598.0,0.000275,0.000102,0.002707,0.000139,  24.893
   598.2,0.000315,0.000076,0.002732,0.000139,  24.903
   598.4,0.000339,0.000063,0.002746,0.000165,  24.909
   598.6,0.000367,0.000054,0.002714,0.000178,  24.916
   598.8,0.000402,0.000063,0.002779,0.000178,  24.919
   599.0,0.000421,0.000080,0.002902,0.000165,  24.923
   599.2,0.000443,0.000105,0.003038,0.000139,  24.921
   599.4,0.000469,0.000127,0.002826,0.000100,  24.923
   599.6,0.000482,0.000152,0.002466,0.000074,  24.912
   599.8,0.000496,0.000181,0.001965,0.000021,  24.909
   600.0,0.000517,0.000200,0.001913,-0.000031,  24.909
   600.2,0.000521,0.000220,0.001990,-0.000057,  24.901
   600.4,0.000530,0.000240,0.002214,-0.000109,  24.900
   600.6,0.000536,0.000257,0.002265,-0.000148,  24.902
   600.8,0.000507,0.000278,0.002316,-0.000148,  24.904
   601.0,0.000471,0.000289,0.002360,-0.000148,  24.901
   601.2,0.000418,0.000296,0.002386,-0.000122,  24.904
   601.4,0.000372,0.000308,0.002405,-0.000096,  24.899
   601.6,0.000337,0.000316,0.002405,-0.000092,  24.902
   601.8,0.000301,0.000307,0.002385,-0.000031,  24.901
   602.0,0.000272,0.000291,0.002378,0.000008,  24.900
   602.2,0.000256,0.000273,0.002372,0.000035,  24.899
   602.4,0.000251,0.000246,0.002365,0.000074,  24.902
   602.6,0.000253,0.000221,0.002372,0.000100,  24.901
   602.8,0.000275,0.000195,0.002391,0.000126,  24.902
   603.0,0.000318,0.000162,0.002416,0.000139,  24.902
   603.2,0.000337,0.000139,0.002448,0.000152,  24.906
   603.4,0.000362,0.000115,0.002488,0.000178,  24.909
   603.6,0.000399,0.000088,0.002494,0.000191,  24.919
   603.8,0.000415,0.000086,0.002649,0.000191,  24.920
   604.0,0.000437,0.000098,0.002894,0.000204,  24.924
   604.2,0.000461,0.000116,0.003191,0.000191,  24.927
   604.4,0.000475,0.000132,0.003288,0.000178,  24.932
   604.6,0.000486,0.000151,0.003327,0.000152,  24.922
   604.8,0.000492,0.000181,0.003321,0.000100,  24.916
   605.0,0.000494,0.000200,0.003270,0.000021,  24.913
   605.2,0.000503,0.000217,0.003173,-0.000031,  24.905
   605.4,0.000508,0.000235,0.003031,-0.000070,  24.902
   605.6,0.000511,0.000248,0.002967,-0.000122,  24.900
   605.8,0.000493,0.000258,0.002915,-0.000135,  24.898
   606.0,0.000468,0.000265,0.002876,-0.000135,  24.899
   606.2,0.000438,0.000271,0.002804,-0.000109,  24.896
   606.4,0.000398,0.000275,0.002727,-0.000083,  24.895
   606.6,0.000356,0.000280,0.002611,-0.000044,  24.897
   606.8,0.000318,0.000278,0.002565,-0.000005,  24.895
   607.0,0.000275,0.000267,0.002552,0.000021,  24.894
   607.2,0.000239,0.000258,0.002533,0.000048,  24.892
   607.4,0.000209,0.000234,0.002494,0.000087,  24.894
   607.6,0.000200,0.000202,0.002449,0.000126,  24.895
   607.8,0.000211,0.000157,0.002397,0.000139,  24.894
   608.0,0.000233,0.000125,0.002378,0.000152,  24.893
   608.2,0.000249,0.000089,0.002384,0.000178,  24.893
   608.4,0.000283,0.000056,0.002397,0.000178,  24.898
   608.6,0.000321,0.000043,0.002423,0.000178,  24.908
   608.8,0.000342,0.000039,0.002468,0.000191,  24.913
   609.0,0.000365,0.000054,0.002514,0.000191,  24.921
   609.2,0.000394,0.000067,0.002611,0.000191,  24.921
   609.4,0.000409,0.000086,0.002740,0.000165,  24.919
   609.6,0.000423,0.000114,0.002889,0.000126,  24.919
   609.8,0.000444,0.000135,0.002921,0.000048,  24.911
   610.0,0.000451,0.000152,0.002908,0.000008,  24.906
   610.2,0.000460,0.000173,0.002876,-0.000018,  24.902
   610.4,0.000472,0.000185,0.002779,-0.000070,  24.897
   610.6,0.000465,0.000200,0.002734,-0.000096,  24.894
   610.8,0.000457,0.000212,0.002682,-0.000144,  24.894
   611.0,0.000443,0.000221,0.002610,-0.000135,  24.893
   611.2,0.000405,0.000229,0.002520,-0.000148,  24.895
   611.4,0.000370,0.000243,0.002417,-0.000122,  24.892
   611.6,0.000314,0.000248,0.002281,-0.000109,  24.893
   611.8,0.000266,0.000250,0.002191,-0.000057,  24.895
   612.0,0.000228,0.000254,0.002139,-0.000018,  24.892
   612.2,0.000177,0.000253,0.002081,0.000008,  24.894
   612.4,0.000159,0.000235,0.002010,0.000035,  24.893
   612.6,0.000166,0.000199,0.001946,0.000061,  24.893
   612.8,0.000187,0.000154,0.001856,0.000087,  24.895
   613.0,0.000198,0.000118,0.001811,0.000100,  24.894
   613.2,0.000215,0.000082,0.001779,0.000126,  24.894
   613.4,0.000237,0.000041,0.001740,0.000139,  24.897
   613.6,0.000265,0.000019,0.001374,0.000152,  24.905
   613.8,0.000290,0.000008,0.000869,0.000178,  24.908
   614.0,0.000315,0.000015,0.000204,0.000178,  24.918
   614.2,0.000343,0.000028,-0.000108,0.000178,  24.921
   614.4,0.000362,0.000042,-0.000286,0.000165,  24.926
   614.6,0.000379,0.000074,-0.000374,0.000126,  24.918
   614.8,0.000402,0.000093,-0.000125,0.000074,  24.917
   615.0,0.000412,0.000113,0.000341,0.000048,  24.909
   615.2,0.000429,0.000136,0.001012,-0.000039,  24.904
   615.4,0.000440,0.000160,0.001281,-0.000092,  24.905
   615.6,0.000445,0.000176,0.001447,-0.000118,  24.897
   615.8,0.000454,0.000195,0.001511,-0.000205,  24.896
   616.0,0.000457,0.000214,0.001575,-0.000209,  24.897
   616.2,0.000428,0.000226,0.001587,-0.000196,  24.895
   616.4,0.000393,0.000235,0.001535,-0.000218,  24.893
   616.6,0.000337,0.000248,0.001580,-0.000144,  24.893
   616.8,0.000291,0.000251,0.001618,-0.000118,  24.888
   617.0,0.000250,0.000258,0.001688,-0.000114,  24.889
   617.2,0.000205,0.000243,0.001727,-0.000039,  24.888
   617.4,0.000176,0.000215,0.001733,-0.000013,  24.881
   617.6,0.000166,0.000185,0.001713,-0.000022,  24.881
   617.8,0.000160,0.000153,0.001764,0.000052,  24.882
   618.0,0.000169,0.000116,0.001847,0.000091,  24.880
   618.2,0.000199,0.000086,0.001943,0.000056,  24.882
   618.4,0.000240,0.000056,0.001982,0.000091,  24.887
   618.6,0.000268,0.000030,0.001995,0.000104,  24.890
   618.8,0.000292,0.000005,0.002008,0.000082,  24.900
   619.0,0.000323,0.000002,0.001957,0.000117,  24.908
   619.2,0.000344,0.000015,0.001848,0.000117,  24.915
   619.4,0.000366,0.000043,0.001715,0.000082,  24.911
   619.6,0.000385,0.000064,0.001529,0.000104,  24.916
   619.8,0.000401,0.000087,0.001607,0.000091,  24.911
   620.0,0.000418,0.000112,0.001742,0.000065,  24.911
   620.2,0.000438,0.000132,0.001961,0.000013,  24.903
   620.4,0.000446,0.000153,0.002076,-0.000053,  24.895
   620.6,0.000454,0.000171,0.002159,-0.000092,  24.890
   620.8,0.000466,0.000186,0.002229,-0.000192,  24.892
   621.0,0.000448,0.000196,0.002280,-0.000209,  24.887
   621.2,0.000423,0.000207,0.002292,-0.000209,  24.885
   621.4,0.000391,0.000217,0.002298,-0.000244,  24.885
   621.6,0.000353,0.000229,0.001977,-0.000183,  24.882
   621.8,0.000317,0.000238,0.001476,-0.000144,  24.886
   622.0,0.000279,0.000246,0.000803,-0.000166,  24.888
   622.2,0.000239,0.000241,0.000458,-0.000092,  24.881
   622.4,0.000205,0.000236,0.000164,-0.000053,  24.883
   622.6,0.000176,0.000223,-0.000073,-0.000048,  24.881
   622.8,0.000167,0.000195,0.000016,0.000013,  24.879
   623.0,0.000176,0.000168,0.000291,0.000039,  24.880
   623.2,0.000190,0.000125,0.000745,0.000030,  24.880
   623.4,0.000220,0.000092,0.000963,0.000078,  24.873
   623.6,0.000245,0.000060,0.001168,0.000091,  24.882
   623.8,0.000273,0.000030,0.001341,0.000069,  24.889
   624.0,0.000307,0.000021,0.001008,0.000117,  24.897
   624.2,0.000328,0.000023,0.000426,0.000130,  24.907
   624.4,0.000356,0.000045,-0.000397,0.000108,  24.911
   624.6,0.000385,0.000064,-0.000243,0.000130,  24.909
   624.8,0.000401,0.000084,0.000288,0.000104,  24.911
   625.0,0.000418,0.000112,0.001197,0.000030,  24.908
   625.2,0.000438,0.000133,0.001524,-0.000013,  24.899
   625.4,0.000446,0.000156,0.001736,-0.000066,  24.889
   625.6,0.000454,0.000173,0.001819,-0.000140,  24.883
   625.8,0.000469,0.000188,0.001941,-0.000157,  24.876
   626.0,0.000463,0.000208,0.002004,-0.000183,  24.872
   626.2,0.000448,0.000221,0.001997,-0.000218,  24.867
   626.4,0.000432,0.000236,0.002023,-0.000170,  24.862
   626.6,0.000397,0.000241,0.002016,-0.000131,  24.858
   626.8,0.000359,0.000249,0.001977,-0.000140,  24.859
   627.0,0.000306,0.000251,0.001977,-0.000079,  24.854
   627.2,0.000257,0.000253,0.001970,-0.000039,  24.856
   627.4,0.000219,0.000251,0.001957,-0.000035,  24.853
   627.6,0.000174,0.000224,0.001931,0.000013,  24.855
   627.8,0.000154,0.000195,0.001899,0.000039,  24.853
   628.0,0.000160,0.000149,0.001835,0.000030,  24.850
   628.2,0.000181,0.000115,0.001822,0.000078,  24.855
   628.4,0.000191,0.000077,0.001822,0.000104,  24.850
   628.6,0.000219,0.000041,0.001809,0.000082,  24.858
   628.8,0.000259,0.000024,0.001867,0.000130,  24.865
   629.0,0.000281,0.000012,0.001950,0.000130,  24.876
   629.2,0.000306,0.000014,0.002073,0.000143,  24.883
   629.4,0.000338,0.000019,0.002208,0.000156,  24.892
   629.6,0.000353,0.000024,0.002324,0.000143,  24.900
   629.8,0.000370,0.000048,0.002435,0.000130,  24.900
   630.0,0.000391,0.000067,0.002539,0.000056,  24.898
   630.2,0.000401,0.000088,0.002584,0.000039,  24.888
   630.4,0.000422,0.000105,0.002584,0.000013,  24.879
   630.6,0.000437,0.000126,0.002558,-0.000074,  24.873
   630.8,0.000436,0.000145,0.002339,-0.000092,  24.871
   631.0,0.000441,0.000159,0.001999,-0.000118,  24.864
   631.2,0.000436,0.000181,0.001542,-0.000192,  24.862
   631.4,0.000404,0.000195,0.001420,-0.000196,  24.861
   631.6,0.000362,0.000206,0.001387,-0.000183,  24.859
   631.8,0.000313,0.000216,0.001464,-0.000192,  24.862
   632.0,0.000276,0.000224,0.001463,-0.000131,  24.861
   632.2,0.000245,0.000235,0.001482,-0.000092,  24.860
   632.4,0.000212,0.000240,0.001495,-0.000087,  24.857
   632.6,0.000181,0.000225,0.001142,-0.000026,  24.861
   632.8,0.000162,0.000197,0.000585,-0.000000,  24.860
   633.0,0.000148,0.000161,-0.000150,-0.000009,  24.864
   633.2,0.000142,0.000133,-0.000291,0.000039,  24.860
   633.4,0.000149,0.000094,-0.000234,0.000065,  24.862
   633.6,0.000174,0.000058,0.000015,0.000043,  24.863
   633.8,0.000220,0.000030,0.000200,0.000091,  24.869
   634.0,0.000244,0.000011,0.000456,0.000104,  24.877
   634.2,0.000272,-0.000008,0.000789,0.000082,  24.887
   634.4,0.000304,-0.000008,0.001091,0.000117,  24.894
   634.6,0.000323,0.000002,0.001380,0.000104,  24.904
   634.8,0.000348,0.000026,0.001695,0.000056,  24.906
   635.0,0.000371,0.000046,0.001895,0.000078,  24.903
   635.2,0.000384,0.000064,0.002030,0.000039,  24.898
   635.4,0.000398,0.000096,0.002094,-0.000026,  24.892
   635.6,0.000416,0.000120,0.002101,-0.000057,  24.886
   635.8,0.000427,0.000138,0.002056,-0.000096,  24.878
   636.0,0.000437,0.000161,0.001933,-0.000148,  24.879
   636.2,0.000454,0.000175,0.001875,-0.000200,  24.873
   636.4,0.000437,0.000190,0.001823,-0.000200,  24.873
   636.6,0.000396,0.000206,0.001771,-0.000187,  24.871
   636.8,0.000357,0.000216,0.001655,-0.000148,  24.873
   637.0,0.000317,0.000221,0.001488,-0.000109,  24.870
   637.2,0.000275,0.000235,0.001290,-0.000083,  24.869
   637.4,0.000233,0.000236,0.001149,-0.000031,  24.869
   637.6,0.000195,0.000221,0.001001,-0.000005,  24.871
   637.8,0.000174,0.000201,0.000847,0.000035,  24.866
   638.0,0.000146,0.000175,0.000700,0.000035,  24.870
   638.2,0.000142,0.000148,0.000731,0.000048,  24.869
   638.4,0.000166,0.000107,0.000840,0.000052,  24.870
   638.6,0.000199,0.000074,0.000993,0.000100,  24.871
   638.8,0.000223,0.000053,0.001102,0.000113,  24.873
   639.0,0.000251,0.000023,0.001204,0.000126,  24.881
   639.2,0.000287,0.000004,0.001313,0.000139,  24.885
   639.4,0.000311,-0.000001,0.001480,0.000152,  24.892
   639.6,0.000337,0.000005,0.001680,0.000165,  24.905
   639.8,0.000369,0.000025,0.001905,0.000178,  24.907
   640.0,0.000384,0.000044,0.002015,0.000165,  24.905
   640.2,0.000395,0.000067,0.002093,0.000139,  24.897
   640.4,0.000413,0.000100,0.002120,0.000087,  24.897
   640.6,0.000424,0.000128,0.002133,0.000008,  24.889
   640.8,0.000436,0.000149,0.002120,-0.000044,  24.879
   641.0,0.000441,0.000173,0.002081,-0.000096,  24.872
   641.2,0.000447,0.000192,0.002036,-0.000148,  24.871
   641.4,0.000444,0.000204,0.001958,-0.000161,  24.875
   641.6,0.000437,0.000214,0.001842,-0.000174,  24.871
   641.8,0.000414,0.000225,0.001752,-0.000161,  24.869
   642.0,0.000377,0.000231,0.001643,-0.000135,  24.871
   642.2,0.000344,0.000241,0.001521,-0.000096,  24.876
   642.4,0.000291,0.000245,0.001507,-0.000070,  24.868
   642.6,0.000243,0.000247,0.001552,-0.000031,  24.866
   642.8,0.000210,0.000243,0.001654,0.000008,  24.867
   643.0,0.000166,0.000214,0.001674,0.000021,  24.869
   643.2,0.000150,0.000178,0.001654,0.000048,  24.869
   643.4,0.000156,0.000134,0.001648,0.000087,  24.868
   643.6,0.000176,0.000100,0.001667,0.000100,  24.867
   643.8,0.000188,0.000060,0.001673,0.000126,  24.866
   644.0,0.000216,0.000023,0.001679,0.000139,  24.866
   644.2,0.000257,0.000014,0.001724,0.000152,  24.872
   644.4,0.000275,0.000007,0.001809,0.000165,  24.887
   644.6,0.000300,0.000012,0.001886,0.000178,  24.891
   644.8,0.000332,0.000027,0.001739,0.000165,  24.895
   645.0,0.000348,0.000043,0.001483,0.000152,  24.902
   645.2,0.000367,0.000067,0.001132,0.000113,  24.902
   645.4,0.000391,0.000080,0.001260,0.000061,  24.896
   645.6,0.000401,0.000106,0.001587,0.000021,  24.888
   645.8,0.000415,0.000136,0.002081,-0.000031,  24.881
   646.0,0.000430,0.000153,0.002216,-0.000083,  24.873
   646.2,0.000429,0.000171,0.002260,-0.000109,  24.870
   646.4,0.000432,0.000186,0.002215,-0.000135,  24.867
   646.6,0.000433,0.000202,0.002067,-0.000135,  24.863
   646.8,0.000405,0.000215,0.001996,-0.000148,  24.860
   647.0,0.000360,0.000224,0.001893,-0.000170,  24.856
   647.2,0.000315,0.000235,0.001752,-0.000109,  24.860
   647.4,0.000263,0.000237,0.001726,-0.000083,  24.857
   647.6,0.000215,0.000241,0.001725,-0.000044,  24.857
   647.8,0.000173,0.000245,0.001764,-0.000018,  24.858
   648.0,0.000146,0.000221,0.001506,0.000008,  24.854
   648.2,0.000145,0.000194,0.001109,0.000035,  24.856
   648.4,0.000157,0.000158,0.000597,0.000061,  24.855
   648.6,0.000170,0.000129,0.000545,0.000074,  24.855
   648.8,0.000207,0.000097,0.000680,0.000100,  24.851
   649.0,0.000249,0.000063,0.000974,0.000113,  24.858
   649.2,0.000273,0.000042,0.001122,0.000126,  24.863
   649.4,0.000311,0.000028,0.001238,0.000139,  24.866
   649.6,0.000342,0.000019,0.001360,0.000152,  24.872
   649.8,0.000364,0.000022,0.001547,0.000152,  24.885
   650.0,0.000384,0.000044,0.001740,0.000139,  24.894
   650.2,0.000400,0.000073,0.001946,0.000126,  24.893
   650.4,0.000416,0.000093,0.002068,0.000100,  24.889
   650.6,0.000432,0.000120,0.002152,0.000074,  24.878
   650.8,0.000449,0.000144,0.002204,0.000021,  24.869
   651.0,0.000463,0.000166,0.002229,-0.000031,  24.868
   651.2,0.000465,0.000183,0.002203,-0.000057,  24.860
   651.4,0.000473,0.000202,0.002177,-0.000109,  24.852
   651.6,0.000482,0.000221,0.002144,-0.000161,  24.846
   651.8,0.000455,0.000234,0.002093,-0.000148,  24.849
   652.0,0.000422,0.000249,0.002035,-0.000135,  24.847
   652.2,0.000374,0.000257,0.001829,-0.000109,  24.849
   652.4,0.000331,0.000268,0.001546,-0.000083,  24.841
   652.6,0.000295,0.000274,0.001181,-0.000044,  24.843
   652.8,0.000259,0.000265,0.001142,-0.000005,  24.841
   653.0,0.000228,0.000253,0.001218,0.000021,  24.843
   653.2,0.000205,0.000226,0.001424,0.000048,  24.841
   653.4,0.000190,0.000199,0.001520,0.000087,  24.843
   653.6,0.000192,0.000173,0.001622,0.000126,  24.837
   653.8,0.000210,0.000138,0.001725,0.000139,  24.841
   654.0,0.000253,0.000108,0.001834,0.000152,  24.842
   654.2,0.000278,0.000084,0.001931,0.000178,  24.851
   654.4,0.000292,0.000055,0.002034,0.000156,  24.853
   654.6,0.000326,0.000048,0.001636,0.000156,  24.865
   654.8,0.000344,0.000056,0.000964,0.000169,  24.870
   655.0,0.000357,0.000074,0.000050,0.000134,  24.878
   655.2,0.000377,0.000084,-0.000051,0.000156,  24.880
   655.4,0.000387,0.000105,0.000122,0.000130,  24.880
   655.6,0.000401,0.000123,0.000550,0.000069,  24.874
   655.8,0.000419,0.000138,0.001255,0.000065,  24.866
   656.0,0.000423,0.000164,0.001473,-0.000000,  24.858
   656.2,0.000429,0.000183,0.001639,-0.000039,  24.848
   656.4,0.000444,0.000195,0.001767,-0.000092,  24.845
   656.6,0.000432,0.000206,0.001863,-0.000144,  24.842
   656.8,0.000412,0.000219,0.001914,-0.000157,  24.838
   657.0,0.000394,0.000224,0.001939,-0.000192,  24.836
   657.2,0.000359,0.000232,0.001785,-0.000144,  24.830
   657.4,0.000320,0.000238,0.001534,-0.000131,  24.831
   657.6,0.000279,0.000250,0.001149,-0.000127,  24.832
   657.8,0.000233,0.000252,0.001136,-0.000039,  24.830
   658.0,0.000197,0.000251,0.001277,-0.000013,  24.827
   658.2,0.000159,0.000241,0.001520,-0.000022,  24.819
   658.4,0.000145,0.000218,0.001572,0.000039,  24.824
   658.6,0.000148,0.000178,0.001591,0.000078,  24.821
   658.8,0.000159,0.000128,0.001565,0.000056,  24.819
   659.0,0.000184,0.000087,0.001584,0.000091,  24.818
   659.2,0.000206,0.000055,0.001604,0.000104,  24.823
   659.4,0.000234,0.000026,0.001623,0.000095,  24.824
   659.6,0.000268,0.000013,0.001745,0.000130,  24.832
   659.8,0.000289,0.000009,0.001906,0.000143,  24.848
   660.0,0.000311,0.000018,0.002105,0.000108,  24.859
   660.2,0.000341,0.000031,0.002209,0.000143,  24.863
   660.4,0.000356,0.000045,0.002267,0.000130,  24.862
   660.6,0.000373,0.000077,0.002307,0.000043,  24.856
   660.8,0.000394,0.000101,0.002320,0.000026,  24.848
   661.0,0.000401,0.000119,0.002287,-0.000013,  24.840
   661.2,0.000409,0.000145,0.002255,-0.000100,  24.833
   661.4,0.000424,0.000162,0.002184,-0.000118,  24.831
   661.6,0.000421,0.000182,0.002087,-0.000144,  24.819
   661.8,0.000422,0.000198,0.001965,-0.000205,  24.813
   662.0,0.000420,0.000211,0.001875,-0.000183,  24.813
   662.2,0.000388,0.000221,0.001797,-0.000170,  24.812
   662.4,0.000350,0.000233,0.001732,-0.000179,  24.809
   662.6,0.000294,0.000242,0.001693,-0.000105,  24.809
   662.8,0.000247,0.000238,0.001674,-0.000066,  24.809
   663.0,0.000203,0.000243,0.001686,-0.000061,  24.809
   663.2,0.000161,0.000221,0.001692,-0.000013,  24.812
   663.4,0.000144,0.000188,0.001717,0.000013,  24.810
   663.6,0.000130,0.000144,0.001768,0.000004,  24.807
   663.8,0.000144,0.000110,0.001730,0.000052,  24.808
   664.0,0.000157,0.000078,0.001672,0.000065,  24.804
   664.2,0.000188,0.000043,0.001582,0.000043,  24.802
   664.4,0.000227,0.000020,0.001576,0.000104,  24.804
   664.6,0.000251,0.000013,0.001576,0.000104,  24.819
   664.8,0.000286,0.000004,0.001647,0.000130,  24.827
   665.0,0.000314,0.000008,0.001692,0.000130,  24.836
   665.2,0.000335,0.000011,0.001834,0.000130,  24.848
   665.4,0.000357,0.000028,0.002028,0.000117,  24.853
   665.6,0.000377,0.000050,0.002266,0.000069,  24.849
   665.8,0.000387,0.000065,0.002318,0.000065,  24.843
