Run Name,group 4 run 35%
Run Date,01:28:50 PM   04-15-11
Method Name,35%B-Isocrat.1 SVS
Export Format Version, 1.00
Method ID, 1274
Points/Second, 1.00
Number of Records,   1256
Offset from Run Start Time,00:00:00
Run End Time,00:21:00
Time,Second
QuadTec 1, (280.0 nm), AU
QuadTec 2, (260.0 nm), AU
Gradient Pump,<Not Selected>
QuadTec 3, (214.0 nm), AU
QuadTec 4, (405.0 nm), AU
Conductivity,mS/cm
Trace 6,<Not Available>
GP Pressure,<Not Selected>
Volume,<Not Selected>
Fraction,<Not Available>
Time,QuadTec 1,QuadTec 2,QuadTec 3,QuadTec 4,Conductivity
     0.0,0.001876,0.001241,0.013737,0.000000,  35.437
     1.0,0.001704,0.001239,0.000000,0.000000,  35.438
     2.0,0.000000,0.001321,0.000000,0.000000,  35.445
     3.0,0.000000,0.000000,0.000000,0.000000,  35.443
     4.0,0.000000,0.000000,0.000000,0.000000,  35.436
     5.0,0.000000,0.000000,0.000008,-0.000009,  35.429
     6.0,0.000003,0.000000,-0.000015,-0.000044,  35.432
     7.0,-0.000002,-0.000017,0.000015,-0.000004,  35.434
     8.0,0.000001,0.000001,-0.000044,-0.000017,  35.435
     9.0,0.000001,-0.000006,0.000002,-0.000026,  35.434
    10.0,-0.000008,-0.000009,0.000062,-0.000061,  35.439
    11.0,-0.000010,-0.000016,0.000030,-0.000039,  35.441
    12.0,-0.000008,-0.000014,0.000066,-0.000075,  35.444
    13.0,-0.000012,-0.000015,-0.000086,-0.000061,  35.444
    14.0,-0.000018,-0.000021,-0.000037,-0.000097,  35.448
    15.0,-0.000022,-0.000026,-0.000020,-0.000083,  35.444
    16.0,-0.000030,-0.000014,-0.000069,-0.000061,  35.445
    17.0,-0.000015,-0.000019,-0.000040,-0.000097,  35.448
    18.0,-0.000010,-0.000024,-0.000035,-0.000083,  35.449
    19.0,-0.000010,-0.000018,-0.000057,-0.000061,  35.448
    20.0,-0.000015,-0.000010,-0.000100,-0.000034,  35.448
    21.0,-0.000017,-0.000003,-0.000073,-0.000048,  35.445
    22.0,-0.000029,-0.000017,-0.000127,-0.000070,  35.451
    23.0,-0.000026,-0.000012,-0.000163,-0.000083,  35.445
    24.0,-0.000027,-0.000016,-0.000084,-0.000048,  35.444
    25.0,-0.000024,-0.000016,-0.000074,-0.000070,  35.443
    26.0,-0.000029,-0.000020,-0.000184,-0.000083,  35.440
    27.0,-0.000036,-0.000007,-0.000062,-0.000048,  35.438
    28.0,-0.000032,-0.000011,-0.000014,-0.000070,  35.437
    29.0,-0.000032,-0.000019,-0.000024,-0.000034,  35.437
    30.0,-0.000024,-0.000017,-0.000014,-0.000070,  35.433
    31.0,-0.000015,-0.000012,-0.000110,-0.000070,  35.430
    32.0,-0.000015,-0.000012,-0.000010,-0.000061,  35.434
    33.0,-0.000026,-0.000016,-0.000044,-0.000083,  35.430
    34.0,-0.000031,-0.000016,-0.000037,-0.000070,  35.432
    35.0,-0.000031,-0.000020,-0.000057,-0.000048,  35.426
    36.0,-0.000028,-0.000016,-0.000138,-0.000070,  35.428
    37.0,-0.000025,-0.000017,-0.000213,-0.000083,  35.424
    38.0,-0.000032,-0.000016,-0.000174,-0.000070,  35.432
    39.0,-0.000029,-0.000016,-0.000084,-0.000106,  35.432
    40.0,-0.000032,-0.000023,-0.000127,-0.000070,  35.428
    41.0,-0.000026,-0.000026,-0.000112,-0.000070,  35.425
    42.0,-0.000029,-0.000022,-0.000015,-0.000106,  35.422
    43.0,-0.000033,-0.000027,-0.000008,-0.000070,  35.416
    44.0,-0.000033,-0.000015,-0.001733,-0.000070,  35.416
    45.0,-0.000033,-0.000018,-0.000486,-0.000070,  35.410
    46.0,-0.000019,-0.000012,-0.000115,-0.000106,  35.408
    47.0,-0.000013,-0.000003,-0.000058,-0.000092,  35.405
    48.0,-0.000019,-0.000013,0.000039,-0.000070,  35.409
    49.0,-0.000033,-0.000006,0.000021,-0.000106,  35.402
    50.0,-0.000025,-0.000005,-0.000105,-0.000141,  35.405
    51.0,-0.000022,-0.000010,0.000008,-0.000119,  35.404
    52.0,-0.000024,-0.000019,0.000011,-0.000106,  35.404
    53.0,-0.000033,-0.000024,-0.000245,-0.000106,  35.410
    54.0,-0.000036,-0.000026,-0.000147,-0.000119,  35.411
    55.0,-0.000036,-0.000024,-0.000145,-0.000106,  35.411
    56.0,-0.000034,-0.000030,-0.000107,-0.000083,  35.410
    57.0,-0.000031,-0.000025,-0.000067,-0.000070,  35.413
    58.0,-0.000026,-0.000013,-0.000114,-0.000106,  35.410
    59.0,-0.000013,-0.000011,-0.000052,-0.000070,  35.413
    60.0,-0.000014,0.000004,0.000057,-0.000070,  35.412
    61.0,-0.000016,0.000007,0.000088,-0.000092,  35.408
    62.0,-0.000005,0.000007,-0.000015,-0.000079,  35.406
    63.0,0.000005,0.000005,-0.000163,-0.000092,  35.409
    64.0,0.000013,0.000010,-0.000105,-0.000056,  35.408
    65.0,0.000014,0.000017,0.000276,-0.000056,  35.409
    66.0,0.000016,0.000018,0.000140,-0.000092,  35.411
    67.0,0.000016,0.000034,0.000007,-0.000056,  35.417
    68.0,0.000011,0.000025,0.000017,-0.000056,  35.414
    69.0,0.000009,0.000021,-0.000018,-0.000106,  35.410
    70.0,-0.000008,0.000008,-0.000151,-0.000070,  35.411
    71.0,-0.000008,0.000006,-0.000038,-0.000056,  35.408
    72.0,-0.000018,0.000006,-0.000055,-0.000056,  35.412
    73.0,-0.000020,0.000008,-0.000159,-0.000056,  35.412
    74.0,-0.000025,0.000011,-0.000152,-0.000079,  35.407
    75.0,-0.000028,-0.000003,-0.000081,-0.000092,  35.397
    76.0,-0.000025,-0.000009,-0.000113,-0.000128,  35.394
    77.0,-0.000016,-0.000006,-0.000196,-0.000128,  35.386
    78.0,-0.000021,0.000009,-0.000177,-0.000092,  35.385
    79.0,-0.000018,0.000002,-0.000130,-0.000128,  35.383
    80.0,-0.000021,0.000005,-0.000130,-0.000092,  35.386
    81.0,-0.000030,0.000003,-0.000088,-0.000128,  35.390
    82.0,-0.000021,-0.000004,-0.000060,-0.000128,  35.394
    83.0,-0.000027,-0.000009,-0.000151,-0.000070,  35.397
    84.0,-0.000028,-0.000000,-0.000057,-0.000114,  35.400
    85.0,-0.000030,-0.000003,0.000045,-0.000128,  35.402
    86.0,-0.000025,0.000003,0.000171,-0.000092,  35.402
    87.0,-0.000012,0.000001,0.000342,-0.000128,  35.406
    88.0,0.000001,0.000012,0.000666,-0.000092,  35.409
    89.0,0.000007,0.000030,0.001145,-0.000114,  35.407
    90.0,0.000055,0.000039,0.001860,-0.000114,  35.412
    91.0,0.000118,0.000062,0.002993,-0.000092,  35.408
    92.0,0.000219,0.000098,0.004479,-0.000128,  35.411
    93.0,0.000360,0.000149,0.006463,-0.000114,  35.409
    94.0,0.000511,0.000224,0.009078,-0.000079,  35.409
    95.0,0.000700,0.000306,0.012440,-0.000101,  35.412
    96.0,0.000903,0.000427,0.016100,-0.000065,  35.415
    97.0,0.001221,0.000567,0.020247,-0.000029,  35.412
    98.0,0.001560,0.000735,0.024789,-0.000065,  35.411
    99.0,0.002001,0.000926,0.030600,-0.000016,  35.413
   100.0,0.002484,0.001163,0.037790,-0.000002,  35.409
   101.0,0.003132,0.001418,0.046722,-0.000038,  35.411
   102.0,0.003928,0.001701,0.056255,0.000011,  35.413
   103.0,0.004879,0.002136,0.066992,0.000038,  35.416
   104.0,0.005704,0.002631,0.079437,0.000016,  35.413
   105.0,0.006743,0.003164,0.094785,0.000030,  35.416
   106.0,0.008212,0.003767,0.105931,0.000043,  35.410
   107.0,0.009581,0.004574,0.122409,0.000092,  35.411
   108.0,0.011201,0.005337,0.141689,0.000119,  35.410
   109.0,0.013147,0.006233,0.162644,0.000070,  35.409
   110.0,0.015412,0.007087,0.185378,0.000119,  35.402
   111.0,0.017601,0.008289,0.208482,0.000089,  35.400
   112.0,0.019542,0.009442,0.237188,0.000089,  35.400
   113.0,0.022240,0.010669,0.268729,0.000138,  35.397
   114.0,0.025497,0.012231,0.294608,0.000129,  35.385
   115.0,0.028665,0.013984,0.328464,0.000165,  35.377
   116.0,0.032292,0.015727,0.360539,0.000143,  35.362
   117.0,0.035970,0.017672,0.399730,0.000143,  35.349
   118.0,0.039988,0.019266,0.438487,0.000200,  35.348
   119.0,0.044141,0.021427,0.477610,0.000187,  35.338
   120.0,0.048267,0.023578,0.519090,0.000151,  35.333
   121.0,0.051541,0.025781,0.561559,0.000200,  35.324
   122.0,0.056197,0.028065,0.596411,0.000124,  35.319
   123.0,0.061070,0.030588,0.640125,0.000160,  35.315
   124.0,0.065403,0.033060,0.682986,0.000160,  35.317
   125.0,0.070003,0.035338,0.734237,0.000111,  35.296
   126.0,0.075469,0.037341,0.779122,0.000092,  35.293
   127.0,0.080361,0.040314,0.824214,0.000052,  35.285
   128.0,0.085206,0.042942,0.871726,-0.000024,  35.277
   129.0,0.089337,0.045508,0.919596,-0.000043,  35.256
   130.0,0.094635,0.048283,0.961216,-0.000070,  35.245
   131.0,0.099431,0.051084,0.998226,-0.000124,  35.217
   132.0,0.104220,0.053606,1.045195,-0.000178,  35.189
   133.0,0.109109,0.056162,1.089303,-0.000227,  35.167
   134.0,0.113677,0.058637,1.133058,-0.000286,  35.125
   135.0,0.118630,0.060696,1.179533,-0.000327,  35.091
   136.0,0.123306,0.063359,1.219162,-0.000376,  35.054
   137.0,0.126632,0.065921,1.267195,-0.000421,  35.006
   138.0,0.132114,0.068156,1.311074,-0.000439,  34.960
   139.0,0.137407,0.071021,1.345262,-0.000453,  34.910
   140.0,0.141641,0.073689,1.389566,-0.000502,  34.844
   141.0,0.146188,0.076023,1.436420,-0.000565,  34.782
   142.0,0.151537,0.078532,1.481809,-0.000556,  34.712
   143.0,0.156589,0.080946,1.524067,-0.000543,  34.613
   144.0,0.161026,0.083388,1.570076,-0.000578,  34.523
   145.0,0.166456,0.085863,1.617451,-0.000453,  34.411
   146.0,0.171041,0.088736,1.670554,-0.000421,  34.279
   147.0,0.176744,0.091696,1.722658,-0.000318,  34.131
   148.0,0.182936,0.094745,1.764444,-0.000232,  33.957
   149.0,0.189793,0.098110,1.829655,-0.000056,  33.762
   150.0,0.197872,0.101720,1.893201,0.000106,  33.537
   151.0,0.206321,0.106226,1.961434,0.000308,  33.296
   152.0,0.215755,0.110316,2.030099,0.000530,  33.034
   153.0,0.225668,0.114684,2.099224,0.000823,  32.750
   154.0,0.236846,0.119973,2.169009,0.001107,  32.471
   155.0,0.247126,0.125807,2.231456,0.001302,  32.158
   156.0,0.258061,0.132022,2.291871,0.001527,  31.868
   157.0,0.269750,0.138222,2.341810,0.001690,  31.589
   158.0,0.281185,0.144297,2.379879,0.001771,  31.338
   159.0,0.291828,0.150088,2.419774,0.001920,  31.114
   160.0,0.301593,0.155615,2.446585,0.001912,  30.942
   161.0,0.309913,0.160423,2.472411,0.002015,  30.821
   162.0,0.317469,0.163959,2.492977,0.002043,  30.769
   163.0,0.323330,0.168015,2.504833,0.001953,  30.780
   164.0,0.327531,0.171056,2.519525,0.001934,  30.851
   165.0,0.330411,0.173312,2.529619,0.001853,  30.984
   166.0,0.332478,0.174812,2.532198,0.001758,  31.170
   167.0,0.333217,0.175648,2.534775,0.001649,  31.391
   168.0,0.333007,0.175865,2.540014,0.001451,  31.654
   169.0,0.331968,0.175488,2.540003,0.001392,  31.940
   170.0,0.330127,0.174742,2.542600,0.001270,  32.235
   171.0,0.327818,0.173910,2.542611,0.001126,  32.553
   172.0,0.324956,0.172548,2.545246,0.001026,  32.860
   173.0,0.322157,0.170948,2.545241,0.000944,  33.153
   174.0,0.318886,0.168976,2.542617,0.000877,  33.430
   175.0,0.315120,0.167107,2.542606,0.000823,  33.702
   176.0,0.310869,0.165043,2.542611,0.000719,  33.942
   177.0,0.306652,0.162721,2.542547,0.000687,  34.147
   178.0,0.302423,0.160405,2.537368,0.000647,  34.335
   179.0,0.297958,0.158269,2.534791,0.000611,  34.500
   180.0,0.293459,0.156171,2.532230,0.000593,  34.637
   181.0,0.289104,0.153741,2.524593,0.000615,  34.750
   182.0,0.285330,0.151386,2.522620,0.000525,  34.847
   183.0,0.281368,0.149054,2.522257,0.000560,  34.935
   184.0,0.277052,0.146755,2.517148,0.000547,  34.999
   185.0,0.272740,0.144445,2.517089,0.000533,  35.049
   186.0,0.268547,0.142116,2.514609,0.000511,  35.094
   187.0,0.264288,0.139919,2.507274,0.000498,  35.138
   188.0,0.260065,0.137745,2.502454,0.000506,  35.163
   189.0,0.255862,0.135908,2.502443,0.000484,  35.191
   190.0,0.251754,0.133650,2.495315,0.000422,  35.205
   191.0,0.248080,0.131477,2.492956,0.000444,  35.216
   192.0,0.244598,0.129407,2.483719,0.000457,  35.226
   193.0,0.240709,0.127287,2.481395,0.000430,  35.234
   194.0,0.236946,0.125260,2.479094,0.000403,  35.240
   195.0,0.233414,0.123277,2.472363,0.000381,  35.256
   196.0,0.229776,0.121431,2.465714,0.000403,  35.259
   197.0,0.226093,0.119523,2.463467,0.000390,  35.267
   198.0,0.222862,0.118021,2.452642,0.000368,  35.269
   199.0,0.219388,0.116274,2.446228,0.000376,  35.266
   200.0,0.216665,0.114487,2.442042,0.000363,  35.265
   201.0,0.213345,0.112717,2.431726,0.000363,  35.266
   202.0,0.210109,0.111023,2.427667,0.000363,  35.264
   203.0,0.206895,0.109362,2.415772,0.000327,  35.256
   204.0,0.203757,0.107724,2.409911,0.000385,  35.259
   205.0,0.200751,0.106116,2.400302,0.000385,  35.253
   206.0,0.197749,0.104687,2.389065,0.000358,  35.250
   207.0,0.194940,0.103337,2.381697,0.000358,  35.244
   208.0,0.192273,0.101882,2.372700,0.000336,  35.246
   209.0,0.189866,0.100527,2.360453,0.000358,  35.243
   210.0,0.187145,0.099036,2.350194,0.000344,  35.243
   211.0,0.184669,0.097694,2.340182,0.000308,  35.238
   212.0,0.182014,0.096473,2.328779,0.000344,  35.230
   213.0,0.179363,0.095106,2.316082,0.000295,  35.233
   214.0,0.176821,0.093788,2.302256,0.000295,  35.230
   215.0,0.174452,0.092770,2.287376,0.000317,  35.238
   216.0,0.171955,0.091622,2.274406,0.000281,  35.245
   217.0,0.169568,0.090397,2.259073,0.000281,  35.244
   218.0,0.167873,0.089216,2.244275,0.000304,  35.251
   219.0,0.165655,0.088154,2.228659,0.000304,  35.251
   220.0,0.163492,0.087075,2.216070,0.000290,  35.250
   221.0,0.161393,0.086028,2.200247,0.000268,  35.251
   222.0,0.159288,0.084991,2.181520,0.000268,  35.253
   223.0,0.157359,0.084011,2.164642,0.000290,  35.257
   224.0,0.155417,0.083283,2.147397,0.000268,  35.252
   225.0,0.153419,0.082344,2.127728,0.000268,  35.260
   226.0,0.151627,0.081415,2.108822,0.000276,  35.258
   227.0,0.150104,0.080468,2.088997,0.000290,  35.262
   228.0,0.148350,0.079657,2.071792,0.000276,  35.257
   229.0,0.146514,0.078867,2.053457,0.000241,  35.253
   230.0,0.144811,0.077984,2.032666,0.000214,  35.251
   231.0,0.143324,0.077228,2.012726,0.000263,  35.247
   232.0,0.141754,0.076673,1.992971,0.000241,  35.250
   233.0,0.140154,0.075950,1.973376,0.000200,  35.251
   234.0,0.138919,0.075232,1.951937,0.000249,  35.246
   235.0,0.137670,0.074502,1.930244,0.000263,  35.256
   236.0,0.136288,0.073968,1.911370,0.000299,  35.256
   237.0,0.134871,0.073366,1.891477,0.000312,  35.259
   238.0,0.133654,0.072753,1.869727,0.000263,  35.261
   239.0,0.132406,0.072236,1.847921,0.000299,  35.266
   240.0,0.131200,0.071774,1.826139,0.000312,  35.265
   241.0,0.130082,0.071252,1.804471,0.000290,  35.266
   242.0,0.128994,0.070753,1.784268,0.000299,  35.265
   243.0,0.127971,0.070270,1.764529,0.000312,  35.271
   244.0,0.127125,0.069776,1.743115,0.000312,  35.267
   245.0,0.126181,0.069497,1.727185,0.000312,  35.264
   246.0,0.125045,0.069089,1.707113,0.000276,  35.259
   247.0,0.124391,0.068594,1.687094,0.000312,  35.258
   248.0,0.123677,0.068399,1.665317,0.000339,  35.259
   249.0,0.122726,0.068244,1.645193,0.000304,  35.255
   250.0,0.121953,0.067808,1.625339,0.000326,  35.256
   251.0,0.121367,0.067508,1.605441,0.000312,  35.257
   252.0,0.120809,0.067298,1.586121,0.000312,  35.261
   253.0,0.120012,0.067052,1.569278,0.000290,  35.265
   254.0,0.119441,0.066759,1.552546,0.000276,  35.265
   255.0,0.118806,0.066592,1.535372,0.000312,  35.267
   256.0,0.118275,0.066359,1.517714,0.000312,  35.271
   257.0,0.117927,0.066234,1.499886,0.000263,  35.267
   258.0,0.117318,0.066173,1.478286,0.000299,  35.263
   259.0,0.116952,0.065948,1.465025,0.000312,  35.259
   260.0,0.116693,0.065872,1.449137,0.000263,  35.263
   261.0,0.116458,0.065843,1.433478,0.000299,  35.260
   262.0,0.115984,0.065784,1.421127,0.000263,  35.263
   263.0,0.115609,0.065673,1.406056,0.000299,  35.264
   264.0,0.115527,0.065611,1.390228,0.000312,  35.268
   265.0,0.115168,0.065703,1.375985,0.000263,  35.273
   266.0,0.114910,0.065618,1.361909,0.000299,  35.279
   267.0,0.114786,0.065576,1.348424,0.000312,  35.278
   268.0,0.114669,0.065607,1.335352,0.000263,  35.284
   269.0,0.114532,0.065649,1.322752,0.000312,  35.288
   270.0,0.114242,0.065692,1.311634,0.000290,  35.284
   271.0,0.114243,0.065634,1.301694,0.000326,  35.277
   272.0,0.114291,0.065752,1.289984,0.000339,  35.272
   273.0,0.114208,0.065886,1.278127,0.000304,  35.264
   274.0,0.114191,0.065982,1.266540,0.000326,  35.257
   275.0,0.114156,0.066051,1.255677,0.000312,  35.249
   276.0,0.114238,0.066124,1.244953,0.000290,  35.246
   277.0,0.114266,0.066247,1.234596,0.000312,  35.230
   278.0,0.114251,0.066355,1.225393,0.000290,  35.230
   279.0,0.114252,0.066437,1.217712,0.000339,  35.220
   280.0,0.114431,0.066561,1.209458,0.000339,  35.221
   281.0,0.114549,0.066735,1.200383,0.000317,  35.215
   282.0,0.114464,0.066865,1.192956,0.000339,  35.212
   283.0,0.114596,0.066932,1.184925,0.000339,  35.209
   284.0,0.114908,0.067068,1.177203,0.000317,  35.207
   285.0,0.114954,0.067355,1.169222,0.000339,  35.208
   286.0,0.115026,0.067440,1.161739,0.000290,  35.209
   287.0,0.115240,0.067545,1.155522,0.000326,  35.212
   288.0,0.115457,0.067734,1.148893,0.000339,  35.221
   289.0,0.115525,0.067944,1.142572,0.000304,  35.227
   290.0,0.115708,0.068037,1.136414,0.000326,  35.230
   291.0,0.115836,0.068193,1.130251,0.000339,  35.233
   292.0,0.116028,0.068344,1.124585,0.000290,  35.236
   293.0,0.116246,0.068537,1.118869,0.000312,  35.238
   294.0,0.116360,0.068693,1.113999,0.000312,  35.236
   295.0,0.116482,0.068861,1.109086,0.000312,  35.247
   296.0,0.116792,0.068973,1.105047,0.000326,  35.250
   297.0,0.117029,0.069199,1.099879,0.000304,  35.268
   298.0,0.117134,0.069378,1.095090,0.000326,  35.270
   299.0,0.117300,0.069501,1.091137,0.000326,  35.268
   300.0,0.117555,0.069645,1.086076,0.000375,  35.270
   301.0,0.117688,0.069830,1.081587,0.000348,  35.265
   302.0,0.117819,0.069956,1.077796,0.000312,  35.268
   303.0,0.118006,0.070071,1.073734,0.000361,  35.267
   304.0,0.118146,0.070238,1.070011,0.000361,  35.264
   305.0,0.118314,0.070365,1.067096,0.000334,  35.261
   306.0,0.118447,0.070513,1.063999,0.000334,  35.264
   307.0,0.118593,0.070605,1.060613,0.000312,  35.264
   308.0,0.118825,0.070739,1.056722,0.000307,  35.256
   309.0,0.118919,0.070874,1.053468,0.000334,  35.264
   310.0,0.119059,0.070977,1.049968,0.000312,  35.264
   311.0,0.119158,0.071097,1.046852,0.000334,  35.265
   312.0,0.119291,0.071201,1.043203,0.000348,  35.273
   313.0,0.119408,0.071303,1.040504,0.000348,  35.272
   314.0,0.119510,0.071387,1.037457,0.000334,  35.280
   315.0,0.119556,0.071475,1.035182,0.000312,  35.285
   316.0,0.119645,0.071550,1.032254,0.000361,  35.284
   317.0,0.119705,0.071599,1.029403,0.000348,  35.286
   318.0,0.119736,0.071666,1.026817,0.000312,  35.292
   319.0,0.119789,0.071726,1.024182,0.000326,  35.294
   320.0,0.119869,0.071784,1.020608,0.000312,  35.296
   321.0,0.119861,0.071874,1.017211,0.000290,  35.304
   322.0,0.119875,0.071875,1.014723,0.000299,  35.297
   323.0,0.119875,0.071880,1.011768,0.000312,  35.303
   324.0,0.119860,0.071904,1.008806,0.000276,  35.304
   325.0,0.119802,0.071909,1.006236,0.000312,  35.301
   326.0,0.119751,0.071898,1.003353,0.000312,  35.297
   327.0,0.119704,0.071878,1.000307,0.000263,  35.291
   328.0,0.119645,0.071854,0.994928,0.000299,  35.290
   329.0,0.119581,0.071841,0.993848,0.000290,  35.287
   330.0,0.119475,0.071813,0.991945,0.000312,  35.282
   331.0,0.119371,0.071785,0.989771,0.000312,  35.275
   332.0,0.119300,0.071728,0.986285,0.000263,  35.275
   333.0,0.119134,0.071692,0.982745,0.000312,  35.272
   334.0,0.118964,0.071598,0.979684,0.000312,  35.272
   335.0,0.118803,0.071536,0.976439,0.000263,  35.273
   336.0,0.118625,0.071439,0.972795,0.000299,  35.275
   337.0,0.118426,0.071350,0.970003,0.000312,  35.271
   338.0,0.118232,0.071214,0.966884,0.000299,  35.274
   339.0,0.118048,0.071115,0.964140,0.000299,  35.273
   340.0,0.117818,0.071006,0.960718,0.000307,  35.275
   341.0,0.117558,0.070881,0.957576,0.000307,  35.281
   342.0,0.117300,0.070737,0.954168,0.000285,  35.280
   343.0,0.117054,0.070619,0.950984,0.000321,  35.281
   344.0,0.116816,0.070469,0.946944,0.000321,  35.276
   345.0,0.116463,0.070340,0.943165,0.000285,  35.279
   346.0,0.116180,0.070126,0.938862,0.000321,  35.277
   347.0,0.115846,0.069931,0.935256,0.000307,  35.273
   348.0,0.115525,0.069734,0.932030,0.000307,  35.274
   349.0,0.115146,0.069539,0.927959,0.000321,  35.275
   350.0,0.114730,0.069310,0.924326,0.000285,  35.270
   351.0,0.114406,0.069065,0.920488,0.000329,  35.265
   352.0,0.114022,0.068928,0.916928,0.000294,  35.263
   353.0,0.113579,0.068706,0.912061,0.000285,  35.268
   354.0,0.113198,0.068457,0.908542,0.000307,  35.268
   355.0,0.112832,0.068190,0.904494,0.000307,  35.266
   356.0,0.112499,0.067995,0.899956,0.000307,  35.263
   357.0,0.111932,0.067766,0.895280,0.000307,  35.263
   358.0,0.111451,0.067414,0.890997,0.000285,  35.264
   359.0,0.111010,0.067137,0.886079,0.000307,  35.265
   360.0,0.110489,0.066933,0.881091,0.000307,  35.267
   361.0,0.109934,0.066604,0.876732,0.000285,  35.267
   362.0,0.109452,0.066298,0.871963,0.000307,  35.270
   363.0,0.109018,0.065983,0.867482,0.000307,  35.273
   364.0,0.108488,0.065673,0.864060,0.000307,  35.276
   365.0,0.107964,0.065367,0.859310,0.000307,  35.275
   366.0,0.107380,0.065058,0.854120,0.000285,  35.279
   367.0,0.106822,0.064709,0.850282,0.000307,  35.272
   368.0,0.106383,0.064424,0.844122,0.000307,  35.272
   369.0,0.105682,0.064166,0.838277,0.000285,  35.269
   370.0,0.105011,0.063771,0.833156,0.000307,  35.264
   371.0,0.104608,0.063357,0.828257,0.000307,  35.260
   372.0,0.104017,0.063031,0.822505,0.000272,  35.256
   373.0,0.103296,0.062669,0.817801,0.000280,  35.260
   374.0,0.102640,0.062242,0.813105,0.000244,  35.256
   375.0,0.102069,0.061866,0.807339,0.000280,  35.258
   376.0,0.101374,0.061506,0.802839,0.000280,  35.263
   377.0,0.100724,0.061137,0.797775,0.000244,  35.261
   378.0,0.100114,0.060800,0.791902,0.000280,  35.268
   379.0,0.099539,0.060434,0.786841,0.000267,  35.270
   380.0,0.099025,0.060028,0.780610,0.000280,  35.271
   381.0,0.098256,0.059674,0.775222,0.000289,  35.273
   382.0,0.097512,0.059215,0.769694,0.000289,  35.273
   383.0,0.096819,0.058762,0.764077,0.000302,  35.272
   384.0,0.096145,0.058332,0.758251,0.000302,  35.271
   385.0,0.095421,0.058001,0.751607,0.000280,  35.280
   386.0,0.094651,0.057586,0.746103,0.000280,  35.283
   387.0,0.093992,0.057118,0.740640,0.000267,  35.286
   388.0,0.093372,0.056703,0.735124,0.000267,  35.291
   389.0,0.092613,0.056284,0.730398,0.000267,  35.294
   390.0,0.091901,0.055828,0.725194,0.000316,  35.301
   391.0,0.091242,0.055403,0.720336,0.000316,  35.305
   392.0,0.090637,0.055004,0.713198,0.000302,  35.306
   393.0,0.089779,0.054643,0.706492,0.000267,  35.310
   394.0,0.089003,0.054236,0.700702,0.000280,  35.309
   395.0,0.088254,0.053737,0.694473,0.000289,  35.309
   396.0,0.087598,0.053297,0.688467,0.000289,  35.310
   397.0,0.086862,0.052785,0.682067,0.000289,  35.312
   398.0,0.086069,0.052361,0.676624,0.000289,  35.321
   399.0,0.085287,0.051872,0.670713,0.000289,  35.323
   400.0,0.084536,0.051423,0.665493,0.000289,  35.325
   401.0,0.083834,0.050972,0.660253,0.000302,  35.323
   402.0,0.083033,0.050649,0.653823,0.000316,  35.323
   403.0,0.082273,0.050175,0.649026,0.000280,  35.322
   404.0,0.081763,0.049710,0.642736,0.000244,  35.322
   405.0,0.081094,0.049360,0.635143,0.000267,  35.327
   406.0,0.080137,0.048890,0.629466,0.000253,  35.328
   407.0,0.079378,0.048311,0.624471,0.000267,  35.330
   408.0,0.078637,0.047854,0.617777,0.000253,  35.329
   409.0,0.077773,0.047396,0.611328,0.000217,  35.327
   410.0,0.076968,0.046887,0.605799,0.000267,  35.330
   411.0,0.076263,0.046495,0.599711,0.000240,  35.330
   412.0,0.075473,0.046061,0.593645,0.000217,  35.335
   413.0,0.074723,0.045597,0.588228,0.000253,  35.337
   414.0,0.074118,0.045122,0.582058,0.000275,  35.343
   415.0,0.073319,0.044650,0.577676,0.000253,  35.343
   416.0,0.072607,0.044179,0.571738,0.000253,  35.344
   417.0,0.071924,0.043803,0.564712,0.000217,  35.350
   418.0,0.071080,0.043347,0.558438,0.000267,  35.347
   419.0,0.070226,0.042940,0.551948,0.000226,  35.356
   420.0,0.069491,0.042443,0.546238,0.000190,  35.357
   421.0,0.068846,0.041995,0.539108,0.000240,  35.353
   422.0,0.068027,0.041526,0.534114,0.000226,  35.356
   423.0,0.067302,0.040984,0.529785,0.000240,  35.354
   424.0,0.066593,0.040548,0.524069,0.000226,  35.355
   425.0,0.065839,0.040139,0.518269,0.000190,  35.350
   426.0,0.065056,0.039692,0.512452,0.000240,  35.351
   427.0,0.064323,0.039320,0.507194,0.000226,  35.349
   428.0,0.063672,0.038861,0.501392,0.000190,  35.340
   429.0,0.062938,0.038456,0.494798,0.000213,  35.339
   430.0,0.062310,0.038035,0.488982,0.000213,  35.331
   431.0,0.061582,0.037548,0.482903,0.000177,  35.325
   432.0,0.060837,0.037081,0.478395,0.000213,  35.316
   433.0,0.060108,0.036647,0.472415,0.000163,  35.308
   434.0,0.059317,0.036205,0.466728,0.000199,  35.302
   435.0,0.058549,0.035745,0.461375,0.000199,  35.296
   436.0,0.057884,0.035356,0.456234,0.000163,  35.279
   437.0,0.057254,0.034971,0.451189,0.000172,  35.274
   438.0,0.056667,0.034574,0.445293,0.000199,  35.268
   439.0,0.055933,0.034153,0.438851,0.000213,  35.266
   440.0,0.055330,0.033715,0.435924,0.000248,  35.261
   441.0,0.054730,0.033341,0.430040,0.000262,  35.261
   442.0,0.053901,0.032983,0.424510,0.000213,  35.258
   443.0,0.053235,0.032475,0.419326,0.000199,  35.250
   444.0,0.052579,0.032128,0.413795,0.000163,  35.253
   445.0,0.051834,0.031774,0.408034,0.000199,  35.248
   446.0,0.051180,0.031345,0.403288,0.000221,  35.247
   447.0,0.050613,0.030910,0.398180,0.000199,  35.238
   448.0,0.049945,0.030510,0.393072,0.000221,  35.237
   449.0,0.049291,0.030101,0.389634,0.000235,  35.239
   450.0,0.048673,0.029721,0.384805,0.000221,  35.233
   451.0,0.048017,0.029329,0.379356,0.000221,  35.237
   452.0,0.047392,0.028944,0.374851,0.000235,  35.237
   453.0,0.046842,0.028634,0.369689,0.000221,  35.236
   454.0,0.046157,0.028318,0.364226,0.000243,  35.240
   455.0,0.045582,0.027900,0.359455,0.000208,  35.239
   456.0,0.045007,0.027489,0.354763,0.000208,  35.245
   457.0,0.044425,0.027138,0.349941,0.000208,  35.244
   458.0,0.043759,0.026773,0.345445,0.000208,  35.253
   459.0,0.043113,0.026364,0.341100,0.000208,  35.253
   460.0,0.042542,0.025965,0.336622,0.000208,  35.256
   461.0,0.041939,0.025651,0.332299,0.000208,  35.260
   462.0,0.041361,0.025348,0.327767,0.000208,  35.268
   463.0,0.040803,0.025000,0.323076,0.000208,  35.267
   464.0,0.040354,0.024650,0.318250,0.000208,  35.269
   465.0,0.039841,0.024325,0.313788,0.000172,  35.278
   466.0,0.039219,0.024023,0.310388,0.000208,  35.280
   467.0,0.038633,0.023640,0.305899,0.000208,  35.281
   468.0,0.038056,0.023294,0.301764,0.000181,  35.286
   469.0,0.037543,0.022944,0.297735,0.000194,  35.289
   470.0,0.036993,0.022689,0.293061,0.000181,  35.291
   471.0,0.036407,0.022365,0.288806,0.000167,  35.292
   472.0,0.035925,0.022021,0.284976,0.000194,  35.292
   473.0,0.035438,0.021675,0.281177,0.000145,  35.289
   474.0,0.034930,0.021353,0.277884,0.000194,  35.293
   475.0,0.034392,0.021065,0.273708,0.000181,  35.292
   476.0,0.033903,0.020734,0.270501,0.000194,  35.290
   477.0,0.033502,0.020438,0.265835,0.000194,  35.284
   478.0,0.032951,0.020205,0.261654,0.000181,  35.287
   479.0,0.032410,0.019916,0.257734,0.000167,  35.280
   480.0,0.031927,0.019586,0.253817,0.000181,  35.283
   481.0,0.031543,0.019298,0.250190,0.000167,  35.283
   482.0,0.031035,0.019011,0.246571,0.000181,  35.277
   483.0,0.030578,0.018709,0.243791,0.000181,  35.275
   484.0,0.030113,0.018418,0.239360,0.000194,  35.278
   485.0,0.029619,0.018142,0.235392,0.000181,  35.271
   486.0,0.029166,0.017860,0.232830,0.000167,  35.269
   487.0,0.028728,0.017638,0.229215,0.000167,  35.267
   488.0,0.028286,0.017377,0.226610,0.000167,  35.265
   489.0,0.027945,0.017092,0.223147,0.000154,  35.263
   490.0,0.027570,0.016876,0.219352,0.000118,  35.257
   491.0,0.027075,0.016619,0.216235,0.000154,  35.262
   492.0,0.026645,0.016320,0.213365,0.000167,  35.258
   493.0,0.026250,0.016053,0.209892,0.000167,  35.257
   494.0,0.025815,0.015822,0.206311,0.000154,  35.254
   495.0,0.025369,0.015595,0.203398,0.000167,  35.260
   496.0,0.024989,0.015336,0.200407,0.000154,  35.257
   497.0,0.024600,0.015114,0.197292,0.000176,  35.255
   498.0,0.024273,0.014884,0.194541,0.000140,  35.261
   499.0,0.023868,0.014625,0.191603,0.000176,  35.261
   500.0,0.023491,0.014402,0.189341,0.000154,  35.263
   501.0,0.023168,0.014174,0.186462,0.000203,  35.265
   502.0,0.022812,0.013970,0.183269,0.000154,  35.268
   503.0,0.022413,0.013760,0.180312,0.000167,  35.268
   504.0,0.022044,0.013571,0.177220,0.000167,  35.268
   505.0,0.021674,0.013341,0.174585,0.000140,  35.268
   506.0,0.021342,0.013115,0.169417,0.000140,  35.274
   507.0,0.021023,0.012901,0.168349,0.000127,  35.276
   508.0,0.020654,0.012675,0.166436,0.000127,  35.275
   509.0,0.020347,0.012462,0.164400,0.000140,  35.282
   510.0,0.020032,0.012267,0.162089,0.000176,  35.278
   511.0,0.019661,0.012087,0.159430,0.000140,  35.280
   512.0,0.019339,0.011879,0.157165,0.000154,  35.280
   513.0,0.019070,0.011709,0.154757,0.000140,  35.279
   514.0,0.018747,0.011550,0.151948,0.000140,  35.278
   515.0,0.018441,0.011356,0.149531,0.000140,  35.280
   516.0,0.018162,0.011148,0.146942,0.000149,  35.281
   517.0,0.017866,0.010960,0.145031,0.000162,  35.283
   518.0,0.017552,0.010780,0.142641,0.000135,  35.280
   519.0,0.017239,0.010594,0.140452,0.000113,  35.279
   520.0,0.016959,0.010405,0.138217,0.000149,  35.277
   521.0,0.016667,0.010275,0.136015,0.000149,  35.266
   522.0,0.016393,0.010095,0.134048,0.000149,  35.271
   523.0,0.016133,0.009934,0.131759,0.000149,  35.264
   524.0,0.015905,0.009765,0.129832,0.000149,  35.256
   525.0,0.015639,0.009587,0.128055,0.000162,  35.248
   526.0,0.015410,0.009440,0.126104,0.000149,  35.248
   527.0,0.015103,0.009302,0.123872,0.000113,  35.243
   528.0,0.014845,0.009119,0.121876,0.000149,  35.241
   529.0,0.014626,0.008979,0.119962,0.000127,  35.237
   530.0,0.014374,0.008859,0.117902,0.000127,  35.240
   531.0,0.014101,0.008707,0.116199,0.000162,  35.240
   532.0,0.013905,0.008550,0.114213,0.000162,  35.236
   533.0,0.013679,0.008391,0.112215,0.000176,  35.232
   534.0,0.013419,0.008262,0.110920,0.000149,  35.225
   535.0,0.013187,0.008107,0.109196,0.000113,  35.224
   536.0,0.012959,0.007979,0.105212,0.000149,  35.221
   537.0,0.012744,0.007831,0.105043,0.000127,  35.216
   538.0,0.012542,0.007708,0.103680,0.000140,  35.218
   539.0,0.012315,0.007603,0.102083,0.000149,  35.219
   540.0,0.012102,0.007470,0.100456,0.000135,  35.217
   541.0,0.011923,0.007333,0.098816,0.000113,  35.213
   542.0,0.011722,0.007196,0.097347,0.000149,  35.225
   543.0,0.011508,0.007082,0.095496,0.000113,  35.225
   544.0,0.011292,0.006955,0.094499,0.000149,  35.221
   545.0,0.011110,0.006821,0.092850,0.000135,  35.223
   546.0,0.010915,0.006736,0.091463,0.000113,  35.226
   547.0,0.010710,0.006627,0.089976,0.000135,  35.228
   548.0,0.010533,0.006504,0.088366,0.000135,  35.229
   549.0,0.010407,0.006389,0.087172,0.000113,  35.227
   550.0,0.010246,0.006285,0.085560,0.000135,  35.231
   551.0,0.010052,0.006196,0.084474,0.000113,  35.234
   552.0,0.009870,0.006082,0.083156,0.000135,  35.233
   553.0,0.009692,0.005963,0.081672,0.000135,  35.248
   554.0,0.009509,0.005863,0.080340,0.000113,  35.255
   555.0,0.009353,0.005764,0.079115,0.000135,  35.254
   556.0,0.009187,0.005682,0.077841,0.000135,  35.257
   557.0,0.009023,0.005578,0.076610,0.000113,  35.258
   558.0,0.008891,0.005485,0.075355,0.000113,  35.258
   559.0,0.008745,0.005391,0.074150,0.000127,  35.261
   560.0,0.008582,0.005301,0.073242,0.000113,  35.260
   561.0,0.008437,0.005204,0.072298,0.000099,  35.263
   562.0,0.008315,0.005113,0.071120,0.000113,  35.264
   563.0,0.008162,0.005036,0.069799,0.000099,  35.265
   564.0,0.007992,0.004960,0.068673,0.000135,  35.263
   565.0,0.007849,0.004856,0.067572,0.000099,  35.261
   566.0,0.007737,0.004776,0.066503,0.000122,  35.263
   567.0,0.007597,0.004694,0.065275,0.000135,  35.260
   568.0,0.007455,0.004597,0.064084,0.000122,  35.259
   569.0,0.007334,0.004513,0.063315,0.000135,  35.258
   570.0,0.007203,0.004434,0.062377,0.000113,  35.257
   571.0,0.007076,0.004354,0.061481,0.000135,  35.260
   572.0,0.006941,0.004296,0.060419,0.000135,  35.261
   573.0,0.006818,0.004222,0.059632,0.000086,  35.266
   574.0,0.006730,0.004146,0.058643,0.000122,  35.265
   575.0,0.006636,0.004091,0.057676,0.000108,  35.264
   576.0,0.006504,0.004014,0.056674,0.000108,  35.272
   577.0,0.006369,0.003942,0.055796,0.000108,  35.275
   578.0,0.006251,0.003864,0.055050,0.000072,  35.277
   579.0,0.006142,0.003795,0.054180,0.000108,  35.283
   580.0,0.006021,0.003723,0.053387,0.000108,  35.286
   581.0,0.005916,0.003648,0.052571,0.000072,  35.282
   582.0,0.005824,0.003601,0.051636,0.000108,  35.287
   583.0,0.005721,0.003540,0.050864,0.000108,  35.288
   584.0,0.005638,0.003480,0.050245,0.000072,  35.288
   585.0,0.005539,0.003419,0.049650,0.000108,  35.289
   586.0,0.005459,0.003357,0.048908,0.000072,  35.293
   587.0,0.005360,0.003312,0.048062,0.000108,  35.293
   588.0,0.005267,0.003255,0.047372,0.000108,  35.293
   589.0,0.005164,0.003215,0.046644,0.000072,  35.284
   590.0,0.005080,0.003150,0.045913,0.000122,  35.284
   591.0,0.004986,0.003098,0.045096,0.000122,  35.276
   592.0,0.004911,0.003042,0.044411,0.000086,  35.279
   593.0,0.004828,0.002984,0.043596,0.000122,  35.273
   594.0,0.004746,0.002928,0.043012,0.000086,  35.268
   595.0,0.004666,0.002875,0.042150,0.000122,  35.269
   596.0,0.004569,0.002828,0.042118,0.000122,  35.267
   597.0,0.004489,0.002784,0.041504,0.000059,  35.266
   598.0,0.004429,0.002739,0.040733,0.000108,  35.266
   599.0,0.004343,0.002700,0.040152,0.000108,  35.265
   600.0,0.004256,0.002642,0.039516,0.000072,  35.264
   601.0,0.004191,0.002586,0.038921,0.000095,  35.263
   602.0,0.004131,0.002537,0.038399,0.000108,  35.266
   603.0,0.004065,0.002502,0.037828,0.000108,  35.261
   604.0,0.003979,0.002455,0.037190,0.000095,  35.263
   605.0,0.003901,0.002412,0.036755,0.000072,  35.259
   606.0,0.003831,0.002362,0.036222,0.000081,  35.260
   607.0,0.003763,0.002327,0.035529,0.000081,  35.259
   608.0,0.003683,0.002287,0.034858,0.000045,  35.262
   609.0,0.003645,0.002241,0.033852,0.000095,  35.258
   610.0,0.003577,0.002208,0.033898,0.000081,  35.259
   611.0,0.003530,0.002177,0.033744,0.000108,  35.256
   612.0,0.003468,0.002140,0.033258,0.000095,  35.258
   613.0,0.003406,0.002114,0.032623,0.000072,  35.254
   614.0,0.003357,0.002074,0.032350,0.000108,  35.255
   615.0,0.003301,0.002050,0.031849,0.000095,  35.256
   616.0,0.003231,0.002014,0.031487,0.000059,  35.259
   617.0,0.003190,0.001966,0.031117,0.000095,  35.254
   618.0,0.003152,0.001940,0.030693,0.000095,  35.253
   619.0,0.003094,0.001908,0.030348,0.000108,  35.254
   620.0,0.003037,0.001880,0.030038,0.000095,  35.257
   621.0,0.002983,0.001847,0.029650,0.000045,  35.252
   622.0,0.002944,0.001817,0.029322,0.000095,  35.259
   623.0,0.002893,0.001790,0.028940,0.000108,  35.261
   624.0,0.002840,0.001774,0.028540,0.000072,  35.260
   625.0,0.002801,0.001743,0.028347,0.000108,  35.267
   626.0,0.002763,0.001712,0.027703,0.000095,  35.265
   627.0,0.002713,0.001680,0.027151,0.000108,  35.267
   628.0,0.002670,0.001656,0.026862,0.000081,  35.272
   629.0,0.002614,0.001630,0.026547,0.000117,  35.273
   630.0,0.002575,0.001595,0.026376,0.000130,  35.278
   631.0,0.002532,0.001573,0.026178,0.000117,  35.283
   632.0,0.002495,0.001550,0.025778,0.000117,  35.282
   633.0,0.002453,0.001530,0.025498,0.000130,  35.286
   634.0,0.002415,0.001503,0.025279,0.000117,  35.287
   635.0,0.002400,0.001479,0.024808,0.000117,  35.290
   636.0,0.002352,0.001458,0.024523,0.000117,  35.298
   637.0,0.002304,0.001426,0.024327,0.000117,  35.297
   638.0,0.002281,0.001414,0.023986,0.000130,  35.297
   639.0,0.002240,0.001390,0.023723,0.000117,  35.297
   640.0,0.002197,0.001378,0.023498,0.000117,  35.299
   641.0,0.002166,0.001350,0.023198,0.000130,  35.303
   642.0,0.002131,0.001330,0.022988,0.000081,  35.308
   643.0,0.002103,0.001298,0.022697,0.000045,  35.307
   644.0,0.002060,0.001278,0.022432,0.000090,  35.319
   645.0,0.002014,0.001263,0.022218,0.000090,  35.319
   646.0,0.001991,0.001238,0.021982,0.000103,  35.321
   647.0,0.001972,0.001217,0.021721,0.000090,  35.320
   648.0,0.001934,0.001205,0.021501,0.000090,  35.319
   649.0,0.001894,0.001191,0.021184,0.000103,  35.316
   650.0,0.001871,0.001162,0.020926,0.000103,  35.314
   651.0,0.001842,0.001139,0.020696,0.000117,  35.316
   652.0,0.001806,0.001123,0.020294,0.000103,  35.311
   653.0,0.001774,0.001100,0.020225,0.000103,  35.314
   654.0,0.001757,0.001083,0.020001,0.000117,  35.312
   655.0,0.001736,0.001071,0.019901,0.000103,  35.296
   656.0,0.001711,0.001065,0.019622,0.000117,  35.294
   657.0,0.001694,0.001044,0.019509,0.000117,  35.283
   658.0,0.001664,0.001039,0.019173,0.000103,  35.283
   659.0,0.001646,0.001018,0.018837,0.000117,  35.279
   660.0,0.001627,0.001010,0.018312,0.000130,  35.272
   661.0,0.001595,0.000990,0.018574,0.000068,  35.263
   662.0,0.001571,0.000974,0.018587,0.000117,  35.254
   663.0,0.001549,0.000957,0.018265,0.000090,  35.231
   664.0,0.001522,0.000953,0.018230,0.000139,  35.210
   665.0,0.001513,0.000940,0.018115,0.000117,  35.205
   666.0,0.001492,0.000940,0.017866,0.000081,  35.189
   667.0,0.001464,0.000930,0.017816,0.000068,  35.189
   668.0,0.001443,0.000913,0.017669,0.000103,  35.185
   669.0,0.001411,0.000897,0.017460,0.000090,  35.181
   670.0,0.001411,0.000862,0.017340,0.000068,  35.188
   671.0,0.001389,0.000862,0.017206,0.000068,  35.184
   672.0,0.001362,0.000858,0.016891,0.000045,  35.193
   673.0,0.001338,0.000840,0.016770,0.000081,  35.205
   674.0,0.001328,0.000817,0.016678,0.000068,  35.208
   675.0,0.001308,0.000813,0.016529,0.000045,  35.218
   676.0,0.001299,0.000798,0.016456,0.000095,  35.221
   677.0,0.001280,0.000789,0.014527,0.000081,  35.235
   678.0,0.001273,0.000786,0.015679,0.000045,  35.239
   679.0,0.001251,0.000786,0.015938,0.000090,  35.262
   680.0,0.001232,0.000766,0.015997,0.000090,  35.261
   681.0,0.001214,0.000758,0.015854,0.000103,  35.270
   682.0,0.001190,0.000748,0.015734,0.000103,  35.277
   683.0,0.001181,0.000733,0.015603,0.000090,  35.284
   684.0,0.001182,0.000736,0.015541,0.000174,  35.290
   685.0,0.001169,0.000728,0.015403,0.000117,  35.289
   686.0,0.001158,0.000720,0.015070,0.000072,  35.289
   687.0,0.001153,0.000726,0.015182,0.000103,  35.291
   688.0,0.001126,0.000723,0.015210,0.000117,  35.292
   689.0,0.001125,0.000711,0.015214,0.000166,  35.293
   690.0,0.001103,0.000701,0.015172,0.000152,  35.286
   691.0,0.001081,0.000690,0.015048,0.000152,  35.279
   692.0,0.001068,0.000682,0.014946,0.000095,  35.270
   693.0,0.001063,0.000672,0.014803,0.000117,  35.268
   694.0,0.001044,0.000677,0.014836,0.000117,  35.258
   695.0,0.001031,0.000658,0.014613,0.000130,  35.254
   696.0,0.001012,0.000642,0.014507,0.000081,  35.250
   697.0,0.001005,0.000633,0.014419,0.000130,  35.240
   698.0,0.000989,0.000622,0.014176,0.000117,  35.243
   699.0,0.000975,0.000611,0.013985,0.000103,  35.229
   700.0,0.000964,0.000604,0.013894,0.000117,  35.224
   701.0,0.000957,0.000601,0.013872,0.000103,  35.215
   702.0,0.000936,0.000592,0.013706,0.000103,  35.206
   703.0,0.000931,0.000578,0.013685,0.000103,  35.205
   704.0,0.000923,0.000576,0.013715,0.000103,  35.209
   705.0,0.000913,0.000574,0.013640,0.000117,  35.209
   706.0,0.000891,0.000565,0.013528,0.000103,  35.215
   707.0,0.000886,0.000552,0.013494,0.000117,  35.216
   708.0,0.000884,0.000551,0.013232,0.000130,  35.219
   709.0,0.000872,0.000545,0.013226,0.000103,  35.229
   710.0,0.000851,0.000536,0.013187,0.000161,  35.233
   711.0,0.000849,0.000529,0.013001,0.000139,  35.243
   712.0,0.000829,0.000525,0.012951,0.000139,  35.257
   713.0,0.000838,0.000519,0.012871,0.000152,  35.268
   714.0,0.000838,0.000507,0.012868,0.000103,  35.269
   715.0,0.000824,0.000510,0.012930,0.000117,  35.273
   716.0,0.000826,0.000509,0.013071,0.000117,  35.280
   717.0,0.000815,0.000504,0.012937,0.000103,  35.287
   718.0,0.000789,0.000498,0.012792,0.000117,  35.291
   719.0,0.000791,0.000477,0.012602,0.000117,  35.294
   720.0,0.000777,0.000483,0.012552,0.000103,  35.297
   721.0,0.000783,0.000475,0.012536,0.000103,  35.298
   722.0,0.000764,0.000471,0.012405,0.000117,  35.295
   723.0,0.000752,0.000469,0.012366,0.000117,  35.302
   724.0,0.000753,0.000463,0.012297,0.000144,  35.306
   725.0,0.000753,0.000466,0.012125,0.000130,  35.301
   726.0,0.000744,0.000465,0.012268,0.000130,  35.302
   727.0,0.000745,0.000454,0.012209,0.000130,  35.305
   728.0,0.000735,0.000459,0.012395,0.000117,  35.301
   729.0,0.000733,0.000456,0.012380,0.000117,  35.301
   730.0,0.000722,0.000459,0.012238,0.000117,  35.295
   731.0,0.000708,0.000443,0.012161,0.000117,  35.291
   732.0,0.000712,0.000439,0.011972,0.000130,  35.290
   733.0,0.000698,0.000432,0.011999,0.000117,  35.286
   734.0,0.000690,0.000436,0.011842,0.000045,  35.290
   735.0,0.000688,0.000425,0.011893,0.000095,  35.286
   736.0,0.000677,0.000424,0.011847,0.000081,  35.280
   737.0,0.000669,0.000421,0.011787,0.000045,  35.285
   738.0,0.000655,0.000414,0.011679,0.000054,  35.281
   739.0,0.000644,0.000401,0.011653,0.000068,  35.281
   740.0,0.000646,0.000405,0.011691,0.000081,  35.281
   741.0,0.000639,0.000393,0.011647,0.000068,  35.283
   742.0,0.000626,0.000399,0.011537,0.000045,  35.277
   743.0,0.000630,0.000376,0.011503,0.000117,  35.276
   744.0,0.000624,0.000379,0.011492,0.000103,  35.276
   745.0,0.000618,0.000388,0.011479,0.000117,  35.280
   746.0,0.000622,0.000376,0.011412,0.000117,  35.278
   747.0,0.000622,0.000376,0.011251,0.000090,  35.275
   748.0,0.000616,0.000380,0.011292,0.000090,  35.271
   749.0,0.000620,0.000371,0.011230,0.000090,  35.264
   750.0,0.000603,0.000374,0.011205,0.000090,  35.271
   751.0,0.000604,0.000369,0.011039,0.000103,  35.267
   752.0,0.000595,0.000369,0.011237,0.000090,  35.270
   753.0,0.000589,0.000369,0.011077,0.000103,  35.269
   754.0,0.000591,0.000371,0.011176,0.000117,  35.267
   755.0,0.000587,0.000365,0.011048,0.000103,  35.275
   756.0,0.000577,0.000354,0.011142,0.000103,  35.277
   757.0,0.000571,0.000355,0.011108,0.000103,  35.276
   758.0,0.000565,0.000349,0.010965,0.000117,  35.280
   759.0,0.000566,0.000349,0.011044,0.000117,  35.271
   760.0,0.000570,0.000345,0.010929,0.000125,  35.281
   761.0,0.000557,0.000355,0.010928,0.000117,  35.280
   762.0,0.000558,0.000346,0.011012,0.000174,  35.273
   763.0,0.000553,0.000347,0.010874,0.000103,  35.271
   764.0,0.000554,0.000347,0.010953,0.000117,  35.271
   765.0,0.000551,0.000335,0.010894,0.000103,  35.272
   766.0,0.000537,0.000333,0.010874,0.000117,  35.269
   767.0,0.000541,0.000330,0.010700,0.000117,  35.262
   768.0,0.000541,0.000327,0.010774,0.000090,  35.265
   769.0,0.000535,0.000326,0.010737,0.000117,  35.270
   770.0,0.000533,0.000336,0.010722,0.000117,  35.269
   771.0,0.000527,0.000329,0.010696,0.000103,  35.271
   772.0,0.000525,0.000328,0.010731,0.000117,  35.272
   773.0,0.000525,0.000316,0.010739,0.000103,  35.274
   774.0,0.000508,0.000319,0.010662,0.000117,  35.280
   775.0,0.000511,0.000314,0.010626,0.000117,  35.279
   776.0,0.000505,0.000317,0.010369,0.000103,  35.278
   777.0,0.000502,0.000314,0.010497,0.000117,  35.282
   778.0,0.000500,0.000315,0.010536,0.000147,  35.282
   779.0,0.000489,0.000303,0.010406,0.000139,  35.281
   780.0,0.000491,0.000306,0.010421,0.000139,  35.281
   781.0,0.000501,0.000305,0.010480,0.000139,  35.288
   782.0,0.000495,0.000303,0.010469,0.000103,  35.289
   783.0,0.000490,0.000308,0.010474,0.000117,  35.292
   784.0,0.000488,0.000305,0.010405,0.000103,  35.292
   785.0,0.000494,0.000299,0.010271,0.000117,  35.289
   786.0,0.000491,0.000304,0.010378,0.000161,  35.289
   787.0,0.000488,0.000308,0.010339,0.000125,  35.292
   788.0,0.000485,0.000296,0.010278,0.000125,  35.289
   789.0,0.000489,0.000293,0.010449,0.000139,  35.293
   790.0,0.000485,0.000303,0.009480,0.000152,  35.294
   791.0,0.000477,0.000295,0.010091,0.000152,  35.297
   792.0,0.000471,0.000289,0.010104,0.000139,  35.298
   793.0,0.000474,0.000294,0.010282,0.000152,  35.298
   794.0,0.000472,0.000293,0.010315,0.000139,  35.306
   795.0,0.000468,0.000296,0.010208,0.000125,  35.313
   796.0,0.000468,0.000294,0.010275,0.000139,  35.312
   797.0,0.000474,0.000305,0.010333,0.000166,  35.320
   798.0,0.000470,0.000303,0.010364,0.000152,  35.320
   799.0,0.000474,0.000305,0.010450,0.000152,  35.328
   800.0,0.000468,0.000304,0.010422,0.000152,  35.327
   801.0,0.000470,0.000306,0.010420,0.000152,  35.338
   802.0,0.000466,0.000300,0.010366,0.000166,  35.332
   803.0,0.000464,0.000306,0.010419,0.000152,  35.334
   804.0,0.000458,0.000303,0.010447,0.000166,  35.337
   805.0,0.000464,0.000291,0.010239,0.000179,  35.336
   806.0,0.000464,0.000299,0.010361,0.000166,  35.336
   807.0,0.000456,0.000302,0.010391,0.000166,  35.330
   808.0,0.000449,0.000300,0.010424,0.000152,  35.336
   809.0,0.000449,0.000293,0.010373,0.000152,  35.336
   810.0,0.000451,0.000290,0.010254,0.000130,  35.338
   811.0,0.000448,0.000281,0.010223,0.000103,  35.336
   812.0,0.000447,0.000279,0.010284,0.000117,  35.333
   813.0,0.000447,0.000278,0.010378,0.000152,  35.327
   814.0,0.000435,0.000284,0.010368,0.000125,  35.315
   815.0,0.000441,0.000281,0.010393,0.000166,  35.309
   816.0,0.000444,0.000287,0.010365,0.000139,  35.306
   817.0,0.000438,0.000289,0.010245,0.000081,  35.301
   818.0,0.000436,0.000283,0.010106,0.000117,  35.301
   819.0,0.000441,0.000284,0.010156,0.000117,  35.301
   820.0,0.000438,0.000287,0.010258,0.000117,  35.304
   821.0,0.000436,0.000274,0.010267,0.000130,  35.302
   822.0,0.000439,0.000278,0.010292,0.000139,  35.298
   823.0,0.000440,0.000272,0.010264,0.000152,  35.299
   824.0,0.000435,0.000275,0.010141,0.000152,  35.297
   825.0,0.000425,0.000272,0.010154,0.000139,  35.296
   826.0,0.000417,0.000272,0.010154,0.000139,  35.294
   827.0,0.000409,0.000265,0.010176,0.000139,  35.296
   828.0,0.000409,0.000258,0.010059,0.000152,  35.295
   829.0,0.000415,0.000268,0.010159,0.000166,  35.294
   830.0,0.000417,0.000264,0.010156,0.000152,  35.294
   831.0,0.000417,0.000275,0.009948,0.000179,  35.297
   832.0,0.000431,0.000277,0.010100,0.000179,  35.299
   833.0,0.000433,0.000290,0.009989,0.000166,  35.304
   834.0,0.000437,0.000288,0.010052,0.000179,  35.303
   835.0,0.000428,0.000291,0.010007,0.000166,  35.307
   836.0,0.000431,0.000284,0.010118,0.000179,  35.312
   837.0,0.000435,0.000275,0.008895,0.000179,  35.313
   838.0,0.000430,0.000276,0.009639,0.000179,  35.317
   839.0,0.000418,0.000281,0.009901,0.000179,  35.314
   840.0,0.000422,0.000275,0.010049,0.000179,  35.316
   841.0,0.000428,0.000276,0.010128,0.000166,  35.317
   842.0,0.000428,0.000285,0.010087,0.000179,  35.317
   843.0,0.000427,0.000281,0.010036,0.000179,  35.315
   844.0,0.000426,0.000281,0.009960,0.000179,  35.315
   845.0,0.000430,0.000278,0.010077,0.000179,  35.312
   846.0,0.000432,0.000280,0.010063,0.000179,  35.315
   847.0,0.000432,0.000289,0.009361,0.000179,  35.315
   848.0,0.000424,0.000283,0.008840,0.000179,  35.312
   849.0,0.000419,0.000279,0.009473,0.000179,  35.313
   850.0,0.000414,0.000274,0.009798,0.000179,  35.310
   851.0,0.000416,0.000271,0.009770,0.000179,  35.315
   852.0,0.000408,0.000261,0.009884,0.000179,  35.316
   853.0,0.000408,0.000257,0.009909,0.000179,  35.316
   854.0,0.000408,0.000266,0.010148,0.000166,  35.314
   855.0,0.000408,0.000266,0.010138,0.000179,  35.315
   856.0,0.000411,0.000270,0.009992,0.000179,  35.318
   857.0,0.000415,0.000264,0.009753,0.000166,  35.315
   858.0,0.000407,0.000268,0.009672,0.000179,  35.316
   859.0,0.000404,0.000259,0.009595,0.000166,  35.317
   860.0,0.000396,0.000262,0.009590,0.000179,  35.320
   861.0,0.000399,0.000258,0.009661,0.000179,  35.321
   862.0,0.000393,0.000248,0.009740,0.000166,  35.324
   863.0,0.000393,0.000247,0.009747,0.000179,  35.324
   864.0,0.000385,0.000247,0.009747,0.000179,  35.323
   865.0,0.000391,0.000255,0.009734,0.000193,  35.322
   866.0,0.000396,0.000254,0.009739,0.000179,  35.321
   867.0,0.000396,0.000256,0.009713,0.000179,  35.324
   868.0,0.000402,0.000256,0.009645,0.000179,  35.323
   869.0,0.000397,0.000252,0.009677,0.000179,  35.324
   870.0,0.000397,0.000253,0.009611,0.000179,  35.324
   871.0,0.000400,0.000251,0.009570,0.000179,  35.327
   872.0,0.000397,0.000248,0.009601,0.000179,  35.329
   873.0,0.000397,0.000249,0.009565,0.000179,  35.328
   874.0,0.000403,0.000247,0.009601,0.000179,  35.327
   875.0,0.000387,0.000248,0.009565,0.000135,  35.330
   876.0,0.000370,0.000251,0.009489,0.000157,  35.329
   877.0,0.000384,0.000247,0.009509,0.000171,  35.330
   878.0,0.000392,0.000252,0.009557,0.000171,  35.324
   879.0,0.000389,0.000254,0.009493,0.000184,  35.318
   880.0,0.000395,0.000257,0.009483,0.000171,  35.315
   881.0,0.000389,0.000250,0.009432,0.000171,  35.304
   882.0,0.000384,0.000251,0.009460,0.000184,  35.297
   883.0,0.000390,0.000246,0.009465,0.000171,  35.285
   884.0,0.000384,0.000248,0.009485,0.000171,  35.283
   885.0,0.000376,0.000239,0.009381,0.000228,  35.271
   886.0,0.000370,0.000242,0.009394,0.000193,  35.254
   887.0,0.000365,0.000239,0.009375,0.000206,  35.251
   888.0,0.000360,0.000244,0.009403,0.000193,  35.240
   889.0,0.000362,0.000238,0.009235,0.000193,  35.229
   890.0,0.000369,0.000235,0.009263,0.000193,  35.213
   891.0,0.000366,0.000231,0.009252,0.000193,  35.207
   892.0,0.000355,0.000230,0.009099,0.000193,  35.197
   893.0,0.000355,0.000220,0.009164,0.000193,  35.177
   894.0,0.000347,0.000212,0.009113,0.000166,  35.163
   895.0,0.000334,0.000214,0.009069,0.000179,  35.151
   896.0,0.000331,0.000209,0.008767,0.000179,  35.150
   897.0,0.000324,0.000206,0.008959,0.000179,  35.141
   898.0,0.000327,0.000199,0.008987,0.000193,  35.138
   899.0,0.000338,0.000202,0.009000,0.000193,  35.130
   900.0,0.000334,0.000220,0.008875,0.000166,  35.115
   901.0,0.000352,0.000215,0.008980,0.000206,  35.118
   902.0,0.000349,0.000217,0.008909,0.000122,  35.115
   903.0,0.000352,0.000219,0.008952,0.000171,  35.107
   904.0,0.000355,0.000214,0.008941,0.000184,  35.108
   905.0,0.000349,0.000212,0.008842,0.000171,  35.109
   906.0,0.000344,0.000219,0.008700,0.000157,  35.107
   907.0,0.000341,0.000213,0.008794,0.000157,  35.108
   908.0,0.000341,0.000210,0.008730,0.000157,  35.114
   909.0,0.000349,0.000214,0.008842,0.000157,  35.101
   910.0,0.000341,0.000216,0.008849,0.000157,  35.094
   911.0,0.000332,0.000215,0.008805,0.000157,  35.079
   912.0,0.000328,0.000210,0.008795,0.000157,  35.069
   913.0,0.000325,0.000190,0.008659,0.000157,  35.068
   914.0,0.000342,0.000198,0.008628,0.000157,  35.062
   915.0,0.000333,0.000210,0.008600,0.000157,  35.067
   916.0,0.000324,0.000210,0.008615,0.000157,  35.066
   917.0,0.000322,0.000208,0.008513,0.000157,  35.072
   918.0,0.000322,0.000201,0.008371,0.000157,  35.074
   919.0,0.000319,0.000197,0.008521,0.000157,  35.073
   920.0,0.000315,0.000185,0.007114,0.000157,  35.078
   921.0,0.000315,0.000191,0.008039,0.000144,  35.073
   922.0,0.000312,0.000188,0.008384,0.000144,  35.070
   923.0,0.000310,0.000187,0.008432,0.000144,  35.070
   924.0,0.000303,0.000188,0.008407,0.000130,  35.072
   925.0,0.000314,0.000186,0.008384,0.000144,  35.074
   926.0,0.000314,0.000192,0.008542,0.000144,  35.075
   927.0,0.000308,0.000196,0.008430,0.000144,  35.075
   928.0,0.000326,0.000202,0.008270,0.000144,  35.083
   929.0,0.000318,0.000200,0.008225,0.000144,  35.086
   930.0,0.000317,0.000191,0.008450,0.000157,  35.096
   931.0,0.000319,0.000194,0.008549,0.000157,  35.103
   932.0,0.000327,0.000206,0.008488,0.000157,  35.112
   933.0,0.000341,0.000209,0.008384,0.000157,  35.119
   934.0,0.000336,0.000211,0.008465,0.000144,  35.124
   935.0,0.000313,0.000210,0.008483,0.000130,  35.132
   936.0,0.000304,0.000200,0.008366,0.000144,  35.139
   937.0,0.000298,0.000198,0.008210,0.000144,  35.157
   938.0,0.000304,0.000184,0.008255,0.000144,  35.167
   939.0,0.000301,0.000184,0.008316,0.000144,  35.174
   940.0,0.000295,0.000179,0.008364,0.000144,  35.178
   941.0,0.000297,0.000183,0.008412,0.000157,  35.178
   942.0,0.000303,0.000184,0.008352,0.000144,  35.184
   943.0,0.000305,0.000193,0.008395,0.000144,  35.184
   944.0,0.000299,0.000190,0.008255,0.000144,  35.185
   945.0,0.000311,0.000201,0.008342,0.000144,  35.186
   946.0,0.000314,0.000199,0.008250,0.000144,  35.185
   947.0,0.000306,0.000194,0.008303,0.000144,  35.182
   948.0,0.000287,0.000189,0.008159,0.000130,  35.184
   949.0,0.000296,0.000183,0.008108,0.000144,  35.183
   950.0,0.000293,0.000177,0.007870,0.000144,  35.177
   951.0,0.000287,0.000177,0.007965,0.000117,  35.179
   952.0,0.000280,0.000179,0.007858,0.000117,  35.179
   953.0,0.000282,0.000176,0.008025,0.000201,  35.183
   954.0,0.000297,0.000174,0.008050,0.000152,  35.177
   955.0,0.000291,0.000170,0.008037,0.000166,  35.176
   956.0,0.000282,0.000172,0.008054,0.000152,  35.174
   957.0,0.000288,0.000169,0.008021,0.000152,  35.174
   958.0,0.000279,0.000170,0.008051,0.000166,  35.171
   959.0,0.000276,0.000178,0.007978,0.000166,  35.167
   960.0,0.000282,0.000162,0.007923,0.000179,  35.164
   961.0,0.000276,0.000175,0.007945,0.000179,  35.164
   962.0,0.000279,0.000177,0.008266,0.000166,  35.159
   963.0,0.000285,0.000178,0.008059,0.000179,  35.161
   964.0,0.000282,0.000177,0.007806,0.000179,  35.165
   965.0,0.000293,0.000178,0.007869,0.000179,  35.166
   966.0,0.000293,0.000179,0.007790,0.000179,  35.164
   967.0,0.000284,0.000177,0.007849,0.000166,  35.166
   968.0,0.000282,0.000170,0.007957,0.000179,  35.170
   969.0,0.000274,0.000174,0.007903,0.000179,  35.172
   970.0,0.000274,0.000166,0.007826,0.000166,  35.169
   971.0,0.000278,0.000169,0.007817,0.000152,  35.171
   972.0,0.000272,0.000161,0.007890,0.000152,  35.164
   973.0,0.000269,0.000170,0.007868,0.000152,  35.146
   974.0,0.000277,0.000161,0.007844,0.000166,  35.141
   975.0,0.000274,0.000167,0.007867,0.000152,  35.136
   976.0,0.000274,0.000166,0.007826,0.000152,  35.131
   977.0,0.000272,0.000163,0.007788,0.000166,  35.126
   978.0,0.000260,0.000164,0.007823,0.000152,  35.119
   979.0,0.000277,0.000160,0.007772,0.000152,  35.104
   980.0,0.000284,0.000168,0.007933,0.000166,  35.087
   981.0,0.000270,0.000162,0.007776,0.000139,  35.086
   982.0,0.000261,0.000152,0.007718,0.000152,  35.078
   983.0,0.000267,0.000151,0.007604,0.000152,  35.076
   984.0,0.000259,0.000150,0.007566,0.000152,  35.071
   985.0,0.000263,0.000156,0.007593,0.000166,  35.069
   986.0,0.000267,0.000154,0.007613,0.000117,  35.063
   987.0,0.000266,0.000147,0.007600,0.000144,  35.059
   988.0,0.000266,0.000143,0.007408,0.000144,  35.052
   989.0,0.000273,0.000149,0.007486,0.000166,  35.043
   990.0,0.000265,0.000156,0.007435,0.000179,  35.030
   991.0,0.000251,0.000150,0.007381,0.000152,  35.025
   992.0,0.000251,0.000145,0.007348,0.000152,  35.014
   993.0,0.000244,0.000147,0.007368,0.000166,  35.015
   994.0,0.000243,0.000143,0.006458,0.000166,  35.008
   995.0,0.000255,0.000140,0.006602,0.000179,  34.998
   996.0,0.000249,0.000142,0.006971,0.000179,  35.001
   997.0,0.000246,0.000142,0.007046,0.000166,  35.002
   998.0,0.000244,0.000143,0.007127,0.000179,  35.004
   999.0,0.000244,0.000144,0.007205,0.000166,  35.010
  1000.0,0.000250,0.000152,0.007160,0.000179,  35.017
  1001.0,0.000254,0.000146,0.007178,0.000179,  35.032
  1002.0,0.000262,0.000150,0.007181,0.000179,  35.041
  1003.0,0.000265,0.000154,0.007224,0.000179,  35.054
  1004.0,0.000267,0.000161,0.007201,0.000179,  35.068
  1005.0,0.000270,0.000165,0.007196,0.000166,  35.084
  1006.0,0.000281,0.000169,0.007252,0.000179,  35.095
  1007.0,0.000278,0.000174,0.007240,0.000193,  35.094
  1008.0,0.000284,0.000178,0.007230,0.000193,  35.102
  1009.0,0.000278,0.000185,0.007356,0.000193,  35.103
  1010.0,0.000288,0.000181,0.007376,0.000193,  35.106
  1011.0,0.000291,0.000187,0.007323,0.000166,  35.108
  1012.0,0.000281,0.000196,0.007240,0.000179,  35.106
  1013.0,0.000273,0.000192,0.007304,0.000166,  35.099
  1014.0,0.000279,0.000182,0.007241,0.000179,  35.097
  1015.0,0.000273,0.000176,0.007234,0.000166,  35.094
  1016.0,0.000273,0.000170,0.007192,0.000179,  35.098
  1017.0,0.000257,0.000165,0.007166,0.000179,  35.092
  1018.0,0.000249,0.000158,0.007090,0.000166,  35.091
  1019.0,0.000241,0.000157,0.007011,0.000179,  35.096
  1020.0,0.000243,0.000145,0.006948,0.000179,  35.099
  1021.0,0.000246,0.000147,0.006927,0.000152,  35.097
  1022.0,0.000251,0.000153,0.006955,0.000166,  35.101
  1023.0,0.000259,0.000149,0.006984,0.000166,  35.105
  1024.0,0.000262,0.000157,0.006875,0.000179,  35.106
  1025.0,0.000267,0.000160,0.007000,0.000206,  35.118
  1026.0,0.000275,0.000169,0.007049,0.000193,  35.117
  1027.0,0.000292,0.000180,0.007172,0.000193,  35.122
  1028.0,0.000299,0.000190,0.007230,0.000193,  35.125
  1029.0,0.000299,0.000200,0.007154,0.000193,  35.128
  1030.0,0.000291,0.000186,0.006970,0.000166,  35.135
  1031.0,0.000281,0.000190,0.007085,0.000179,  35.128
  1032.0,0.000269,0.000181,0.007126,0.000179,  35.127
  1033.0,0.000256,0.000167,0.006981,0.000179,  35.125
  1034.0,0.000253,0.000162,0.006945,0.000166,  35.120
  1035.0,0.000251,0.000154,0.005724,0.000152,  35.117
  1036.0,0.000241,0.000147,0.006403,0.000166,  35.115
  1037.0,0.000241,0.000151,0.006574,0.000152,  35.114
  1038.0,0.000236,0.000149,0.006633,0.000152,  35.110
  1039.0,0.000238,0.000141,0.006670,0.000152,  35.105
  1040.0,0.000226,0.000141,0.006655,0.000139,  35.111
  1041.0,0.000221,0.000138,0.006624,0.000166,  35.103
  1042.0,0.000224,0.000130,0.006596,0.000152,  35.111
  1043.0,0.000220,0.000134,0.006525,0.000152,  35.102
  1044.0,0.000214,0.000129,0.006518,0.000139,  35.094
  1045.0,0.000217,0.000111,0.006477,0.000183,  35.086
  1046.0,0.000212,0.000113,0.006411,0.000125,  35.078
  1047.0,0.000217,0.000121,0.006378,0.000125,  35.073
  1048.0,0.000225,0.000121,0.006041,0.000161,  35.068
  1049.0,0.000225,0.000121,0.006095,0.000139,  35.066
  1050.0,0.000228,0.000125,0.006125,0.000139,  35.064
  1051.0,0.000229,0.000128,0.006235,0.000152,  35.060
  1052.0,0.000221,0.000120,0.006180,0.000152,  35.058
  1053.0,0.000204,0.000117,0.006066,0.000139,  35.055
  1054.0,0.000205,0.000114,0.005861,0.000152,  35.063
  1055.0,0.000207,0.000114,0.005956,0.000152,  35.057
  1056.0,0.000204,0.000110,0.005926,0.000139,  35.059
  1057.0,0.000201,0.000110,0.005855,0.000152,  35.059
  1058.0,0.000204,0.000114,0.005849,0.000139,  35.059
  1059.0,0.000207,0.000109,0.005816,0.000139,  35.068
  1060.0,0.000201,0.000109,0.005867,0.000152,  35.073
  1061.0,0.000201,0.000110,0.005808,0.000152,  35.075
  1062.0,0.000210,0.000112,0.005740,0.000152,  35.083
  1063.0,0.000213,0.000119,0.005750,0.000152,  35.087
  1064.0,0.000208,0.000110,0.005657,0.000125,  35.091
  1065.0,0.000206,0.000105,0.005671,0.000139,  35.096
  1066.0,0.000208,0.000107,0.005724,0.000139,  35.102
  1067.0,0.000214,0.000112,0.005719,0.000125,  35.103
  1068.0,0.000208,0.000113,0.005726,0.000139,  35.111
  1069.0,0.000213,0.000116,0.005517,0.000139,  35.113
  1070.0,0.000201,0.000117,0.005568,0.000152,  35.114
  1071.0,0.000210,0.000096,0.005704,0.000152,  35.122
  1072.0,0.000224,0.000111,0.005726,0.000161,  35.120
  1073.0,0.000229,0.000117,0.005646,0.000139,  35.122
  1074.0,0.000222,0.000120,0.005658,0.000152,  35.120
  1075.0,0.000221,0.000133,0.005698,0.000161,  35.121
  1076.0,0.000227,0.000129,0.005688,0.000152,  35.122
  1077.0,0.000222,0.000134,0.005670,0.000152,  35.123
  1078.0,0.000231,0.000134,0.005455,0.000152,  35.133
  1079.0,0.000223,0.000132,0.005660,0.000166,  35.141
  1080.0,0.000212,0.000129,0.005667,0.000161,  35.145
  1081.0,0.000218,0.000122,0.005683,0.000125,  35.142
  1082.0,0.000207,0.000132,0.005639,0.000152,  35.145
  1083.0,0.000207,0.000116,0.005618,0.000188,  35.147
  1084.0,0.000218,0.000110,0.005631,0.000166,  35.136
  1085.0,0.000212,0.000119,0.005624,0.000152,  35.137
  1086.0,0.000218,0.000128,0.005435,0.000152,  35.142
  1087.0,0.000215,0.000121,0.005457,0.000166,  35.139
  1088.0,0.000209,0.000114,0.005495,0.000152,  35.143
  1089.0,0.000215,0.000123,0.005426,0.000152,  35.142
  1090.0,0.000207,0.000123,0.005308,0.000139,  35.139
  1091.0,0.000209,0.000117,0.005237,0.000125,  35.139
  1092.0,0.000201,0.000110,0.005212,0.000152,  35.136
  1093.0,0.000199,0.000107,0.005363,0.000139,  35.138
  1094.0,0.000193,0.000115,0.005308,0.000152,  35.131
  1095.0,0.000193,0.000106,0.005273,0.000152,  35.130
  1096.0,0.000193,0.000113,0.005275,0.000174,  35.130
  1097.0,0.000190,0.000105,0.005260,0.000152,  35.128
  1098.0,0.000185,0.000100,0.005227,0.000152,  35.128
  1099.0,0.000178,0.000108,0.005206,0.000139,  35.132
  1100.0,0.000188,0.000102,0.005214,0.000152,  35.131
  1101.0,0.000191,0.000099,0.005144,0.000139,  35.138
  1102.0,0.000192,0.000099,0.005073,0.000139,  35.150
  1103.0,0.000192,0.000101,0.004979,0.000152,  35.148
  1104.0,0.000188,0.000104,0.005030,0.000125,  35.150
  1105.0,0.000188,0.000111,0.005082,0.000090,  35.149
  1106.0,0.000169,0.000114,0.005079,0.000076,  35.150
  1107.0,0.000175,0.000100,0.004925,0.000076,  35.138
  1108.0,0.000187,0.000084,0.004947,0.000112,  35.131
  1109.0,0.000184,0.000104,0.004975,0.000098,  35.126
  1110.0,0.000173,0.000102,0.004925,0.000147,  35.129
  1111.0,0.000176,0.000095,0.004839,0.000112,  35.131
  1112.0,0.000172,0.000102,0.004869,0.000147,  35.125
  1113.0,0.000181,0.000093,0.004869,0.000112,  35.125
  1114.0,0.000184,0.000091,0.004835,0.000098,  35.123
  1115.0,0.000177,0.000095,0.004685,0.000134,  35.123
  1116.0,0.000172,0.000091,0.004820,0.000125,  35.116
  1117.0,0.000176,0.000092,0.004778,0.000112,  35.120
  1118.0,0.000179,0.000088,0.004742,0.000147,  35.122
  1119.0,0.000170,0.000096,0.004797,0.000098,  35.125
  1120.0,0.000164,0.000086,0.004712,0.000134,  35.126
  1121.0,0.000173,0.000093,0.004751,0.000098,  35.128
  1122.0,0.000173,0.000098,0.004729,0.000098,  35.133
  1123.0,0.000172,0.000091,0.004686,0.000134,  35.132
  1124.0,0.000181,0.000088,0.004769,0.000134,  35.139
  1125.0,0.000184,0.000088,0.004671,0.000085,  35.144
  1126.0,0.000185,0.000096,0.004747,0.000147,  35.136
  1127.0,0.000192,0.000100,0.004745,0.000112,  35.147
  1128.0,0.000199,0.000101,0.004772,0.000125,  35.140
  1129.0,0.000199,0.000123,0.004627,0.000125,  35.141
  1130.0,0.000201,0.000121,0.004510,0.000139,  35.143
  1131.0,0.000199,0.000133,0.004714,0.000125,  35.151
  1132.0,0.000199,0.000117,0.004689,0.000125,  35.161
  1133.0,0.000199,0.000115,0.004744,0.000125,  35.162
  1134.0,0.000193,0.000114,0.004678,0.000147,  35.174
  1135.0,0.000205,0.000110,0.004683,0.000125,  35.174
  1136.0,0.000191,0.000117,0.004720,0.000147,  35.175
  1137.0,0.000199,0.000117,0.004662,0.000125,  35.176
  1138.0,0.000194,0.000122,0.004607,0.000112,  35.169
  1139.0,0.000188,0.000108,0.004477,0.000112,  35.173
  1140.0,0.000194,0.000106,0.004602,0.000125,  35.164
  1141.0,0.000191,0.000102,0.004468,0.000112,  35.159
  1142.0,0.000199,0.000116,0.004663,0.000125,  35.162
  1143.0,0.000213,0.000119,0.004711,0.000125,  35.152
  1144.0,0.000210,0.000128,0.004845,0.000139,  35.145
  1145.0,0.000219,0.000140,0.004720,0.000125,  35.142
  1146.0,0.000211,0.000146,0.004793,0.000139,  35.143
  1147.0,0.000200,0.000138,0.004754,0.000134,  35.144
  1148.0,0.000193,0.000124,0.004613,0.000098,  35.137
  1149.0,0.000185,0.000108,0.004489,0.000120,  35.134
  1150.0,0.000177,0.000108,0.004505,0.000156,  35.137
  1151.0,0.000164,0.000102,0.004419,0.000169,  35.134
  1152.0,0.000162,0.000089,0.004416,0.000120,  35.125
  1153.0,0.000169,0.000080,0.004444,0.000156,  35.118
  1154.0,0.000171,0.000083,0.004437,0.000085,  35.112
  1155.0,0.000174,0.000093,0.004463,0.000120,  35.102
  1156.0,0.000173,0.000099,0.004131,0.000098,  35.106
  1157.0,0.000170,0.000098,0.004265,0.000071,  35.100
  1158.0,0.000162,0.000087,0.002779,0.000134,  35.091
  1159.0,0.000164,0.000089,0.003776,0.000098,  35.090
  1160.0,0.000154,0.000095,0.004239,0.000098,  35.083
  1161.0,0.000170,0.000087,0.004146,0.000134,  35.079
  1162.0,0.000170,0.000083,0.004171,0.000112,  35.072
  1163.0,0.000170,0.000094,0.004023,0.000147,  35.068
  1164.0,0.000168,0.000104,0.002155,0.000112,  35.061
  1165.0,0.000170,0.000094,0.003559,0.000098,  35.059
  1166.0,0.000167,0.000096,0.003962,0.000147,  35.051
  1167.0,0.000170,0.000091,0.004022,0.000098,  35.053
  1168.0,0.000179,0.000082,0.004108,0.000112,  35.048
  1169.0,0.000168,0.000089,0.003951,0.000134,  35.038
  1170.0,0.000168,0.000094,0.003844,0.000098,  35.043
  1171.0,0.000157,0.000081,0.003847,0.000134,  35.042
  1172.0,0.000151,0.000082,0.003974,0.000098,  35.040
  1173.0,0.000143,0.000081,0.004063,0.000098,  35.032
  1174.0,0.000148,0.000075,0.003945,0.000156,  35.031
  1175.0,0.000151,0.000084,0.003898,0.000169,  35.030
  1176.0,0.000157,0.000074,0.003788,0.000134,  35.044
  1177.0,0.000148,0.000087,0.003860,0.000134,  35.038
  1178.0,0.000155,0.000083,0.003898,0.000098,  35.036
  1179.0,0.000143,0.000079,0.003859,0.000134,  35.041
  1180.0,0.000149,0.000071,0.003821,0.000098,  35.042
  1181.0,0.000143,0.000076,0.003799,0.000085,  35.048
  1182.0,0.000143,0.000071,0.001977,0.000120,  35.046
  1183.0,0.000151,0.000071,0.003266,0.000098,  35.054
  1184.0,0.000151,0.000077,0.003579,0.000085,  35.051
  1185.0,0.000156,0.000083,0.003711,0.000134,  35.057
  1186.0,0.000165,0.000091,0.003769,0.000098,  35.059
  1187.0,0.000162,0.000085,0.003678,0.000134,  35.067
  1188.0,0.000170,0.000092,0.003670,0.000134,  35.072
  1189.0,0.000170,0.000095,0.002656,0.000098,  35.062
  1190.0,0.000164,0.000099,0.003379,0.000134,  35.070
  1191.0,0.000164,0.000094,0.003566,0.000134,  35.075
  1192.0,0.000157,0.000098,0.003589,0.000134,  35.080
  1193.0,0.000157,0.000090,0.003671,0.000156,  35.088
  1194.0,0.000155,0.000089,0.003587,0.000169,  35.094
  1195.0,0.000151,0.000085,0.003582,0.000120,  35.103
  1196.0,0.000147,0.000079,0.003404,0.000156,  35.103
  1197.0,0.000147,0.000077,0.003412,0.000085,  35.105
  1198.0,0.000146,0.000077,0.003503,0.000156,  35.105
  1199.0,0.000133,0.000076,0.003442,0.000169,  35.104
  1200.0,0.000130,0.000064,0.003427,0.000085,  35.115
  1201.0,0.000135,0.000068,0.003402,0.000120,  35.107
  1202.0,0.000133,0.000062,0.002168,0.000098,  35.109
  1203.0,0.000131,0.000062,0.002910,0.000085,  35.111
  1204.0,0.000117,0.000072,0.003093,0.000085,  35.112
  1205.0,0.000125,0.000065,0.003138,0.000085,  35.115
  1206.0,0.000124,0.000057,0.003240,0.000120,  35.119
  1207.0,0.000129,0.000057,0.003112,0.000098,  35.128
  1208.0,0.000126,0.000053,0.003068,0.000085,  35.130
  1209.0,0.000126,0.000052,0.003167,0.000107,  35.132
  1210.0,0.000137,0.000039,0.003098,0.000071,  35.141
  1211.0,0.000128,0.000051,0.003157,0.000071,  35.143
  1212.0,0.000128,0.000056,0.003095,0.000120,  35.158
  1213.0,0.000131,0.000065,0.003192,0.000098,  35.161
  1214.0,0.000131,0.000067,0.003157,0.000120,  35.169
  1215.0,0.000134,0.000064,0.003094,0.000098,  35.175
  1216.0,0.000129,0.000062,0.003119,0.000085,  35.183
  1217.0,0.000123,0.000058,0.003124,0.000120,  35.181
  1218.0,0.000125,0.000058,0.003123,0.000098,  35.191
  1219.0,0.000124,0.000064,0.003198,0.000085,  35.196
  1220.0,0.000139,0.000061,0.001413,0.000107,  35.198
  1221.0,0.000135,0.000062,0.002640,0.000071,  35.200
  1222.0,0.000129,0.000060,0.002892,0.000107,  35.202
  1223.0,0.000124,0.000065,0.002972,0.000044,  35.203
  1224.0,0.000122,0.000055,0.003013,0.000093,  35.201
  1225.0,0.000105,0.000056,0.002994,0.000129,  35.200
  1226.0,0.000108,0.000051,0.002707,0.000129,  35.202
  1227.0,0.000108,0.000049,0.002778,0.000093,  35.199
  1228.0,0.000104,0.000053,0.002875,0.000137,  35.197
  1229.0,0.000109,0.000038,0.002903,0.000129,  35.188
  1230.0,0.000130,0.000042,0.002796,0.000129,  35.182
  1231.0,0.000124,0.000057,0.002751,0.000142,  35.182
  1232.0,0.000133,0.000058,0.002797,0.000107,  35.177
  1233.0,0.000138,0.000064,0.003120,0.000142,  35.182
  1234.0,0.000134,0.000075,0.002944,0.000169,  35.181
  1235.0,0.000138,0.000071,0.002843,0.000120,  35.185
  1236.0,0.000129,0.000067,0.002925,0.000142,  35.182
  1237.0,0.000122,0.000067,0.002853,0.000142,  35.181
  1238.0,0.000109,0.000064,0.002730,0.000142,  35.177
  1239.0,0.000111,0.000053,0.002732,0.000107,  35.179
  1240.0,0.000104,0.000049,0.002714,0.000071,  35.185
  1241.0,0.000106,0.000040,0.002668,0.000107,  35.182
  1242.0,0.000111,0.000044,0.002561,0.000071,  35.184
  1243.0,0.000111,0.000043,0.002598,0.000071,  35.192
  1244.0,0.000111,0.000031,0.002515,0.000107,  35.193
  1245.0,0.000104,0.000040,0.002542,0.000071,  35.199
  1246.0,0.000109,0.000032,0.002553,0.000071,  35.205
  1247.0,0.000114,0.000041,0.002485,0.000093,  35.221
  1248.0,0.000106,0.000043,0.002488,0.000058,  35.229
  1249.0,0.000117,0.000043,0.002356,0.000093,  35.234
  1250.0,0.000117,0.000047,0.002819,0.000058,  35.236
  1251.0,0.000111,0.000050,0.002652,0.000058,  35.243
  1252.0,0.000102,0.000043,0.002590,0.000093,  35.236
  1253.0,0.000105,0.000049,0.002433,0.000093,  35.240
  1254.0,0.000097,0.000046,0.002492,0.000093,  35.238
  1255.0,0.000091,0.000048,0.002499,0.000129,  35.243
