Run Name,practice run
Run Date,03:21:56 PM   02-27-08
Method Name,0%B-Isocrat
Export Format Version, 1.00
Method ID,  300
Points/Second, 5.00
Number of Records,   1980
Offset from Run Start Time,00:00:00
Run End Time,00:06:35
Time,Second
QuadTec 1, (280.0 nm), AU
QuadTec 2, (260.0 nm), AU
Gradient Pump,<Not Selected>
QuadTec 3, (214.0 nm), AU
QuadTec 4, (405.0 nm), AU
Conductivity,mS/cm
Trace 6,<Not Available>
GP Pressure,<Not Selected>
Volume,<Not Selected>
Fraction,<Not Available>
Time,QuadTec 1,QuadTec 2,QuadTec 3,QuadTec 4,Conductivity
     0.0,0.008969,0.006931,-0.287381,0.000000,   0.750
     0.2,0.009057,0.006931,-0.287381,0.000000,   0.748
     0.4,0.009297,0.006746,-0.287381,0.000000,   0.750
     0.6,0.008414,0.006377,-0.287381,0.000000,   0.752
     0.8,0.000000,0.006377,0.000000,0.000000,   0.751
     1.0,0.000000,0.000000,0.000000,0.000000,   0.749
     1.2,0.000000,0.000000,0.000000,0.000000,   0.752
     1.4,0.000000,0.000000,0.000000,0.000000,   0.759
     1.6,0.000000,0.000000,0.000000,0.000000,   0.759
     1.8,0.000000,0.000000,0.000000,0.000000,   0.760
     2.0,0.000000,0.000000,0.000000,0.000000,   0.759
     2.2,0.000000,0.000000,0.000000,0.000000,   0.759
     2.4,0.000000,0.000000,0.000000,0.000000,   0.756
     2.6,0.000000,0.000000,0.000000,0.000000,   0.765
     2.8,0.000000,0.000000,0.000000,0.000000,   0.765
     3.0,0.000000,0.000000,0.000000,0.000000,   0.766
     3.2,0.000000,0.000000,0.000000,0.000000,   0.765
     3.4,0.000000,0.000000,0.000000,0.000000,   0.768
     3.6,0.000000,0.000000,0.000000,0.000000,   0.769
     3.8,0.000000,0.000000,0.000000,0.000000,   0.770
     4.0,0.000000,0.000000,0.000000,0.000000,   0.771
     4.2,0.000000,0.000000,0.000000,0.000000,   0.771
     4.4,0.000000,0.000000,0.000000,0.000000,   0.775
     4.6,0.000000,-0.000027,0.000000,0.000000,   0.777
     4.8,-0.000039,-0.000024,0.000089,0.000000,   0.773
     5.0,-0.000044,-0.000023,0.000158,0.000034,   0.777
     5.2,-0.000049,-0.000021,0.000219,0.000048,   0.779
     5.4,-0.000056,-0.000023,0.000263,0.000061,   0.783
     5.6,-0.000058,-0.000032,0.000293,0.000074,   0.776
     5.8,-0.000063,-0.000040,0.000309,0.000100,   0.780
     6.0,-0.000070,-0.000047,0.000360,0.000100,   0.784
     6.2,-0.000072,-0.000049,0.000424,0.000113,   0.785
     6.4,-0.000074,-0.000053,0.000502,0.000139,   0.786
     6.6,-0.000079,-0.000056,0.000584,0.000152,   0.785
     6.8,-0.000081,-0.000059,0.000672,0.000165,   0.787
     7.0,-0.000086,-0.000061,0.000770,0.000191,   0.791
     7.2,-0.000088,-0.000064,0.000863,0.000170,   0.790
     7.4,-0.000088,-0.000070,0.000957,0.000196,   0.787
     7.6,-0.000088,-0.000066,0.001051,0.000222,   0.795
     7.8,-0.000091,-0.000067,0.001148,0.000214,   0.796
     8.0,-0.000091,-0.000065,0.001248,0.000262,   0.791
     8.2,-0.000088,-0.000063,0.001354,0.000288,   0.791
     8.4,-0.000088,-0.000063,0.001462,0.000266,   0.800
     8.6,-0.000086,-0.000055,0.001575,0.000314,   0.797
     8.8,-0.000084,-0.000054,0.001696,0.000340,   0.799
     9.0,-0.000081,-0.000048,0.001816,0.000332,   0.799
     9.2,-0.000077,-0.000048,0.001937,0.000345,   0.801
     9.4,-0.000072,-0.000044,0.002060,0.000371,   0.804
     9.6,-0.000070,-0.000039,0.002178,0.000397,   0.806
     9.8,-0.000062,-0.000036,0.002297,0.000423,   0.804
    10.0,-0.000057,-0.000036,0.002422,0.000449,   0.806
    10.2,-0.000060,-0.000031,0.002541,0.000476,   0.808
    10.4,-0.000052,-0.000028,0.002658,0.000502,   0.808
    10.6,-0.000050,-0.000024,0.002775,0.000528,   0.810
    10.8,-0.000047,-0.000020,0.002899,0.000541,   0.812
    11.0,-0.000043,-0.000014,0.003031,0.000567,   0.812
    11.2,-0.000033,-0.000012,0.003164,0.000607,   0.816
    11.4,-0.000026,-0.000007,0.003287,0.000620,   0.814
    11.6,-0.000017,-0.000003,0.003411,0.000633,   0.819
    11.8,-0.000010,0.000002,0.003534,0.000659,   0.823
    12.0,-0.000002,0.000005,0.003661,0.000685,   0.817
    12.2,-0.000002,0.000008,0.003785,0.000711,   0.823
    12.4,-0.000005,0.000019,0.003914,0.000737,   0.825
    12.6,0.000002,0.000027,0.004043,0.000764,   0.824
    12.8,0.000002,0.000025,0.004165,0.000790,   0.822
    13.0,0.000002,0.000025,0.004292,0.000816,   0.824
    13.2,0.000009,0.000021,0.004420,0.000829,   0.827
    13.4,0.000009,0.000019,0.004552,0.000868,   0.826
    13.6,0.000008,0.000023,0.004686,0.000868,   0.828
    13.8,0.000019,0.000026,0.004810,0.000895,   0.828
    14.0,0.000019,0.000026,0.004938,0.000921,   0.836
    14.2,0.000015,0.000033,0.005065,0.000934,   0.837
    14.4,0.000029,0.000035,0.005175,0.000960,   0.837
    14.6,0.000034,0.000037,0.005275,0.000986,   0.842
    14.8,0.000033,0.000043,0.005368,0.001013,   0.841
    15.0,0.000041,0.000044,0.005452,0.001039,   0.840
    15.2,0.000043,0.000044,0.005565,0.001065,   0.841
    15.4,0.000042,0.000040,0.005686,0.001078,   0.840
    15.6,0.000050,0.000035,0.005808,0.001117,   0.847
    15.8,0.000050,0.000034,0.005941,0.001096,   0.841
    16.0,0.000050,0.000034,0.006078,0.001122,   0.849
    16.2,0.000048,0.000035,0.006225,0.001162,   0.849
    16.4,0.000049,0.000036,0.006359,0.001140,   0.851
    16.6,0.000051,0.000041,0.006484,0.001188,   0.854
    16.8,0.000046,0.000046,0.006603,0.001214,   0.850
    17.0,0.000053,0.000048,0.006739,0.001206,   0.853
    17.2,0.000058,0.000049,0.006872,0.001253,   0.860
    17.4,0.000055,0.000050,0.007009,0.001245,   0.857
    17.6,0.000065,0.000052,0.007138,0.001271,   0.858
    17.8,0.000067,0.000053,0.007264,0.001284,   0.863
    18.0,0.000064,0.000059,0.007395,0.001276,   0.863
    18.2,0.000070,0.000065,0.007520,0.001337,   0.864
    18.4,0.000070,0.000063,0.007645,0.001350,   0.866
    18.6,0.000062,0.000064,0.007774,0.001342,   0.867
    18.8,0.000065,0.000063,0.007899,0.001389,   0.866
    19.0,0.000065,0.000059,0.008029,0.001416,   0.868
    19.2,0.000059,0.000060,0.008154,0.001407,   0.872
    19.4,0.000065,0.000064,0.008289,0.001468,   0.871
    19.6,0.000065,0.000065,0.008434,0.001494,   0.874
    19.8,0.000059,0.000064,0.008582,0.001486,   0.874
    20.0,0.000065,0.000069,0.008710,0.001534,   0.876
    20.2,0.000065,0.000065,0.008828,0.001560,   0.879
    20.4,0.000064,0.000065,0.008942,0.001565,   0.878
    20.6,0.000072,0.000061,0.009071,0.001626,   0.882
    20.8,0.000072,0.000061,0.009208,0.001639,   0.879
    21.0,0.000069,0.000060,0.009344,0.001630,   0.880
    21.2,0.000072,0.000064,0.009475,0.001691,   0.882
    21.4,0.000072,0.000069,0.009608,0.001704,   0.890
    21.6,0.000077,0.000071,0.009739,0.001696,   0.889
    21.8,0.000079,0.000076,0.009872,0.001744,   0.893
    22.0,0.000083,0.000077,0.010002,0.001770,   0.892
    22.2,0.000078,0.000083,0.010136,0.001762,   0.891
    22.4,0.000081,0.000085,0.010270,0.001822,   0.890
    22.6,0.000074,0.000087,0.010403,0.001836,   0.896
    22.8,0.000079,0.000090,0.010538,0.001841,   0.900
    23.0,0.000080,0.000094,0.010677,0.001888,   0.899
    23.2,0.000093,0.000096,0.010814,0.001914,   0.900
    23.4,0.000097,0.000095,0.010954,0.001941,   0.904
    23.6,0.000097,0.000101,0.011087,0.001967,   0.904
    23.8,0.000102,0.000104,0.011219,0.001967,   0.904
    24.0,0.000104,0.000104,0.011344,0.001980,   0.905
    24.2,0.000099,0.000111,0.011454,0.001972,   0.910
    24.4,0.000104,0.000109,0.011558,0.002033,   0.908
    24.6,0.000104,0.000107,0.011648,0.002046,   0.913
    24.8,0.000099,0.000100,0.011732,0.002038,   0.915
    25.0,0.000104,0.000100,0.011858,0.002098,   0.915
    25.2,0.000107,0.000104,0.011996,0.002111,   0.914
    25.4,0.000106,0.000107,0.012144,0.002103,   0.914
    25.6,0.000114,0.000106,0.012270,0.002164,   0.920
    25.8,0.000118,0.000104,0.012393,0.002177,   0.918
    26.0,0.000115,0.000102,0.012510,0.002169,   0.921
    26.2,0.000118,0.000098,0.012638,0.002217,   0.926
    26.4,0.000118,0.000102,0.012773,0.002243,   0.928
    26.6,0.000111,0.000100,0.012914,0.002235,   0.927
    26.8,0.000111,0.000104,0.013044,0.002261,   0.928
    27.0,0.000108,0.000098,0.013182,0.002274,   0.932
    27.2,0.000108,0.000108,0.013310,0.002266,   0.930
    27.4,0.000111,0.000106,0.013440,0.002292,   0.933
    27.6,0.000107,0.000109,0.013576,0.002340,   0.933
    27.8,0.000115,0.000113,0.013711,0.002332,   0.939
    28.0,0.000118,0.000114,0.013846,0.002358,   0.937
    28.2,0.000120,0.000110,0.013988,0.002406,   0.940
    28.4,0.000118,0.000112,0.014137,0.002397,   0.939
    28.6,0.000121,0.000111,0.014274,0.002411,   0.942
    28.8,0.000123,0.000107,0.014405,0.002471,   0.942
    29.0,0.000115,0.000107,0.014544,0.002463,   0.947
    29.2,0.000121,0.000103,0.014681,0.002476,   0.949
    29.4,0.000123,0.000103,0.014819,0.002524,   0.949
    29.6,0.000123,0.000110,0.014954,0.002516,   0.950
    29.8,0.000128,0.000118,0.015081,0.002529,   0.954
    30.0,0.000131,0.000115,0.015211,0.002590,   0.955
    30.2,0.000128,0.000115,0.015335,0.002595,   0.956
    30.4,0.000126,0.000114,0.015471,0.002608,   0.956
    30.6,0.000128,0.000110,0.015615,0.002621,   0.959
    30.8,0.000128,0.000114,0.015768,0.002613,   0.961
    31.0,0.000131,0.000118,0.015909,0.002674,   0.959
    31.2,0.000133,0.000116,0.016046,0.002687,   0.963
    31.4,0.000138,0.000120,0.016182,0.002679,   0.961
    31.6,0.000137,0.000128,0.016314,0.002739,   0.966
    31.8,0.000147,0.000134,0.016449,0.002753,   0.967
    32.0,0.000146,0.000133,0.016580,0.002744,   0.965
    32.2,0.000154,0.000141,0.016717,0.002805,   0.969
    32.4,0.000164,0.000145,0.016855,0.002818,   0.971
    32.6,0.000169,0.000150,0.017002,0.002810,   0.972
    32.8,0.000168,0.000157,0.017147,0.002858,   0.970
    33.0,0.000176,0.000156,0.017287,0.002884,   0.976
    33.2,0.000178,0.000156,0.017429,0.002897,   0.978
    33.4,0.000176,0.000157,0.017569,0.002889,   0.980
    33.6,0.000179,0.000158,0.017706,0.002937,   0.975
    33.8,0.000181,0.000155,0.017839,0.002950,   0.983
    34.0,0.000179,0.000159,0.017978,0.002942,   0.981
    34.2,0.000176,0.000157,0.018121,0.002990,   0.983
    34.4,0.000181,0.000155,0.018270,0.003016,   0.988
    34.6,0.000183,0.000158,0.018386,0.003008,   0.989
    34.8,0.000186,0.000155,0.018490,0.003069,   0.990
    35.0,0.000186,0.000153,0.018582,0.003082,   0.991
    35.2,0.000183,0.000155,0.018659,0.003074,   0.994
    35.4,0.000179,0.000155,0.018782,0.003121,   0.993
    35.6,0.000181,0.000160,0.018919,0.003148,   0.996
    35.8,0.000183,0.000167,0.019061,0.003153,   0.995
    36.0,0.000190,0.000167,0.019195,0.003200,   0.996
    36.2,0.000193,0.000166,0.019341,0.003213,   0.998
    36.4,0.000195,0.000166,0.019483,0.003205,   0.998
    36.6,0.000193,0.000166,0.019622,0.003253,   1.002
    36.8,0.000195,0.000172,0.019765,0.003266,   0.999
    37.0,0.000199,0.000183,0.019910,0.003258,   1.004
    37.2,0.000202,0.000188,0.020049,0.003306,   1.006
    37.4,0.000206,0.000187,0.020189,0.003332,   1.009
    37.6,0.000209,0.000196,0.020329,0.003324,   1.010
    37.8,0.000211,0.000196,0.020474,0.003372,   1.011
    38.0,0.000213,0.000201,0.020626,0.003385,   1.013
    38.2,0.000216,0.000207,0.020778,0.003377,   1.011
    38.4,0.000213,0.000209,0.020918,0.003424,   1.016
    38.6,0.000216,0.000212,0.021048,0.003451,   1.020
    38.8,0.000220,0.000210,0.021176,0.003442,   1.012
    39.0,0.000223,0.000216,0.021313,0.003503,   1.018
    39.2,0.000227,0.000219,0.021454,0.003516,   1.019
    39.4,0.000230,0.000222,0.021597,0.003508,   1.022
    39.6,0.000232,0.000223,0.021737,0.003556,   1.018
    39.8,0.000237,0.000224,0.021881,0.003569,   1.022
    40.0,0.000239,0.000224,0.022023,0.003561,   1.027
    40.2,0.000239,0.000225,0.022160,0.003622,   1.023
    40.4,0.000241,0.000223,0.022291,0.003635,   1.031
    40.6,0.000241,0.000219,0.022429,0.003614,   1.034
    40.8,0.000239,0.000225,0.022560,0.003648,   1.033
    41.0,0.000239,0.000225,0.022691,0.003648,   1.032
    41.2,0.000234,0.000223,0.022823,0.003640,   1.035
    41.4,0.000234,0.000223,0.022965,0.003667,   1.039
    41.6,0.000231,0.000221,0.023107,0.003693,   1.035
    41.8,0.000229,0.000216,0.023252,0.003685,   1.041
    42.0,0.000224,0.000209,0.023390,0.003711,   1.042
    42.2,0.000225,0.000204,0.023521,0.003759,   1.043
    42.4,0.000223,0.000204,0.023644,0.003738,   1.042
    42.6,0.000217,0.000200,0.023780,0.003764,   1.045
    42.8,0.000220,0.000198,0.023915,0.003812,   1.045
    43.0,0.000220,0.000200,0.024054,0.003825,   1.051
    43.2,0.000214,0.000199,0.024185,0.003804,   1.050
    43.4,0.000220,0.000199,0.024311,0.003817,   1.051
    43.6,0.000222,0.000197,0.024433,0.003865,   1.054
    43.8,0.000219,0.000199,0.024566,0.003856,   1.054
    44.0,0.000224,0.000199,0.024704,0.003870,   1.058
    44.2,0.000224,0.000194,0.024846,0.003931,   1.057
    44.4,0.000219,0.000189,0.024961,0.003922,   1.062
    44.6,0.000220,0.000187,0.025067,0.003949,   1.065
    44.8,0.000217,0.000185,0.025158,0.003996,   1.066
    45.0,0.000215,0.000182,0.025238,0.003975,   1.060
    45.2,0.000220,0.000182,0.025360,0.004002,   1.068
    45.4,0.000223,0.000176,0.025493,0.004049,   1.068
    45.6,0.000220,0.000178,0.025637,0.004041,   1.067
    45.8,0.000220,0.000178,0.025771,0.004068,   1.071
    46.0,0.000228,0.000171,0.025907,0.004102,   1.067
    46.2,0.000223,0.000171,0.026051,0.004094,   1.074
    46.4,0.000221,0.000167,0.026192,0.004107,   1.075
    46.6,0.000227,0.000167,0.026332,0.004155,   1.075
    46.8,0.000224,0.000167,0.026474,0.004147,   1.075
    47.0,0.000217,0.000166,0.026611,0.004160,   1.081
    47.2,0.000211,0.000166,0.026740,0.004173,   1.079
    47.4,0.000211,0.000168,0.026861,0.004200,   1.082
    47.6,0.000211,0.000170,0.027001,0.004200,   1.084
    47.8,0.000211,0.000172,0.027147,0.004213,   1.082
    48.0,0.000213,0.000173,0.027295,0.004239,   1.085
    48.2,0.000219,0.000173,0.027423,0.004252,   1.080
    48.4,0.000224,0.000176,0.027552,0.004266,   1.089
    48.6,0.000227,0.000174,0.027675,0.004292,   1.093
    48.8,0.000219,0.000176,0.027807,0.004305,   1.092
    49.0,0.000221,0.000178,0.027940,0.004332,   1.094
    49.2,0.000221,0.000176,0.028082,0.004358,   1.096
    49.4,0.000221,0.000180,0.028222,0.004371,   1.100
    49.6,0.000223,0.000179,0.028373,0.004385,   1.096
    49.8,0.000221,0.000179,0.028524,0.004398,   1.096
    50.0,0.000221,0.000179,0.028668,0.004411,   1.101
    50.2,0.000223,0.000181,0.028816,0.004437,   1.099
    50.4,0.000226,0.000184,0.028959,0.004464,   1.099
    50.6,0.000230,0.000188,0.029100,0.004477,   1.106
    50.8,0.000235,0.000190,0.029239,0.004504,   1.105
    51.0,0.000237,0.000190,0.029372,0.004530,   1.109
    51.2,0.000242,0.000194,0.029514,0.004543,   1.116
    51.4,0.000242,0.000197,0.029657,0.004556,   1.110
    51.6,0.000247,0.000200,0.029802,0.004570,   1.111
    51.8,0.000249,0.000206,0.029943,0.004596,   1.107
    52.0,0.000259,0.000208,0.030082,0.004609,   1.113
    52.2,0.000256,0.000206,0.030219,0.004614,   1.113
    52.4,0.000261,0.000209,0.030353,0.004641,   1.117
    52.6,0.000266,0.000208,0.030485,0.004654,   1.112
    52.8,0.000263,0.000208,0.030617,0.004633,   1.113
    53.0,0.000268,0.000215,0.030755,0.004659,   1.119
    53.2,0.000275,0.000218,0.030898,0.004672,   1.115
    53.4,0.000275,0.000216,0.031041,0.004720,   1.115
    53.6,0.000275,0.000221,0.031161,0.004768,   1.115
    53.8,0.000280,0.000224,0.031266,0.004794,   1.115
    54.0,0.000277,0.000222,0.031370,0.004808,   1.115
    54.2,0.000279,0.000229,0.031459,0.004868,   1.119
    54.4,0.000277,0.000241,0.031614,0.004882,   1.118
    54.6,0.000279,0.000259,0.031788,0.004860,   1.114
    54.8,0.000286,0.000280,0.031986,0.004874,   1.116
    55.0,0.000293,0.000297,0.032128,0.004874,   1.112
    55.2,0.000302,0.000317,0.032251,0.004887,   1.115
    55.4,0.000314,0.000336,0.032359,0.004879,   1.121
    55.6,0.000328,0.000349,0.032451,0.004879,   1.123
    55.8,0.000344,0.000366,0.032523,0.004892,   1.118
    56.0,0.000356,0.000384,0.032577,0.004884,   1.120
    56.2,0.000367,0.000394,0.032623,0.004897,   1.126
    56.4,0.000381,0.000407,0.032664,0.004945,   1.130
    56.6,0.000391,0.000421,0.032692,0.004958,   1.128
    56.8,0.000405,0.000432,0.032727,0.004972,   1.127
    57.0,0.000414,0.000436,0.032763,0.004985,   1.130
    57.2,0.000438,0.000443,0.032798,0.005024,   1.133
    57.4,0.000460,0.000450,0.032808,0.005064,   1.134
    57.6,0.000422,0.000428,0.032812,0.005117,   1.135
    57.8,0.000369,0.000401,0.032805,0.005104,   1.138
    58.0,0.000285,0.000359,0.032765,0.005051,   1.138
    58.2,0.000250,0.000320,0.032708,0.004972,   1.141
    58.4,0.000231,0.000281,0.032634,0.004972,   1.141
    58.6,0.000227,0.000242,0.032643,0.004958,   1.143
    58.8,0.000217,0.000224,0.032681,0.004972,   1.137
    59.0,0.000224,0.000213,0.032760,0.004985,   1.144
    59.2,0.000239,0.000213,0.032843,0.004985,   1.149
    59.4,0.000241,0.000209,0.032938,0.004998,   1.147
    59.6,0.000251,0.000209,0.033056,0.005011,   1.151
    59.8,0.000255,0.000210,0.033180,0.005024,   1.149
    60.0,0.000259,0.000212,0.033309,0.005038,   1.145
    60.2,0.000269,0.000212,0.033447,0.005064,   1.151
    60.4,0.000274,0.000214,0.033606,0.005091,   1.151
    60.6,0.000293,0.000229,0.033776,0.005104,   1.157
    60.8,0.000306,0.000255,0.033954,0.005144,   1.162
    61.0,0.000333,0.000294,0.034133,0.005170,   1.160
    61.2,0.000356,0.000316,0.034324,0.005196,   1.158
    61.4,0.000369,0.000334,0.034522,0.005236,   1.162
    61.6,0.000383,0.000358,0.034680,0.005263,   1.165
    61.8,0.000397,0.000365,0.034833,0.005263,   1.167
    62.0,0.000398,0.000361,0.034972,0.005276,   1.168
    62.2,0.000404,0.000355,0.035097,0.005302,   1.165
    62.4,0.000399,0.000355,0.035217,0.005289,   1.165
    62.6,0.000394,0.000349,0.035318,0.005302,   1.167
    62.8,0.000397,0.000342,0.035443,0.005316,   1.168
    63.0,0.000395,0.000335,0.035574,0.005342,   1.168
    63.2,0.000387,0.000333,0.035706,0.005342,   1.169
    63.4,0.000388,0.000322,0.035814,0.005355,   1.178
    63.6,0.000381,0.000315,0.035906,0.005369,   1.177
    63.8,0.000371,0.000312,0.035995,0.005382,   1.177
    64.0,0.000369,0.000308,0.036063,0.005408,   1.183
    64.2,0.000360,0.000306,0.036180,0.005422,   1.182
    64.4,0.000354,0.000306,0.036310,0.005422,   1.180
    64.6,0.000360,0.000309,0.036446,0.005435,   1.180
    64.8,0.000360,0.000304,0.036566,0.005448,   1.185
    65.0,0.000357,0.000306,0.036690,0.005461,   1.182
    65.2,0.000357,0.000303,0.036812,0.005488,   1.185
    65.4,0.000354,0.000299,0.036946,0.005467,   1.188
    65.6,0.000351,0.000299,0.037082,0.005467,   1.191
    65.8,0.000354,0.000304,0.037227,0.005493,   1.193
    66.0,0.000359,0.000306,0.037361,0.005485,   1.193
    66.2,0.000356,0.000302,0.037485,0.005533,   1.195
    66.4,0.000356,0.000307,0.037613,0.005546,   1.192
    66.6,0.000361,0.000312,0.037741,0.005512,   1.198
    66.8,0.000358,0.000313,0.037867,0.005559,   1.201
    67.0,0.000358,0.000317,0.037992,0.005573,   1.199
    67.2,0.000364,0.000318,0.038117,0.005565,   1.196
    67.4,0.000363,0.000318,0.038249,0.005612,   1.200
    67.6,0.000373,0.000315,0.038375,0.005639,   1.200
    67.8,0.000381,0.000316,0.038516,0.005631,   1.202
    68.0,0.000378,0.000315,0.038662,0.005631,   1.203
    68.2,0.000383,0.000315,0.038814,0.005657,   1.208
    68.4,0.000383,0.000322,0.038953,0.005671,   1.213
    68.6,0.000380,0.000323,0.039081,0.005671,   1.213
    68.8,0.000385,0.000324,0.039214,0.005697,   1.208
    69.0,0.000391,0.000326,0.039346,0.005724,   1.213
    69.2,0.000392,0.000326,0.039475,0.005724,   1.215
    69.4,0.000395,0.000333,0.039606,0.005750,   1.217
    69.6,0.000405,0.000341,0.039744,0.005763,   1.216
    69.8,0.000407,0.000344,0.039890,0.005777,   1.223
    70.0,0.000404,0.000346,0.040041,0.005803,   1.218
    70.2,0.000401,0.000353,0.040185,0.005816,   1.219
    70.4,0.000405,0.000353,0.040330,0.005830,   1.218
    70.6,0.000412,0.000356,0.040480,0.005843,   1.224
    70.8,0.000419,0.000358,0.040619,0.005856,   1.230
    71.0,0.000431,0.000360,0.040759,0.005869,   1.228
    71.2,0.000430,0.000358,0.040892,0.005896,   1.224
    71.4,0.000436,0.000362,0.041025,0.005909,   1.233
    71.6,0.000433,0.000362,0.041167,0.005923,   1.230
    71.8,0.000430,0.000353,0.041301,0.005949,   1.232
    72.0,0.000430,0.000352,0.041432,0.005962,   1.237
    72.2,0.000428,0.000352,0.041564,0.005962,   1.233
    72.4,0.000425,0.000353,0.041693,0.005976,   1.231
    72.6,0.000425,0.000359,0.041831,0.005954,   1.237
    72.8,0.000428,0.000357,0.041973,0.006002,   1.236
    73.0,0.000422,0.000359,0.042116,0.006002,   1.236
    73.2,0.000422,0.000358,0.042236,0.006015,   1.243
    73.4,0.000423,0.000354,0.042346,0.006029,   1.242
    73.6,0.000418,0.000355,0.042444,0.006055,   1.242
    73.8,0.000420,0.000351,0.042553,0.006082,   1.244
    74.0,0.000423,0.000351,0.042659,0.006108,   1.245
    74.2,0.000420,0.000354,0.042764,0.006108,   1.246
    74.4,0.000425,0.000359,0.042871,0.006135,   1.251
    74.6,0.000435,0.000357,0.043003,0.006148,   1.253
    74.8,0.000429,0.000361,0.043142,0.006161,   1.249
    75.0,0.000429,0.000361,0.043289,0.006188,   1.253
    75.2,0.000432,0.000357,0.043420,0.006201,   1.255
    75.4,0.000429,0.000364,0.043550,0.006201,   1.258
    75.6,0.000427,0.000365,0.043674,0.006214,   1.254
    75.8,0.000430,0.000361,0.043801,0.006228,   1.255
    76.0,0.000427,0.000364,0.043938,0.006241,   1.258
    76.2,0.000425,0.000364,0.044076,0.006254,   1.260
    76.4,0.000430,0.000362,0.044208,0.006281,   1.263
    76.6,0.000429,0.000362,0.044346,0.006294,   1.263
    76.8,0.000432,0.000362,0.044479,0.006321,   1.269
    77.0,0.000439,0.000363,0.044618,0.006334,   1.261
    77.2,0.000436,0.000361,0.044758,0.006334,   1.266
    77.4,0.000439,0.000361,0.044901,0.006360,   1.268
    77.6,0.000442,0.000363,0.045033,0.006360,   1.269
    77.8,0.000439,0.000365,0.045164,0.006374,   1.263
    78.0,0.000439,0.000365,0.045293,0.006387,   1.274
    78.2,0.000446,0.000367,0.045429,0.006379,   1.275
    78.4,0.000443,0.000361,0.045574,0.006379,   1.277
    78.6,0.000441,0.000369,0.045732,0.006392,   1.276
    78.8,0.000446,0.000377,0.045871,0.006371,   1.274
    79.0,0.000443,0.000375,0.045998,0.006406,   1.272
    79.2,0.000443,0.000376,0.046129,0.006432,   1.278
    79.4,0.000451,0.000378,0.046266,0.006411,   1.275
    79.6,0.000448,0.000381,0.046407,0.006459,   1.282
    79.8,0.000448,0.000383,0.046551,0.006472,   1.281
    80.0,0.000456,0.000389,0.046692,0.006464,   1.284
    80.2,0.000456,0.000389,0.046832,0.006499,   1.284
    80.4,0.000453,0.000384,0.046972,0.006512,   1.289
    80.6,0.000450,0.000384,0.047108,0.006504,   1.289
    80.8,0.000456,0.000382,0.047238,0.006552,   1.289
    81.0,0.000458,0.000380,0.047361,0.006578,   1.291
    81.2,0.000463,0.000381,0.047500,0.006557,   1.292
    81.4,0.000467,0.000381,0.047644,0.006591,   1.293
    81.6,0.000467,0.000382,0.047788,0.006618,   1.295
    81.8,0.000470,0.000387,0.047924,0.006597,   1.297
    82.0,0.000473,0.000389,0.048059,0.006631,   1.299
    82.2,0.000470,0.000395,0.048197,0.006645,   1.299
    82.4,0.000477,0.000403,0.048337,0.006623,   1.299
    82.6,0.000480,0.000402,0.048479,0.006658,   1.302
    82.8,0.000484,0.000404,0.048619,0.006671,   1.303
    83.0,0.000487,0.000406,0.048760,0.006698,   1.303
    83.2,0.000492,0.000404,0.048904,0.006711,   1.303
    83.4,0.000489,0.000408,0.049050,0.006711,   1.305
    83.6,0.000491,0.000410,0.049164,0.006738,   1.305
    83.8,0.000489,0.000408,0.049269,0.006716,   1.307
    84.0,0.000489,0.000409,0.049360,0.006751,   1.307
    84.2,0.000491,0.000411,0.049440,0.006764,   1.307
    84.4,0.000497,0.000406,0.049543,0.006743,   1.311
    84.6,0.000499,0.000408,0.049654,0.006804,   1.315
    84.8,0.000494,0.000407,0.049768,0.006817,   1.307
    85.0,0.000499,0.000406,0.049901,0.006796,   1.316
    85.2,0.000501,0.000413,0.050049,0.006844,   1.315
    85.4,0.000498,0.000417,0.050208,0.006871,   1.318
    85.6,0.000508,0.000413,0.050338,0.006849,   1.320
    85.8,0.000508,0.000412,0.050468,0.006884,   1.323
    86.0,0.000503,0.000410,0.050589,0.006897,   1.320
    86.2,0.000508,0.000410,0.050726,0.006876,   1.326
    86.4,0.000508,0.000407,0.050870,0.006924,   1.327
    86.6,0.000503,0.000407,0.051020,0.006937,   1.330
    86.8,0.000508,0.000406,0.051154,0.006916,   1.331
    87.0,0.000511,0.000407,0.051294,0.006964,   1.331
    87.2,0.000510,0.000412,0.051422,0.006990,   1.330
    87.4,0.000518,0.000421,0.051554,0.006956,   1.333
    87.6,0.000520,0.000419,0.051685,0.006990,   1.325
    87.8,0.000517,0.000422,0.051819,0.007003,   1.333
    88.0,0.000518,0.000422,0.051959,0.006982,   1.332
    88.2,0.000518,0.000426,0.052105,0.007030,   1.334
    88.4,0.000515,0.000427,0.052257,0.007057,   1.337
    88.6,0.000518,0.000431,0.052400,0.007035,   1.334
    88.8,0.000522,0.000435,0.052541,0.007083,   1.336
    89.0,0.000522,0.000438,0.052681,0.007075,   1.340
    89.2,0.000532,0.000439,0.052819,0.007089,   1.339
    89.4,0.000534,0.000441,0.052952,0.007089,   1.343
    89.6,0.000531,0.000441,0.053085,0.007067,   1.346
    89.8,0.000536,0.000447,0.053225,0.007115,   1.342
    90.0,0.000536,0.000447,0.053371,0.007129,   1.345
    90.2,0.000541,0.000449,0.053515,0.007107,   1.345
    90.4,0.000535,0.000447,0.053652,0.007155,   1.350
    90.6,0.000541,0.000444,0.053785,0.007168,   1.347
    90.8,0.000545,0.000447,0.053919,0.007161,   1.349
    91.0,0.000550,0.000447,0.054058,0.007208,   1.350
    91.2,0.000555,0.000445,0.054210,0.007208,   1.354
    91.4,0.000557,0.000454,0.054367,0.007187,   1.352
    91.6,0.000556,0.000461,0.054513,0.007235,   1.357
    91.8,0.000559,0.000461,0.054652,0.007248,   1.358
    92.0,0.000562,0.000466,0.054788,0.007262,   1.359
    92.2,0.000559,0.000470,0.054923,0.007240,   1.357
    92.4,0.000564,0.000471,0.055053,0.007254,   1.361
    92.6,0.000566,0.000474,0.055175,0.007288,   1.364
    92.8,0.000561,0.000472,0.055315,0.007267,   1.360
    93.0,0.000564,0.000474,0.055461,0.007315,   1.365
    93.2,0.000566,0.000475,0.055617,0.007328,   1.363
    93.4,0.000566,0.000474,0.055738,0.007307,   1.363
    93.6,0.000569,0.000474,0.055845,0.007355,   1.362
    93.8,0.000572,0.000474,0.055940,0.007368,   1.368
    94.0,0.000572,0.000478,0.056024,0.007347,   1.366
    94.2,0.000569,0.000475,0.056160,0.007381,   1.364
    94.4,0.000572,0.000475,0.056308,0.007381,   1.366
    94.6,0.000574,0.000477,0.056476,0.007373,   1.372
    94.8,0.000576,0.000477,0.056617,0.007387,   1.374
    95.0,0.000579,0.000479,0.056745,0.007400,   1.371
    95.2,0.000581,0.000481,0.056875,0.007379,   1.376
    95.4,0.000581,0.000477,0.057019,0.007379,   1.377
    95.6,0.000586,0.000484,0.057167,0.007427,   1.382
    95.8,0.000588,0.000487,0.057326,0.007419,   1.378
    96.0,0.000588,0.000489,0.057468,0.007419,   1.382
    96.2,0.000590,0.000490,0.057618,0.007467,   1.379
    96.4,0.000593,0.000491,0.057765,0.007445,   1.379
    96.6,0.000597,0.000491,0.057917,0.007459,   1.379
    96.8,0.000600,0.000492,0.058073,0.007493,   1.382
    97.0,0.000602,0.000496,0.058235,0.007472,   1.387
    97.2,0.000610,0.000503,0.058380,0.007485,   1.388
    97.4,0.000614,0.000504,0.058516,0.007533,   1.386
    97.6,0.000609,0.000509,0.058648,0.007525,   1.383
    97.8,0.000614,0.000514,0.058792,0.007539,   1.390
    98.0,0.000619,0.000515,0.058944,0.007586,   1.386
    98.2,0.000616,0.000514,0.059096,0.007565,   1.392
    98.4,0.000626,0.000516,0.059251,0.007592,   1.391
    98.6,0.000631,0.000518,0.059409,0.007626,   1.392
    98.8,0.000630,0.000521,0.059573,0.007605,   1.392
    99.0,0.000638,0.000523,0.059727,0.007619,   1.392
    99.2,0.000642,0.000524,0.059880,0.007653,   1.396
    99.4,0.000642,0.000524,0.060028,0.007632,   1.397
    99.6,0.000652,0.000532,0.060184,0.007632,   1.399
    99.8,0.000654,0.000537,0.060351,0.007666,   1.397
   100.0,0.000651,0.000539,0.060520,0.007659,   1.401
   100.2,0.000656,0.000542,0.060682,0.007659,   1.397
   100.4,0.000656,0.000544,0.060845,0.007706,   1.400
   100.6,0.000653,0.000545,0.061009,0.007699,   1.403
   100.8,0.000659,0.000551,0.061172,0.007712,   1.406
   101.0,0.000659,0.000548,0.061341,0.007760,   1.404
   101.2,0.000663,0.000551,0.061512,0.007738,   1.405
   101.4,0.000660,0.000558,0.061675,0.007752,   1.406
   101.6,0.000662,0.000561,0.061831,0.007800,   1.401
   101.8,0.000667,0.000562,0.061988,0.007813,   1.412
   102.0,0.000674,0.000577,0.062152,0.007826,   1.408
   102.2,0.000681,0.000580,0.062325,0.007826,   1.409
   102.4,0.000686,0.000582,0.062496,0.007826,   1.408
   102.6,0.000690,0.000586,0.062660,0.007840,   1.413
   102.8,0.000695,0.000591,0.062830,0.007853,   1.412
   103.0,0.000700,0.000589,0.062999,0.007832,   1.410
   103.2,0.000700,0.000592,0.063145,0.007811,   1.413
   103.4,0.000695,0.000599,0.063278,0.007858,   1.419
   103.6,0.000702,0.000602,0.063406,0.007858,   1.416
   103.8,0.000709,0.000614,0.063518,0.007837,   1.419
   104.0,0.000718,0.000619,0.063634,0.007885,   1.422
   104.2,0.000723,0.000621,0.063751,0.007898,   1.421
   104.4,0.000721,0.000624,0.063863,0.007877,   1.419
   104.6,0.000718,0.000629,0.064036,0.007925,   1.423
   104.8,0.000721,0.000627,0.064237,0.007938,   1.422
   105.0,0.000718,0.000625,0.064470,0.007930,   1.419
   105.2,0.000718,0.000626,0.064659,0.007965,   1.422
   105.4,0.000721,0.000623,0.064841,0.007965,   1.425
   105.6,0.000718,0.000622,0.065021,0.007944,   1.430
   105.8,0.000718,0.000617,0.065198,0.007978,   1.427
   106.0,0.000721,0.000617,0.065379,0.007992,   1.424
   106.2,0.000716,0.000614,0.065558,0.007970,   1.419
   106.4,0.000714,0.000616,0.065727,0.008005,   1.427
   106.6,0.000714,0.000610,0.065892,0.008018,   1.429
   106.8,0.000711,0.000608,0.066052,0.007997,   1.433
   107.0,0.000707,0.000607,0.066222,0.008032,   1.434
   107.2,0.000704,0.000601,0.066394,0.008032,   1.428
   107.4,0.000704,0.000598,0.066565,0.008010,   1.433
   107.6,0.000700,0.000596,0.066727,0.008058,   1.435
   107.8,0.000700,0.000594,0.066884,0.008045,   1.435
   108.0,0.000695,0.000589,0.067036,0.008024,   1.434
   108.2,0.000693,0.000586,0.067207,0.008072,   1.439
   108.4,0.000693,0.000588,0.067385,0.008085,   1.438
   108.6,0.000693,0.000586,0.067578,0.008064,   1.437
   108.8,0.000690,0.000581,0.067734,0.008098,   1.441
   109.0,0.000688,0.000579,0.067873,0.008112,   1.436
   109.2,0.000686,0.000579,0.067998,0.008090,   1.437
   109.4,0.000681,0.000585,0.068169,0.008125,   1.437
   109.6,0.000681,0.000582,0.068360,0.008138,   1.441
   109.8,0.000679,0.000573,0.068562,0.008117,   1.442
   110.0,0.000686,0.000570,0.068725,0.008165,   1.443
   110.2,0.000684,0.000568,0.068876,0.008178,   1.443
   110.4,0.000679,0.000564,0.069020,0.008157,   1.446
   110.6,0.000684,0.000570,0.069168,0.008192,   1.440
   110.8,0.000684,0.000568,0.069306,0.008178,   1.446
   111.0,0.000686,0.000564,0.069443,0.008157,   1.446
   111.2,0.000681,0.000564,0.069638,0.008205,   1.444
   111.4,0.000684,0.000563,0.069865,0.008218,   1.446
   111.6,0.000686,0.000563,0.070113,0.008197,   1.449
   111.8,0.000679,0.000563,0.070321,0.008245,   1.450
   112.0,0.000682,0.000565,0.070528,0.008245,   1.452
   112.2,0.000686,0.000564,0.070730,0.008258,   1.453
   112.4,0.000681,0.000564,0.070926,0.008272,   1.456
   112.6,0.000689,0.000564,0.071120,0.008251,   1.455
   112.8,0.000691,0.000568,0.071310,0.008285,   1.453
   113.0,0.000696,0.000567,0.071473,0.008298,   1.452
   113.2,0.000701,0.000571,0.071617,0.008264,   1.452
   113.4,0.000701,0.000574,0.071748,0.008277,   1.458
   113.6,0.000698,0.000576,0.071865,0.008256,   1.454
   113.8,0.000696,0.000576,0.072029,0.008269,   1.458
   114.0,0.000698,0.000576,0.072204,0.008317,   1.459
   114.2,0.000695,0.000576,0.072388,0.008296,   1.456
   114.4,0.000703,0.000578,0.072561,0.008296,   1.458
   114.6,0.000707,0.000579,0.072737,0.008344,   1.462
   114.8,0.000704,0.000579,0.072916,0.008323,   1.460
   115.0,0.000712,0.000583,0.073104,0.008336,   1.457
   115.2,0.000714,0.000588,0.073299,0.008384,   1.462
   115.4,0.000711,0.000591,0.073501,0.008376,   1.464
   115.6,0.000714,0.000595,0.073686,0.008389,   1.462
   115.8,0.000717,0.000598,0.073870,0.008424,   1.462
   116.0,0.000711,0.000598,0.074053,0.008403,   1.465
   116.2,0.000719,0.000601,0.074210,0.008416,   1.468
   116.4,0.000724,0.000604,0.074352,0.008464,   1.465
   116.6,0.000721,0.000601,0.074487,0.008443,   1.463
   116.8,0.000731,0.000606,0.074663,0.008456,   1.469
   117.0,0.000735,0.000609,0.074848,0.008491,   1.466
   117.2,0.000734,0.000611,0.075049,0.008483,   1.469
   117.4,0.000742,0.000612,0.075237,0.008510,   1.468
   117.6,0.000745,0.000615,0.075419,0.008544,   1.471
   117.8,0.000747,0.000620,0.075604,0.008523,   1.469
   118.0,0.000752,0.000629,0.075793,0.008536,   1.470
   118.2,0.000759,0.000631,0.075985,0.008571,   1.468
   118.4,0.000762,0.000632,0.076180,0.008563,   1.470
   118.6,0.000766,0.000629,0.076347,0.008563,   1.476
   118.8,0.000771,0.000627,0.076513,0.008597,   1.476
   119.0,0.000773,0.000632,0.076664,0.008576,   1.474
   119.2,0.000773,0.000633,0.076835,0.008603,   1.469
   119.4,0.000780,0.000635,0.077016,0.008637,   1.475
   119.6,0.000782,0.000638,0.077200,0.008616,   1.477
   119.8,0.000787,0.000644,0.077372,0.008643,   1.475
   120.0,0.000789,0.000647,0.077543,0.008691,   1.476
   120.2,0.000789,0.000649,0.077711,0.008683,   1.481
   120.4,0.000794,0.000655,0.077892,0.008696,   1.480
   120.6,0.000791,0.000660,0.078081,0.008731,   1.478
   120.8,0.000793,0.000658,0.078274,0.008723,   1.480
   121.0,0.000796,0.000664,0.078443,0.008737,   1.483
   121.2,0.000803,0.000667,0.078608,0.008771,   1.482
   121.4,0.000808,0.000667,0.078763,0.008750,   1.482
   121.6,0.000803,0.000666,0.078926,0.008763,   1.485
   121.8,0.000803,0.000668,0.079089,0.008811,   1.484
   122.0,0.000807,0.000679,0.079253,0.008811,   1.485
   122.2,0.000804,0.000684,0.079418,0.008838,   1.485
   122.4,0.000814,0.000688,0.079578,0.008838,   1.487
   122.6,0.000817,0.000690,0.079739,0.008851,   1.486
   122.8,0.000814,0.000693,0.079872,0.008830,   1.486
   123.0,0.000819,0.000693,0.079990,0.008843,   1.484
   123.2,0.000819,0.000688,0.080094,0.008843,   1.488
   123.4,0.000814,0.000687,0.080185,0.008857,   1.490
   123.6,0.000819,0.000687,0.080331,0.008883,   1.491
   123.8,0.000824,0.000686,0.080491,0.008897,   1.492
   124.0,0.000824,0.000690,0.080662,0.008924,   1.495
   124.2,0.000830,0.000688,0.080813,0.008924,   1.494
   124.4,0.000832,0.000687,0.080967,0.008924,   1.492
   124.6,0.000837,0.000689,0.081114,0.008937,   1.495
   124.8,0.000836,0.000693,0.081267,0.008950,   1.492
   125.0,0.000838,0.000690,0.081433,0.008950,   1.496
   125.2,0.000838,0.000698,0.081602,0.008964,   1.494
   125.4,0.000841,0.000704,0.081746,0.008964,   1.499
   125.6,0.000849,0.000701,0.081881,0.008977,   1.498
   125.8,0.000849,0.000707,0.082011,0.008990,   1.497
   126.0,0.000844,0.000707,0.082146,0.009004,   1.498
   126.2,0.000848,0.000706,0.082284,0.009017,   1.499
   126.4,0.000851,0.000713,0.082419,0.009044,   1.502
   126.6,0.000855,0.000721,0.082566,0.009057,   1.504
   126.8,0.000855,0.000719,0.082719,0.009057,   1.499
   127.0,0.000855,0.000723,0.082884,0.009084,   1.502
   127.2,0.000855,0.000725,0.083037,0.009097,   1.505
   127.4,0.000854,0.000729,0.083183,0.009097,   1.505
   127.6,0.000856,0.000732,0.083332,0.009111,   1.510
   127.8,0.000866,0.000739,0.083476,0.009124,   1.507
   128.0,0.000868,0.000743,0.083613,0.009137,   1.511
   128.2,0.000871,0.000741,0.083741,0.009164,   1.511
   128.4,0.000868,0.000745,0.083873,0.009177,   1.511
   128.6,0.000871,0.000744,0.084009,0.009177,   1.510
   128.8,0.000876,0.000749,0.084145,0.009156,   1.512
   129.0,0.000880,0.000754,0.084279,0.009183,   1.516
   129.2,0.000882,0.000758,0.084416,0.009170,   1.517
   129.4,0.000885,0.000762,0.084559,0.009149,   1.519
   129.6,0.000889,0.000762,0.084688,0.009162,   1.516
   129.8,0.000892,0.000768,0.084816,0.009196,   1.516
   130.0,0.000894,0.000771,0.084944,0.009210,   1.519
   130.2,0.000899,0.000774,0.085073,0.009223,   1.520
   130.4,0.000897,0.000775,0.085203,0.009223,   1.525
   130.6,0.000905,0.000776,0.085334,0.009250,   1.521
   130.8,0.000907,0.000771,0.085471,0.009263,   1.527
   131.0,0.000904,0.000769,0.085608,0.009263,   1.525
   131.2,0.000903,0.000774,0.085746,0.009290,   1.527
   131.4,0.000903,0.000777,0.085877,0.009303,   1.526
   131.6,0.000903,0.000776,0.086004,0.009303,   1.526
   131.8,0.000906,0.000780,0.086122,0.009303,   1.525
   132.0,0.000908,0.000778,0.086253,0.009296,   1.529
   132.2,0.000913,0.000781,0.086377,0.009330,   1.529
   132.4,0.000921,0.000783,0.086504,0.009344,   1.538
   132.6,0.000923,0.000790,0.086614,0.009322,   1.536
   132.8,0.000926,0.000790,0.086713,0.009370,   1.537
   133.0,0.000923,0.000794,0.086803,0.009370,   1.536
   133.2,0.000923,0.000794,0.086883,0.009384,   1.536
   133.4,0.000926,0.000794,0.086984,0.009397,   1.539
   133.6,0.000925,0.000799,0.087088,0.009397,   1.538
   133.8,0.000927,0.000804,0.087199,0.009410,   1.540
   134.0,0.000935,0.000804,0.087326,0.009424,   1.545
   134.2,0.000930,0.000809,0.087461,0.009437,   1.540
   134.4,0.000930,0.000812,0.087616,0.009450,   1.548
   134.6,0.000927,0.000812,0.087745,0.009464,   1.548
   134.8,0.000927,0.000814,0.087862,0.009464,   1.552
   135.0,0.000927,0.000816,0.087977,0.009491,   1.550
   135.2,0.000930,0.000819,0.088097,0.009491,   1.548
   135.4,0.000934,0.000817,0.088219,0.009491,   1.549
   135.6,0.000937,0.000817,0.088341,0.009504,   1.551
   135.8,0.000939,0.000818,0.088454,0.009517,   1.554
   136.0,0.000941,0.000818,0.088567,0.009517,   1.554
   136.2,0.000944,0.000820,0.088682,0.009531,   1.557
   136.4,0.000946,0.000827,0.088802,0.009544,   1.558
   136.6,0.000948,0.000829,0.088924,0.009558,   1.558
   136.8,0.000948,0.000829,0.089056,0.009571,   1.559
   137.0,0.000948,0.000827,0.089178,0.009584,   1.560
   137.2,0.000951,0.000829,0.089300,0.009584,   1.563
   137.4,0.000955,0.000828,0.089416,0.009611,   1.562
   137.6,0.000958,0.000833,0.089525,0.009624,   1.563
   137.8,0.000962,0.000835,0.089623,0.009624,   1.570
   138.0,0.000962,0.000835,0.089721,0.009638,   1.569
   138.2,0.000960,0.000839,0.089835,0.009651,   1.572
   138.4,0.000965,0.000844,0.089956,0.009638,   1.573
   138.6,0.000967,0.000847,0.090085,0.009651,   1.573
   138.8,0.000972,0.000855,0.090205,0.009651,   1.572
   139.0,0.000974,0.000861,0.090326,0.009665,   1.568
   139.2,0.000973,0.000863,0.090452,0.009678,   1.574
   139.4,0.000981,0.000872,0.090571,0.009657,   1.582
   139.6,0.000983,0.000878,0.090682,0.009670,   1.579
   139.8,0.000986,0.000876,0.090801,0.009697,   1.575
   140.0,0.000990,0.000880,0.090920,0.009676,   1.581
   140.2,0.000997,0.000886,0.091038,0.009710,   1.582
   140.4,0.001004,0.000892,0.091162,0.009737,   1.586
   140.6,0.001011,0.000897,0.091276,0.009716,   1.588
   140.8,0.001016,0.000900,0.091398,0.009751,   1.585
   141.0,0.001018,0.000908,0.091519,0.009764,   1.590
   141.2,0.001020,0.000908,0.091633,0.009729,   1.588
   141.4,0.001018,0.000910,0.091745,0.009777,   1.594
   141.6,0.001023,0.000916,0.091860,0.009791,   1.590
   141.8,0.001032,0.000919,0.091980,0.009818,   1.593
   142.0,0.001041,0.000920,0.092098,0.009770,   1.594
   142.2,0.001046,0.000925,0.092229,0.009818,   1.595
   142.4,0.001048,0.000927,0.092334,0.009810,   1.597
   142.6,0.001046,0.000927,0.092427,0.009823,   1.601
   142.8,0.001051,0.000935,0.092514,0.009858,   1.598
   143.0,0.001053,0.000937,0.092589,0.009871,   1.601
   143.2,0.001055,0.000940,0.092696,0.009850,   1.600
   143.4,0.001060,0.000946,0.092811,0.009884,   1.600
   143.6,0.001065,0.000953,0.092928,0.009898,   1.603
   143.8,0.001072,0.000955,0.093042,0.009877,   1.606
   144.0,0.001072,0.000955,0.093154,0.009911,   1.606
   144.2,0.001074,0.000951,0.093265,0.009938,   1.603
   144.4,0.001076,0.000953,0.093387,0.009917,   1.607
   144.6,0.001079,0.000959,0.093524,0.009951,   1.615
   144.8,0.001079,0.000964,0.093661,0.009965,   1.610
   145.0,0.001082,0.000965,0.093778,0.009957,   1.618
   145.2,0.001076,0.000968,0.093894,0.009978,   1.615
   145.4,0.001081,0.000969,0.093999,0.009992,   1.616
   145.6,0.001089,0.000976,0.094109,0.009971,   1.619
   145.8,0.001086,0.000979,0.094227,0.010005,   1.619
   146.0,0.001096,0.000984,0.094339,0.010018,   1.621
   146.2,0.001106,0.000984,0.094417,0.009997,   1.620
   146.4,0.001105,0.000986,0.094487,0.010032,   1.620
   146.6,0.001107,0.000989,0.094538,0.010059,   1.622
   146.8,0.001112,0.000997,0.094646,0.010024,   1.624
   147.0,0.001113,0.000998,0.094780,0.010059,   1.630
   147.2,0.001118,0.001006,0.094941,0.010072,   1.630
   147.4,0.001126,0.001007,0.095068,0.010051,   1.627
   147.6,0.001123,0.001009,0.095187,0.010051,   1.630
   147.8,0.001131,0.001012,0.095304,0.010064,   1.631
   148.0,0.001134,0.001017,0.095424,0.010064,   1.634
   148.2,0.001131,0.001017,0.095541,0.010078,   1.633
   148.4,0.001133,0.001021,0.095650,0.010091,   1.637
   148.6,0.001137,0.001023,0.095767,0.010091,   1.635
   148.8,0.001134,0.001021,0.095890,0.010104,   1.638
   149.0,0.001137,0.001028,0.096011,0.010118,   1.643
   149.2,0.001134,0.001032,0.096130,0.010118,   1.640
   149.4,0.001134,0.001032,0.096256,0.010131,   1.642
   149.6,0.001134,0.001037,0.096386,0.010145,   1.646
   149.8,0.001136,0.001041,0.096494,0.010158,   1.649
   150.0,0.001144,0.001040,0.096596,0.010158,   1.650
   150.2,0.001146,0.001043,0.096692,0.010171,   1.651
   150.4,0.001146,0.001044,0.096789,0.010185,   1.649
   150.6,0.001144,0.001045,0.096888,0.010171,   1.652
   150.8,0.001144,0.001044,0.096983,0.010185,   1.650
   151.0,0.001146,0.001048,0.097094,0.010198,   1.651
   151.2,0.001151,0.001052,0.097211,0.010212,   1.649
   151.4,0.001148,0.001054,0.097337,0.010225,   1.658
   151.6,0.001151,0.001058,0.097452,0.010238,   1.657
   151.8,0.001156,0.001062,0.097564,0.010238,   1.656
   152.0,0.001153,0.001063,0.097682,0.010238,   1.658
   152.2,0.001155,0.001070,0.097784,0.010252,   1.658
   152.4,0.001161,0.001073,0.097878,0.010252,   1.660
   152.6,0.001160,0.001074,0.097961,0.010252,   1.665
   152.8,0.001162,0.001073,0.098037,0.010265,   1.663
   153.0,0.001170,0.001078,0.098141,0.010279,   1.667
   153.2,0.001169,0.001083,0.098256,0.010292,   1.663
   153.4,0.001174,0.001085,0.098379,0.010319,   1.665
   153.6,0.001176,0.001088,0.098475,0.010319,   1.667
   153.8,0.001176,0.001094,0.098555,0.010319,   1.671
   154.0,0.001176,0.001096,0.098633,0.010332,   1.673
   154.2,0.001176,0.001097,0.098743,0.010298,   1.669
   154.4,0.001175,0.001103,0.098865,0.010298,   1.674
   154.6,0.001179,0.001105,0.099008,0.010311,   1.677
   154.8,0.001187,0.001111,0.099124,0.010290,   1.677
   155.0,0.001195,0.001110,0.099242,0.010325,   1.680
   155.2,0.001197,0.001112,0.099358,0.010351,   1.681
   155.4,0.001197,0.001117,0.099472,0.010330,   1.678
   155.6,0.001207,0.001123,0.099582,0.010365,   1.682
   155.8,0.001210,0.001124,0.099690,0.010378,   1.682
   156.0,0.001207,0.001126,0.099792,0.010371,   1.684
   156.2,0.001211,0.001128,0.099896,0.010392,   1.684
   156.4,0.001214,0.001135,0.099998,0.010405,   1.688
   156.6,0.001214,0.001143,0.100116,0.010371,   1.690
   156.8,0.001218,0.001146,0.100251,0.010405,   1.689
   157.0,0.001223,0.001152,0.100390,0.010419,   1.689
   157.2,0.001233,0.001158,0.100491,0.010384,   1.693
   157.4,0.001232,0.001161,0.100573,0.010432,   1.696
   157.6,0.001237,0.001164,0.100642,0.010445,   1.695
   157.8,0.001241,0.001164,0.100755,0.010411,   1.695
   158.0,0.001246,0.001163,0.100884,0.010459,   1.699
   158.2,0.001251,0.001170,0.101029,0.010472,   1.699
   158.4,0.001255,0.001177,0.101163,0.010451,   1.697
   158.6,0.001262,0.001182,0.101301,0.010499,   1.700
   158.8,0.001267,0.001189,0.101444,0.010526,   1.700
   159.0,0.001269,0.001197,0.101532,0.010491,   1.702
   159.2,0.001274,0.001202,0.101597,0.010526,   1.703
   159.4,0.001273,0.001207,0.101636,0.010539,   1.706
   159.6,0.001283,0.001214,0.101761,0.010505,   1.706
   159.8,0.001286,0.001221,0.101916,0.010553,   1.705
   160.0,0.001290,0.001222,0.102097,0.010532,   1.708
   160.2,0.001298,0.001226,0.102233,0.010532,   1.711
   160.4,0.001303,0.001233,0.102364,0.010545,   1.711
   160.6,0.001302,0.001237,0.102487,0.010524,   1.713
   160.8,0.001309,0.001248,0.102620,0.010572,   1.714
   161.0,0.001319,0.001255,0.102757,0.010585,   1.716
   161.2,0.001321,0.001258,0.102893,0.010585,   1.720
   161.4,0.001325,0.001266,0.103028,0.010599,   1.722
   161.6,0.001333,0.001275,0.103169,0.010599,   1.720
   161.8,0.001335,0.001281,0.103307,0.010599,   1.724
   162.0,0.001344,0.001293,0.103443,0.010578,   1.719
   162.2,0.001356,0.001303,0.103586,0.010639,   1.720
   162.4,0.001355,0.001312,0.103728,0.010639,   1.724
   162.6,0.001363,0.001323,0.103847,0.010618,   1.724
   162.8,0.001373,0.001331,0.103950,0.010652,   1.725
   163.0,0.001374,0.001340,0.104048,0.010666,   1.728
   163.2,0.001381,0.001347,0.104134,0.010645,   1.729
   163.4,0.001396,0.001358,0.104261,0.010693,   1.730
   163.6,0.001400,0.001361,0.104398,0.010706,   1.731
   163.8,0.001407,0.001371,0.104543,0.010685,   1.729
   164.0,0.001417,0.001384,0.104691,0.010733,   1.734
   164.2,0.001416,0.001396,0.104840,0.010719,   1.732
   164.4,0.001423,0.001415,0.104996,0.010698,   1.735
   164.6,0.001435,0.001429,0.105144,0.010746,   1.737
   164.8,0.001435,0.001431,0.105293,0.010746,   1.736
   165.0,0.001439,0.001440,0.105439,0.010725,   1.738
   165.2,0.001452,0.001445,0.105539,0.010773,   1.740
   165.4,0.001456,0.001453,0.105619,0.010787,   1.739
   165.6,0.001468,0.001458,0.105681,0.010765,   1.744
   165.8,0.001483,0.001465,0.105818,0.010813,   1.744
   166.0,0.001487,0.001477,0.105981,0.010813,   1.746
   166.2,0.001501,0.001485,0.106176,0.010792,   1.746
   166.4,0.001511,0.001505,0.106335,0.010854,   1.746
   166.6,0.001515,0.001513,0.106488,0.010840,   1.749
   166.8,0.001527,0.001519,0.106640,0.010819,   1.749
   167.0,0.001532,0.001529,0.106790,0.010867,   1.751
   167.2,0.001536,0.001540,0.106936,0.010867,   1.751
   167.4,0.001550,0.001550,0.107080,0.010846,   1.756
   167.6,0.001560,0.001567,0.107239,0.010894,   1.752
   167.8,0.001566,0.001579,0.107406,0.010907,   1.750
   168.0,0.001575,0.001587,0.107581,0.010886,   1.755
   168.2,0.001584,0.001603,0.107743,0.010934,   1.757
   168.4,0.001588,0.001617,0.107903,0.010934,   1.759
   168.6,0.001603,0.001626,0.108061,0.010948,   1.761
   168.8,0.001615,0.001638,0.108199,0.010961,   1.762
   169.0,0.001622,0.001652,0.108329,0.010969,   1.761
   169.2,0.001634,0.001667,0.108444,0.010948,   1.765
   169.4,0.001633,0.001681,0.108590,0.010974,   1.764
   169.6,0.001646,0.001691,0.108750,0.010988,   1.762
   169.8,0.001652,0.001706,0.108921,0.010967,   1.763
   170.0,0.001661,0.001720,0.109076,0.011015,   1.767
   170.2,0.001678,0.001733,0.109230,0.011028,   1.769
   170.4,0.001685,0.001747,0.109391,0.011007,   1.766
   170.6,0.001699,0.001761,0.109546,0.011055,   1.775
   170.8,0.001706,0.001775,0.109696,0.011055,   1.775
   171.0,0.001713,0.001783,0.109848,0.011055,   1.770
   171.2,0.001727,0.001795,0.110004,0.011082,   1.771
   171.4,0.001737,0.001809,0.110169,0.011082,   1.773
   171.6,0.001741,0.001817,0.110338,0.011082,   1.779
   171.8,0.001755,0.001833,0.110500,0.011047,   1.777
   172.0,0.001762,0.001841,0.110659,0.011095,   1.781
   172.2,0.001766,0.001855,0.110824,0.011095,   1.778
   172.4,0.001781,0.001865,0.110934,0.011074,   1.778
   172.6,0.001790,0.001873,0.111015,0.011122,   1.783
   172.8,0.001794,0.001889,0.111067,0.011136,   1.784
   173.0,0.001809,0.001899,0.111097,0.011128,   1.787
   173.2,0.001818,0.001909,0.111234,0.011176,   1.785
   173.4,0.001822,0.001924,0.111397,0.011176,   1.785
   173.6,0.001834,0.001938,0.111587,0.011155,   1.786
   173.8,0.001841,0.001948,0.111744,0.011216,   1.788
   174.0,0.001848,0.001960,0.111900,0.011203,   1.792
   174.2,0.001865,0.001974,0.112052,0.011182,   1.792
   174.4,0.001874,0.001985,0.112208,0.011230,   1.793
   174.6,0.001878,0.001999,0.112372,0.011230,   1.798
   174.8,0.001893,0.002016,0.112537,0.011209,   1.791
   175.0,0.001902,0.002028,0.112694,0.011222,   1.796
   175.2,0.001906,0.002034,0.112858,0.011222,   1.791
   175.4,0.001918,0.002041,0.113024,0.011214,   1.799
   175.6,0.001925,0.002046,0.113177,0.011228,   1.800
   175.8,0.001932,0.002048,0.113327,0.011262,   1.804
   176.0,0.001941,0.002062,0.113476,0.011241,   1.806
   176.2,0.001950,0.002072,0.113620,0.011268,   1.807
   176.4,0.001954,0.002081,0.113760,0.011289,   1.806
   176.6,0.001959,0.002093,0.113899,0.011255,   1.804
   176.8,0.001971,0.002105,0.114037,0.011268,   1.809
   177.0,0.001973,0.002116,0.114176,0.011289,   1.807
   177.2,0.001977,0.002121,0.114305,0.011268,   1.812
   177.4,0.001988,0.002132,0.114442,0.011295,   1.809
   177.6,0.001987,0.002135,0.114583,0.011343,   1.811
   177.8,0.001991,0.002137,0.114725,0.011335,   1.812
   178.0,0.002002,0.002147,0.114874,0.011349,   1.816
   178.2,0.001998,0.002150,0.115032,0.011383,   1.818
   178.4,0.002001,0.002151,0.115197,0.011362,   1.813
   178.6,0.002009,0.002158,0.115334,0.011389,   1.822
   178.8,0.002013,0.002161,0.115464,0.011410,   1.824
   179.0,0.002016,0.002162,0.115584,0.011389,   1.820
   179.2,0.002018,0.002164,0.115710,0.011403,   1.820
   179.4,0.002020,0.002165,0.115836,0.011437,   1.821
   179.6,0.002022,0.002170,0.115964,0.011416,   1.822
   179.8,0.002030,0.002176,0.116093,0.011429,   1.827
   180.0,0.002032,0.002175,0.116224,0.011464,   1.830
   180.2,0.002031,0.002178,0.116360,0.011456,   1.825
   180.4,0.002036,0.002180,0.116495,0.011456,   1.827
   180.6,0.002041,0.002176,0.116638,0.011456,   1.832
   180.8,0.002038,0.002176,0.116787,0.011456,   1.830
   181.0,0.002033,0.002170,0.116898,0.011435,   1.833
   181.2,0.002034,0.002170,0.116999,0.011470,   1.835
   181.4,0.002031,0.002170,0.117092,0.011483,   1.836
   181.6,0.002031,0.002172,0.117217,0.011483,   1.839
   181.8,0.002037,0.002176,0.117348,0.011483,   1.841
   182.0,0.002033,0.002176,0.117491,0.011483,   1.838
   182.2,0.002031,0.002169,0.117599,0.011449,   1.841
   182.4,0.002034,0.002164,0.117686,0.011497,   1.837
   182.6,0.002031,0.002165,0.117769,0.011497,   1.841
   182.8,0.002029,0.002162,0.117833,0.011476,   1.842
   183.0,0.002034,0.002157,0.117947,0.011524,   1.845
   183.2,0.002029,0.002161,0.118077,0.011537,   1.850
   183.4,0.002026,0.002164,0.118217,0.011516,   1.847
   183.6,0.002027,0.002162,0.118332,0.011550,   1.853
   183.8,0.002022,0.002160,0.118445,0.011564,   1.851
   184.0,0.002024,0.002157,0.118547,0.011543,   1.851
   184.2,0.002027,0.002153,0.118616,0.011577,   1.849
   184.4,0.002019,0.002151,0.118669,0.011577,   1.853
   184.6,0.002019,0.002146,0.118704,0.011556,   1.853
   184.8,0.002023,0.002146,0.118824,0.011604,   1.854
   185.0,0.002015,0.002142,0.118976,0.011604,   1.856
   185.2,0.002012,0.002142,0.119163,0.011583,   1.858
   185.4,0.002018,0.002137,0.119311,0.011618,   1.861
   185.6,0.002012,0.002133,0.119463,0.011631,   1.863
   185.8,0.002008,0.002126,0.119616,0.011610,   1.864
   186.0,0.002009,0.002119,0.119734,0.011645,   1.863
   186.2,0.002003,0.002113,0.119840,0.011658,   1.864
   186.4,0.002003,0.002110,0.119931,0.011637,   1.866
   186.6,0.002006,0.002112,0.120054,0.011672,   1.871
   186.8,0.001998,0.002105,0.120179,0.011685,   1.868
   187.0,0.001994,0.002100,0.120308,0.011664,   1.868
   187.2,0.001992,0.002096,0.120433,0.011712,   1.868
   187.4,0.001984,0.002087,0.120560,0.011712,   1.872
   187.6,0.001982,0.002086,0.120681,0.011691,   1.872
   187.8,0.001988,0.002079,0.120787,0.011739,   1.876
   188.0,0.001982,0.002073,0.120889,0.011725,   1.875
   188.2,0.001980,0.002075,0.120979,0.011704,   1.876
   188.4,0.001983,0.002073,0.121093,0.011739,   1.876
   188.6,0.001981,0.002073,0.121205,0.011752,   1.879
   188.8,0.001983,0.002071,0.121333,0.011731,   1.880
   189.0,0.001981,0.002070,0.121456,0.011766,   1.880
   189.2,0.001981,0.002072,0.121585,0.011779,   1.884
   189.4,0.001975,0.002069,0.121717,0.011758,   1.883
   189.6,0.001981,0.002061,0.121826,0.011793,   1.887
   189.8,0.001978,0.002054,0.121927,0.011793,   1.886
   190.0,0.001973,0.002051,0.122018,0.011785,   1.887
   190.2,0.001970,0.002044,0.122125,0.011833,   1.889
   190.4,0.001969,0.002037,0.122234,0.011833,   1.889
   190.6,0.001963,0.002032,0.122346,0.011833,   1.890
   190.8,0.001963,0.002034,0.122442,0.011846,   1.892
   191.0,0.001967,0.002032,0.122538,0.011846,   1.892
   191.2,0.001961,0.002028,0.122633,0.011846,   1.895
   191.4,0.001961,0.002024,0.122746,0.011860,   1.889
   191.6,0.001964,0.002024,0.122868,0.011860,   1.895
   191.8,0.001959,0.002019,0.122998,0.011860,   1.899
   192.0,0.001961,0.002017,0.123081,0.011839,   1.897
   192.2,0.001964,0.002012,0.123147,0.011887,   1.895
   192.4,0.001959,0.002011,0.123198,0.011887,   1.903
   192.6,0.001961,0.002016,0.123230,0.011866,   1.899
   192.8,0.001964,0.002008,0.123336,0.011914,   1.904
   193.0,0.001956,0.002008,0.123459,0.011914,   1.901
   193.2,0.001954,0.002012,0.123601,0.011906,   1.905
   193.4,0.001955,0.002006,0.123703,0.011906,   1.906
   193.6,0.001947,0.002003,0.123792,0.011906,   1.908
   193.8,0.001950,0.001996,0.123870,0.011885,   1.907
   194.0,0.001953,0.001990,0.123972,0.011899,   1.910
   194.2,0.001948,0.001993,0.124077,0.011920,   1.908
   194.4,0.001951,0.001993,0.124185,0.011885,   1.910
   194.6,0.001946,0.001991,0.124290,0.011912,   1.909
   194.8,0.001941,0.001990,0.124399,0.011947,   1.914
   195.0,0.001951,0.001991,0.124504,0.011925,   1.914
   195.2,0.001953,0.001990,0.124611,0.011925,   1.916
   195.4,0.001948,0.001986,0.124734,0.011960,   1.916
   195.6,0.001953,0.001984,0.124856,0.011939,   1.916
   195.8,0.001951,0.001981,0.124953,0.011939,   1.921
   196.0,0.001946,0.001976,0.125042,0.011973,   1.915
   196.2,0.001946,0.001975,0.125124,0.011952,   1.918
   196.4,0.001946,0.001978,0.125223,0.011952,   1.922
   196.6,0.001940,0.001978,0.125331,0.011973,   1.923
   196.8,0.001943,0.001976,0.125437,0.011952,   1.925
   197.0,0.001948,0.001980,0.125537,0.011966,   1.922
   197.2,0.001945,0.001982,0.125633,0.012000,   1.922
   197.4,0.001947,0.001986,0.125727,0.011993,   1.929
   197.6,0.001955,0.001991,0.125839,0.011993,   1.929
   197.8,0.001954,0.001994,0.125962,0.012027,   1.928
   198.0,0.001956,0.001996,0.126095,0.012006,   1.927
   198.2,0.001967,0.001997,0.126207,0.012020,   1.925
   198.4,0.001969,0.001998,0.126307,0.012041,   1.930
   198.6,0.001971,0.002004,0.126398,0.012006,   1.929
   198.8,0.001971,0.002003,0.126469,0.012033,   1.929
   199.0,0.001979,0.002007,0.126529,0.012068,   1.929
   199.2,0.001976,0.002007,0.126574,0.012047,   1.938
   199.4,0.001976,0.002005,0.126668,0.012047,   1.938
   199.6,0.001981,0.002005,0.126786,0.012081,   1.939
   199.8,0.001981,0.002007,0.126920,0.012060,   1.935
   200.0,0.001988,0.002011,0.126992,0.012060,   1.937
   200.2,0.001991,0.002009,0.127045,0.012095,   1.942
   200.4,0.001990,0.002013,0.127074,0.012074,   1.944
   200.6,0.001998,0.002018,0.127188,0.012074,   1.944
   200.8,0.001998,0.002018,0.127335,0.012108,   1.943
   201.0,0.001997,0.002021,0.127514,0.012122,   1.944
   201.2,0.001999,0.002025,0.127644,0.012087,   1.944
   201.4,0.002004,0.002026,0.127766,0.012135,   1.948
   201.6,0.002003,0.002037,0.127877,0.012135,   1.943
   201.8,0.002008,0.002042,0.127979,0.012114,   1.948
   202.0,0.002018,0.002043,0.128066,0.012162,   1.944
   202.2,0.002017,0.002050,0.128141,0.012162,   1.946
   202.4,0.002019,0.002053,0.128205,0.012141,   1.953
   202.6,0.002030,0.002051,0.128295,0.012154,   1.954
   202.8,0.002029,0.002057,0.128393,0.012141,   1.951
   203.0,0.002037,0.002057,0.128496,0.012154,   1.948
   203.2,0.002042,0.002054,0.128603,0.012154,   1.949
   203.4,0.002041,0.002061,0.128716,0.012168,   1.952
   203.6,0.002051,0.002064,0.128842,0.012181,   1.955
   203.8,0.002054,0.002069,0.128942,0.012181,   1.959
   204.0,0.002053,0.002074,0.129036,0.012181,   1.959
   204.2,0.002065,0.002080,0.129127,0.012195,   1.959
   204.4,0.002068,0.002086,0.129229,0.012195,   1.959
   204.6,0.002069,0.002089,0.129334,0.012195,   1.963
   204.8,0.002074,0.002089,0.129444,0.012208,   1.963
   205.0,0.002078,0.002093,0.129550,0.012208,   1.967
   205.2,0.002080,0.002096,0.129659,0.012222,   1.966
   205.4,0.002085,0.002101,0.129766,0.012235,   1.966
   205.6,0.002090,0.002107,0.129872,0.012249,   1.962
   205.8,0.002089,0.002113,0.129979,0.012249,   1.963
   206.0,0.002094,0.002115,0.130089,0.012262,   1.963
   206.2,0.002102,0.002118,0.130191,0.012276,   1.968
   206.4,0.002101,0.002121,0.130290,0.012262,   1.973
   206.6,0.002103,0.002125,0.130389,0.012262,   1.968
   206.8,0.002113,0.002126,0.130487,0.012276,   1.973
   207.0,0.002113,0.002133,0.130587,0.012276,   1.972
   207.2,0.002117,0.002140,0.130689,0.012289,   1.970
   207.4,0.002125,0.002150,0.130803,0.012303,   1.972
   207.6,0.002124,0.002157,0.130921,0.012303,   1.974
   207.8,0.002129,0.002164,0.131050,0.012316,   1.974
   208.0,0.002137,0.002170,0.131141,0.012316,   1.973
   208.2,0.002139,0.002172,0.131212,0.012316,   1.972
   208.4,0.002141,0.002175,0.131267,0.012330,   1.979
   208.6,0.002146,0.002178,0.131365,0.012330,   1.982
   208.8,0.002148,0.002179,0.131478,0.012330,   1.983
   209.0,0.002148,0.002184,0.131605,0.012356,   1.983
   209.2,0.002155,0.002190,0.131721,0.012356,   1.980
   209.4,0.002160,0.002194,0.131836,0.012356,   1.983
   209.6,0.002162,0.002195,0.131960,0.012370,   1.985
   209.8,0.002166,0.002205,0.132075,0.012383,   1.981
   210.0,0.002174,0.002209,0.132179,0.012370,   1.981
   210.2,0.002173,0.002214,0.132286,0.012383,   1.981
   210.4,0.002180,0.002217,0.132385,0.012397,   1.989
   210.6,0.002188,0.002220,0.132479,0.012362,   1.986
   210.8,0.002190,0.002223,0.132563,0.012362,   1.990
   211.0,0.002192,0.002230,0.132660,0.012362,   1.994
   211.2,0.002202,0.002231,0.132756,0.012376,   1.994
   211.4,0.002204,0.002232,0.132855,0.012376,   1.995
   211.6,0.002206,0.002242,0.132922,0.012389,   1.995
   211.8,0.002214,0.002249,0.132980,0.012389,   1.994
   212.0,0.002213,0.002249,0.133020,0.012389,   2.002
   212.2,0.002215,0.002255,0.133047,0.012403,   1.995
   212.4,0.002223,0.002260,0.133102,0.012416,   1.995
   212.6,0.002222,0.002260,0.133162,0.012416,   2.001
   212.8,0.002229,0.002266,0.133221,0.012430,   2.000
   213.0,0.002242,0.002271,0.133330,0.012430,   2.000
   213.2,0.002241,0.002276,0.133463,0.012430,   2.002
   213.4,0.002246,0.002289,0.133618,0.012443,   1.997
   213.6,0.002248,0.002296,0.133754,0.012443,   2.003
   213.8,0.002253,0.002300,0.133899,0.012443,   2.004
   214.0,0.002257,0.002307,0.134047,0.012457,   2.007
   214.2,0.002264,0.002313,0.134142,0.012470,   2.008
   214.4,0.002274,0.002315,0.134211,0.012470,   2.008
   214.6,0.002278,0.002321,0.134256,0.012484,   2.009
   214.8,0.002283,0.002325,0.134355,0.012497,   2.012
   215.0,0.002290,0.002330,0.134469,0.012511,   2.004
   215.2,0.002297,0.002339,0.134601,0.012524,   2.013
   215.4,0.002299,0.002344,0.134715,0.012524,   2.014
   215.6,0.002306,0.002349,0.134830,0.012511,   2.019
   215.8,0.002311,0.002357,0.134951,0.012524,   2.017
   216.0,0.002313,0.002364,0.135069,0.012538,   2.015
   216.2,0.002318,0.002369,0.135183,0.012538,   2.018
   216.4,0.002325,0.002380,0.135301,0.012551,   2.012
   216.6,0.002335,0.002388,0.135426,0.012551,   2.018
   216.8,0.002334,0.002393,0.135550,0.012551,   2.019
   217.0,0.002339,0.002394,0.135681,0.012565,   2.018
   217.2,0.002347,0.002401,0.135750,0.012578,   2.022
   217.4,0.002348,0.002405,0.135783,0.012578,   2.020
   217.6,0.002355,0.002410,0.135786,0.012592,   2.024
   217.8,0.002365,0.002415,0.135876,0.012605,   2.023
   218.0,0.002365,0.002418,0.135999,0.012592,   2.025
   218.2,0.002369,0.002425,0.136144,0.012592,   2.026
   218.4,0.002377,0.002423,0.136258,0.012592,   2.027
   218.6,0.002379,0.002422,0.136375,0.012592,   2.029
   218.8,0.002382,0.002428,0.136493,0.012592,   2.027
   219.0,0.002382,0.002426,0.136598,0.012605,   2.030
   219.2,0.002382,0.002425,0.136698,0.012605,   2.035
   219.4,0.002381,0.002433,0.136794,0.012619,   2.035
   219.6,0.002386,0.002438,0.136906,0.012598,   2.037
   219.8,0.002389,0.002440,0.137021,0.012611,   2.033
   220.0,0.002386,0.002448,0.137143,0.012624,   2.031
   220.2,0.002390,0.002453,0.137249,0.012576,   2.037
   220.4,0.002398,0.002453,0.137360,0.012611,   2.036
   220.6,0.002397,0.002456,0.137467,0.012611,   2.039
   220.8,0.002400,0.002458,0.137572,0.012590,   2.041
   221.0,0.002405,0.002454,0.137675,0.012611,   2.036
   221.2,0.002404,0.002462,0.137786,0.012611,   2.041
   221.4,0.002407,0.002470,0.137869,0.012624,   2.041
   221.6,0.002412,0.002469,0.137938,0.012624,   2.038
   221.8,0.002409,0.002474,0.137997,0.012638,   2.043
   222.0,0.002411,0.002481,0.138062,0.012651,   2.048
   222.2,0.002414,0.002484,0.138129,0.012617,   2.046
   222.4,0.002418,0.002487,0.138194,0.012651,   2.047
   222.6,0.002418,0.002490,0.138254,0.012665,   2.049
   222.8,0.002418,0.002495,0.138341,0.012630,   2.046
   223.0,0.002423,0.002499,0.138442,0.012651,   2.049
   223.2,0.002428,0.002500,0.138548,0.012651,   2.047
   223.4,0.002432,0.002504,0.138637,0.012630,   2.054
   223.6,0.002437,0.002506,0.138727,0.012644,   2.050
   223.8,0.002439,0.002516,0.138808,0.012644,   2.052
   224.0,0.002444,0.002521,0.138907,0.012657,   2.048
   224.2,0.002449,0.002525,0.139013,0.012657,   2.053
   224.4,0.002451,0.002534,0.139126,0.012671,   2.054
   224.6,0.002451,0.002539,0.139227,0.012684,   2.057
   224.8,0.002456,0.002538,0.139319,0.012684,   2.056
   225.0,0.002460,0.002541,0.139405,0.012698,   2.060
   225.2,0.002463,0.002544,0.139499,0.012698,   2.056
   225.4,0.002470,0.002547,0.139596,0.012698,   2.059
   225.6,0.002479,0.002553,0.139692,0.012711,   2.065
   225.8,0.002486,0.002559,0.139795,0.012711,   2.056
   226.0,0.002491,0.002564,0.139902,0.012711,   2.066
   226.2,0.002495,0.002571,0.140013,0.012725,   2.066
   226.4,0.002505,0.002580,0.140105,0.012725,   2.062
   226.6,0.002505,0.002585,0.140193,0.012725,   2.066
   226.8,0.002515,0.002593,0.140282,0.012738,   2.066
   227.0,0.002525,0.002596,0.140379,0.012752,   2.068
   227.2,0.002526,0.002599,0.140480,0.012752,   2.061
   227.4,0.002531,0.002606,0.140593,0.012765,   2.072
   227.6,0.002531,0.002610,0.140690,0.012779,   2.069
   227.8,0.002533,0.002610,0.140787,0.012765,   2.076
   228.0,0.002536,0.002612,0.140875,0.012765,   2.077
   228.2,0.002538,0.002618,0.140978,0.012765,   2.072
   228.4,0.002540,0.002619,0.141098,0.012765,   2.073
   228.6,0.002540,0.002619,0.141222,0.012779,   2.072
   228.8,0.002547,0.002623,0.141312,0.012779,   2.075
   229.0,0.002552,0.002626,0.141393,0.012792,   2.074
   229.2,0.002551,0.002635,0.141467,0.012806,   2.077
   229.4,0.002558,0.002641,0.141508,0.012806,   2.077
   229.6,0.002561,0.002640,0.141534,0.012806,   2.079
   229.8,0.002565,0.002646,0.141539,0.012819,   2.080
   230.0,0.002570,0.002649,0.141638,0.012833,   2.082
   230.2,0.002572,0.002652,0.141778,0.012833,   2.081
   230.4,0.002577,0.002653,0.141962,0.012846,   2.083
   230.6,0.002582,0.002662,0.142075,0.012812,   2.083
   230.8,0.002584,0.002668,0.142175,0.012825,   2.086
   231.0,0.002589,0.002666,0.142263,0.012846,   2.086
   231.2,0.002591,0.002670,0.142368,0.012846,   2.086
   231.4,0.002596,0.002675,0.142490,0.012846,   2.086
   231.6,0.002600,0.002677,0.142611,0.012846,   2.087
   231.8,0.002603,0.002682,0.142700,0.012860,   2.087
   232.0,0.002603,0.002683,0.142774,0.012873,   2.089
   232.2,0.002607,0.002690,0.142837,0.012873,   2.089
   232.4,0.002612,0.002699,0.142884,0.012887,   2.089
   232.6,0.002614,0.002700,0.142967,0.012900,   2.088
   232.8,0.002619,0.002704,0.143059,0.012873,   2.092
   233.0,0.002624,0.002707,0.143153,0.012873,   2.090
   233.2,0.002626,0.002708,0.143242,0.012887,   2.090
   233.4,0.002628,0.002718,0.143338,0.012887,   2.096
   233.6,0.002633,0.002721,0.143438,0.012887,   2.092
   233.8,0.002635,0.002724,0.143543,0.012900,   2.096
   234.0,0.002640,0.002727,0.143662,0.012900,   2.095
   234.2,0.002645,0.002730,0.143790,0.012914,   2.094
   234.4,0.002647,0.002733,0.143880,0.012927,   2.095
   234.6,0.002652,0.002736,0.143962,0.012927,   2.101
   234.8,0.002654,0.002739,0.144033,0.012941,   2.094
   235.0,0.002659,0.002744,0.144132,0.012941,   2.094
   235.2,0.002666,0.002746,0.144236,0.012927,   2.098
   235.4,0.002670,0.002751,0.144344,0.012941,   2.101
   235.6,0.002673,0.002760,0.144446,0.012941,   2.104
   235.8,0.002677,0.002763,0.144555,0.012941,   2.102
   236.0,0.002682,0.002759,0.144660,0.012954,   2.103
   236.2,0.002684,0.002763,0.144744,0.012941,   2.104
   236.4,0.002689,0.002768,0.144816,0.012941,   2.102
   236.6,0.002691,0.002770,0.144878,0.012968,   2.107
   236.8,0.002696,0.002782,0.144953,0.012933,   2.109
   237.0,0.002701,0.002789,0.145031,0.012947,   2.108
   237.2,0.002701,0.002790,0.145109,0.012960,   2.105
   237.4,0.002706,0.002797,0.145209,0.012939,   2.109
   237.6,0.002716,0.002806,0.145326,0.012960,   2.113
   237.8,0.002713,0.002812,0.145454,0.012960,   2.112
   238.0,0.002726,0.002817,0.145565,0.012939,   2.110
   238.2,0.002723,0.002826,0.145680,0.012960,   2.114
   238.4,0.002722,0.002830,0.145792,0.012960,   2.117
   238.6,0.002726,0.002827,0.145892,0.012953,   2.115
   238.8,0.002733,0.002830,0.145986,0.012987,   2.113
   239.0,0.002736,0.002835,0.146073,0.013001,   2.118
   239.2,0.002740,0.002842,0.146157,0.012966,   2.117
   239.4,0.002746,0.002845,0.146239,0.013001,   2.119
   239.6,0.002743,0.002848,0.146310,0.013014,   2.120
   239.8,0.002747,0.002859,0.146396,0.012980,   2.122
   240.0,0.002755,0.002866,0.146495,0.013028,   2.121
   240.2,0.002757,0.002873,0.146594,0.013028,   2.122
   240.4,0.002759,0.002877,0.146682,0.013041,   2.126
   240.6,0.002764,0.002884,0.146775,0.013041,   2.124
   240.8,0.002771,0.002886,0.146866,0.013041,   2.127
   241.0,0.002775,0.002884,0.146942,0.013020,   2.124
   241.2,0.002780,0.002886,0.147004,0.013055,   2.124
   241.4,0.002785,0.002891,0.147071,0.013055,   2.125
   241.6,0.002789,0.002898,0.147117,0.013068,   2.126
   241.8,0.002797,0.002903,0.147213,0.013034,   2.129
   242.0,0.002799,0.002908,0.147319,0.013068,   2.127
   242.2,0.002801,0.002914,0.147437,0.013082,   2.128
   242.4,0.002806,0.002917,0.147536,0.013061,   2.129
   242.6,0.002807,0.002924,0.147631,0.013095,   2.129
   242.8,0.002810,0.002932,0.147718,0.013109,   2.131
   243.0,0.002812,0.002933,0.147823,0.013074,   2.134
   243.2,0.002811,0.002940,0.147938,0.013122,   2.135
   243.4,0.002816,0.002947,0.148059,0.013136,   2.132
   243.6,0.002826,0.002952,0.148151,0.013088,   2.137
   243.8,0.002831,0.002949,0.148242,0.013122,   2.137
   244.0,0.002835,0.002958,0.148319,0.013136,   2.140
   244.2,0.002840,0.002958,0.148425,0.013101,   2.138
   244.4,0.002845,0.002963,0.148544,0.013136,   2.136
   244.6,0.002849,0.002968,0.148673,0.013149,   2.143
   244.8,0.002849,0.002972,0.148738,0.013115,   2.139
   245.0,0.002854,0.002977,0.148780,0.013149,   2.136
   245.2,0.002851,0.002982,0.148799,0.013163,   2.141
   245.4,0.002853,0.002989,0.148881,0.013128,   2.148
   245.6,0.002858,0.002993,0.148980,0.013176,   2.146
   245.8,0.002857,0.002993,0.149098,0.013176,   2.143
   246.0,0.002860,0.002998,0.149192,0.013142,   2.148
   246.2,0.002867,0.002999,0.149284,0.013176,   2.145
   246.4,0.002869,0.003003,0.149368,0.013190,   2.148
   246.6,0.002874,0.003012,0.149463,0.013169,   2.148
   246.8,0.002878,0.003015,0.149559,0.013203,   2.149
   247.0,0.002881,0.003014,0.149652,0.013182,   2.150
   247.2,0.002888,0.003020,0.149744,0.013196,   2.151
   247.4,0.002891,0.003026,0.149833,0.013182,   2.149
   247.6,0.002890,0.003029,0.149917,0.013161,   2.152
   247.8,0.002895,0.003031,0.150030,0.013196,   2.155
   248.0,0.002898,0.003036,0.150155,0.013209,   2.153
   248.2,0.002902,0.003041,0.150289,0.013188,   2.152
   248.4,0.002905,0.003044,0.150396,0.013209,   2.160
   248.6,0.002915,0.003045,0.150491,0.013209,   2.157
   248.8,0.002917,0.003044,0.150576,0.013188,   2.156
   249.0,0.002917,0.003048,0.150680,0.013223,   2.156
   249.2,0.002919,0.003053,0.150783,0.013223,   2.157
   249.4,0.002924,0.003058,0.150895,0.013202,   2.160
   249.6,0.002920,0.003062,0.150974,0.013236,   2.160
   249.8,0.002924,0.003067,0.151040,0.013223,   2.159
   250.0,0.002928,0.003070,0.151091,0.013236,   2.162
   250.2,0.002931,0.003074,0.151179,0.013202,   2.159
   250.4,0.002938,0.003074,0.151281,0.013250,   2.155
   250.6,0.002941,0.003078,0.151398,0.013236,   2.162
   250.8,0.002945,0.003086,0.151501,0.013215,   2.165
   251.0,0.002945,0.003088,0.151601,0.013215,   2.166
   251.2,0.002953,0.003086,0.151710,0.013263,   2.167
   251.4,0.002958,0.003095,0.151794,0.013242,   2.169
   251.6,0.002962,0.003100,0.151863,0.013277,   2.165
   251.8,0.002970,0.003103,0.151927,0.013277,   2.164
   252.0,0.002972,0.003111,0.151977,0.013256,   2.165
   252.2,0.002969,0.003112,0.152060,0.013290,   2.168
   252.4,0.002974,0.003119,0.152154,0.013277,   2.168
   252.6,0.002976,0.003120,0.152252,0.013242,   2.172
   252.8,0.002976,0.003123,0.152332,0.013290,   2.173
   253.0,0.002981,0.003127,0.152402,0.013290,   2.175
   253.2,0.002986,0.003132,0.152465,0.013256,   2.176
   253.4,0.002988,0.003136,0.152551,0.013317,   2.176
   253.6,0.002987,0.003139,0.152649,0.013317,   2.177
   253.8,0.002994,0.003147,0.152748,0.013296,   2.171
   254.0,0.002999,0.003150,0.152832,0.013296,   2.177
   254.2,0.002998,0.003155,0.152916,0.013296,   2.176
   254.4,0.003001,0.003156,0.152993,0.013275,   2.181
   254.6,0.003011,0.003160,0.153071,0.013275,   2.176
   254.8,0.003015,0.003161,0.153147,0.013310,   2.180
   255.0,0.003018,0.003166,0.153217,0.013289,   2.179
   255.2,0.003020,0.003171,0.153310,0.013289,   2.182
   255.4,0.003025,0.003175,0.153414,0.013310,   2.177
   255.6,0.003026,0.003183,0.153524,0.013289,   2.181
   255.8,0.003036,0.003190,0.153643,0.013289,   2.187
   256.0,0.003040,0.003194,0.153767,0.013323,   2.183
   256.2,0.003037,0.003193,0.153898,0.013302,   2.183
   256.4,0.003040,0.003195,0.153999,0.013302,   2.189
   256.6,0.003045,0.003199,0.154091,0.013350,   2.188
   256.8,0.003047,0.003201,0.154173,0.013329,   2.188
   257.0,0.003054,0.003200,0.154228,0.013329,   2.185
   257.2,0.003059,0.003201,0.154274,0.013364,   2.188
   257.4,0.003061,0.003212,0.154299,0.013343,   2.193
   257.6,0.003067,0.003216,0.154373,0.013356,   2.189
   257.8,0.003069,0.003216,0.154473,0.013391,   2.191
   258.0,0.003071,0.003221,0.154586,0.013356,   2.195
   258.2,0.003076,0.003223,0.154692,0.013370,   2.194
   258.4,0.003078,0.003224,0.154807,0.013404,   2.194
   258.6,0.003083,0.003235,0.154930,0.013383,   2.188
   258.8,0.003090,0.003240,0.155035,0.013383,   2.197
   259.0,0.003095,0.003241,0.155143,0.013418,   2.193
   259.2,0.003100,0.003250,0.155248,0.013397,   2.198
   259.4,0.003102,0.003255,0.155346,0.013397,   2.197
   259.6,0.003104,0.003258,0.155431,0.013431,   2.194
   259.8,0.003107,0.003263,0.155515,0.013431,   2.199
   260.0,0.003109,0.003268,0.155603,0.013445,   2.200
   260.2,0.003111,0.003272,0.155685,0.013445,   2.205
   260.4,0.003116,0.003276,0.155775,0.013445,   2.205
   260.6,0.003113,0.003282,0.155880,0.013458,   2.203
   260.8,0.003115,0.003283,0.155985,0.013458,   2.204
   261.0,0.003120,0.003284,0.156108,0.013458,   2.208
   261.2,0.003114,0.003289,0.156191,0.013437,   2.207
   261.4,0.003122,0.003292,0.156267,0.013437,   2.208
   261.6,0.003127,0.003296,0.156327,0.013472,   2.204
   261.8,0.003124,0.003299,0.156379,0.013437,   2.207
   262.0,0.003132,0.003302,0.156459,0.013437,   2.207
   262.2,0.003136,0.003311,0.156538,0.013472,   2.208
   262.4,0.003133,0.003316,0.156622,0.013451,   2.206
   262.6,0.003143,0.003318,0.156703,0.013464,   2.209
   262.8,0.003148,0.003324,0.156778,0.013499,   2.209
   263.0,0.003147,0.003325,0.156851,0.013478,   2.215
   263.2,0.003155,0.003324,0.156941,0.013492,   2.213
   263.4,0.003160,0.003327,0.157039,0.013513,   2.209
   263.6,0.003156,0.003329,0.157141,0.013478,   2.211
   263.8,0.003164,0.003328,0.157192,0.013492,   2.211
   264.0,0.003169,0.003333,0.157221,0.013526,   2.215
   264.2,0.003168,0.003331,0.157231,0.013505,   2.215
   264.4,0.003176,0.003339,0.157314,0.013505,   2.220
   264.6,0.003178,0.003340,0.157424,0.013540,   2.217
   264.8,0.003175,0.003345,0.157558,0.013519,   2.218
   265.0,0.003183,0.003347,0.157656,0.013519,   2.218
   265.2,0.003188,0.003346,0.157744,0.013553,   2.220
   265.4,0.003187,0.003351,0.157828,0.013532,   2.221
   265.6,0.003199,0.003358,0.157925,0.013532,   2.222
   265.8,0.003206,0.003363,0.158018,0.013567,   2.223
   266.0,0.003203,0.003366,0.158113,0.013546,   2.222
   266.2,0.003211,0.003374,0.158217,0.013546,   2.225
   266.4,0.003216,0.003376,0.158320,0.013594,   2.221
   266.6,0.003215,0.003385,0.158429,0.013573,   2.226
   266.8,0.003217,0.003391,0.158524,0.013573,   2.229
   267.0,0.003222,0.003390,0.158618,0.013607,   2.229
   267.2,0.003222,0.003396,0.158706,0.013573,   2.229
   267.4,0.003227,0.003401,0.158792,0.013573,   2.225
   267.6,0.003227,0.003404,0.158869,0.013594,   2.224
   267.8,0.003224,0.003403,0.158942,0.013559,   2.229
   268.0,0.003230,0.003407,0.158996,0.013573,   2.232
   268.2,0.003227,0.003408,0.159031,0.013621,   2.228
   268.4,0.003230,0.003410,0.159057,0.013600,   2.228
   268.6,0.003234,0.003415,0.159109,0.013627,   2.236
   268.8,0.003244,0.003417,0.159165,0.013613,   2.230
   269.0,0.003247,0.003422,0.159237,0.013592,   2.238
   269.2,0.003244,0.003425,0.159338,0.013627,   2.234
   269.4,0.003246,0.003425,0.159455,0.013627,   2.234
   269.6,0.003251,0.003427,0.159592,0.013627,   2.237
   269.8,0.003248,0.003430,0.159699,0.013627,   2.236
   270.0,0.003258,0.003428,0.159808,0.013592,   2.238
   270.2,0.003262,0.003431,0.159905,0.013627,   2.237
   270.4,0.003259,0.003436,0.160000,0.013640,   2.240
   270.6,0.003265,0.003438,0.160086,0.013606,   2.238
   270.8,0.003269,0.003447,0.160163,0.013640,   2.240
   271.0,0.003269,0.003450,0.160246,0.013619,   2.244
   271.2,0.003276,0.003452,0.160324,0.013654,   2.245
   271.4,0.003281,0.003457,0.160397,0.013654,   2.244
   271.6,0.003280,0.003463,0.160471,0.013633,   2.249
   271.8,0.003288,0.003466,0.160564,0.013667,   2.245
   272.0,0.003290,0.003467,0.160656,0.013667,   2.249
   272.2,0.003287,0.003474,0.160760,0.013646,   2.248
   272.4,0.003295,0.003471,0.160846,0.013681,   2.240
   272.6,0.003300,0.003476,0.160925,0.013681,   2.251
   272.8,0.003299,0.003480,0.160993,0.013646,   2.248
   273.0,0.003307,0.003479,0.161085,0.013681,   2.249
   273.2,0.003312,0.003484,0.161181,0.013681,   2.249
   273.4,0.003311,0.003495,0.161283,0.013660,   2.250
   273.6,0.003319,0.003499,0.161320,0.013708,   2.252
   273.8,0.003323,0.003500,0.161331,0.013708,   2.248
   274.0,0.003322,0.003502,0.161318,0.013687,   2.251
   274.2,0.003325,0.003505,0.161402,0.013748,   2.252
   274.4,0.003330,0.003508,0.161520,0.013735,   2.252
   274.6,0.003334,0.003516,0.161676,0.013714,   2.254
   274.8,0.003341,0.003517,0.161778,0.013748,   2.259
   275.0,0.003348,0.003525,0.161869,0.013748,   2.261
   275.2,0.003353,0.003528,0.161950,0.013727,   2.260
   275.4,0.003355,0.003530,0.162013,0.013762,   2.257
   275.6,0.003360,0.003535,0.162065,0.013762,   2.260
   275.8,0.003365,0.003544,0.162101,0.013741,   2.258
   276.0,0.003367,0.003548,0.162146,0.013789,   2.262
   276.2,0.003369,0.003552,0.162192,0.013789,   2.261
   276.4,0.003372,0.003552,0.162236,0.013782,   2.259
   276.6,0.003374,0.003549,0.162332,0.013782,   2.262
   276.8,0.003379,0.003554,0.162450,0.013782,   2.264
   277.0,0.003376,0.003559,0.162604,0.013761,   2.259
   277.2,0.003378,0.003561,0.162732,0.013774,   2.259
   277.4,0.003383,0.003562,0.162863,0.013795,   2.266
   277.6,0.003385,0.003564,0.163001,0.013761,   2.260
   277.8,0.003395,0.003572,0.163110,0.013774,   2.263
   278.0,0.003397,0.003572,0.163205,0.013809,   2.265
   278.2,0.003400,0.003572,0.163289,0.013774,   2.265
   278.4,0.003400,0.003572,0.163379,0.013788,   2.266
   278.6,0.003397,0.003572,0.163473,0.013822,   2.271
   278.8,0.003400,0.003576,0.163562,0.013788,   2.269
   279.0,0.003400,0.003579,0.163650,0.013801,   2.270
   279.2,0.003402,0.003584,0.163738,0.013822,   2.272
   279.4,0.003404,0.003584,0.163824,0.013788,   2.272
   279.6,0.003404,0.003586,0.163905,0.013801,   2.271
   279.8,0.003404,0.003589,0.163981,0.013822,   2.275
   280.0,0.003409,0.003589,0.164050,0.013822,   2.276
   280.2,0.003411,0.003592,0.164140,0.013801,   2.275
   280.4,0.003414,0.003595,0.164235,0.013836,   2.275
   280.6,0.003416,0.003597,0.164342,0.013836,   2.275
   280.8,0.003421,0.003601,0.164411,0.013801,   2.279
   281.0,0.003418,0.003602,0.164470,0.013836,   2.278
   281.2,0.003415,0.003604,0.164516,0.013849,   2.276
   281.4,0.003418,0.003602,0.164549,0.013828,   2.279
   281.6,0.003415,0.003606,0.164629,0.013828,   2.277
   281.8,0.003414,0.003611,0.164723,0.013849,   2.279
   282.0,0.003419,0.003616,0.164827,0.013828,   2.280
   282.2,0.003422,0.003619,0.164912,0.013842,   2.280
   282.4,0.003419,0.003619,0.164996,0.013876,   2.287
   282.6,0.003424,0.003622,0.165075,0.013855,   2.280
   282.8,0.003422,0.003622,0.165168,0.013855,   2.283
   283.0,0.003416,0.003622,0.165262,0.013890,   2.286
   283.2,0.003424,0.003625,0.165361,0.013869,   2.285
   283.4,0.003426,0.003625,0.165356,0.013869,   2.288
   283.6,0.003423,0.003625,0.165304,0.013869,   2.289
   283.8,0.003429,0.003627,0.165199,0.013882,   2.289
   284.0,0.003431,0.003627,0.165256,0.013896,   2.288
   284.2,0.003428,0.003632,0.165378,0.013882,   2.288
   284.4,0.003433,0.003630,0.165554,0.013882,   2.293
   284.6,0.003436,0.003634,0.165656,0.013896,   2.284
   284.8,0.003435,0.003631,0.165753,0.013882,   2.292
   285.0,0.003443,0.003633,0.165848,0.013882,   2.298
   285.2,0.003445,0.003633,0.165945,0.013896,   2.294
   285.4,0.003444,0.003631,0.166047,0.013896,   2.291
   285.6,0.003452,0.003638,0.166148,0.013896,   2.296
   285.8,0.003452,0.003644,0.166250,0.013909,   2.296
   286.0,0.003449,0.003646,0.166353,0.013909,   2.293
   286.2,0.003454,0.003646,0.166462,0.013923,   2.298
   286.4,0.003457,0.003650,0.166543,0.013923,   2.296
   286.6,0.003454,0.003653,0.166608,0.013923,   2.300
   286.8,0.003459,0.003651,0.166666,0.013936,   2.297
   287.0,0.003461,0.003657,0.166745,0.013923,   2.298
   287.2,0.003458,0.003660,0.166823,0.013923,   2.303
   287.4,0.003466,0.003662,0.166909,0.013936,   2.300
   287.6,0.003466,0.003669,0.167003,0.013936,   2.301
   287.8,0.003468,0.003669,0.167101,0.013936,   2.300
   288.0,0.003465,0.003665,0.167205,0.013950,   2.297
   288.2,0.003473,0.003669,0.167286,0.013950,   2.300
   288.4,0.003475,0.003671,0.167357,0.013950,   2.309
   288.6,0.003475,0.003667,0.167415,0.013964,   2.307
   288.8,0.003478,0.003671,0.167495,0.013964,   2.305
   289.0,0.003472,0.003672,0.167590,0.013964,   2.306
   289.2,0.003469,0.003669,0.167686,0.013977,   2.305
   289.4,0.003475,0.003667,0.167746,0.013977,   2.306
   289.6,0.003480,0.003667,0.167795,0.013977,   2.303
   289.8,0.003477,0.003670,0.167829,0.013977,   2.314
   290.0,0.003482,0.003671,0.167868,0.013991,   2.311
   290.2,0.003482,0.003667,0.167901,0.013956,   2.309
   290.4,0.003482,0.003675,0.167928,0.013991,   2.312
   290.6,0.003489,0.003679,0.168001,0.013970,   2.312
   290.8,0.003494,0.003680,0.168086,0.013956,   2.311
   291.0,0.003499,0.003683,0.168190,0.014004,   2.312
   291.2,0.003501,0.003685,0.168268,0.013970,   2.314
   291.4,0.003509,0.003688,0.168338,0.013983,   2.313
   291.6,0.003506,0.003693,0.168408,0.013983,   2.320
   291.8,0.003508,0.003697,0.168472,0.013949,   2.315
   292.0,0.003508,0.003698,0.168560,0.013962,   2.317
   292.2,0.003507,0.003704,0.168655,0.013997,   2.318
   292.4,0.003518,0.003705,0.168754,0.014010,   2.315
   292.6,0.003518,0.003705,0.168833,0.014024,   2.318
   292.8,0.003514,0.003708,0.168905,0.014024,   2.317
   293.0,0.003520,0.003708,0.168963,0.014037,   2.320
   293.2,0.003520,0.003709,0.169037,0.014037,   2.317
   293.4,0.003519,0.003707,0.169120,0.014024,   2.320
   293.6,0.003525,0.003712,0.169195,0.014037,   2.322
   293.8,0.003527,0.003716,0.169278,0.014037,   2.327
   294.0,0.003526,0.003717,0.169379,0.014037,   2.321
   294.2,0.003534,0.003719,0.169478,0.014051,   2.323
   294.4,0.003536,0.003725,0.169566,0.014051,   2.328
   294.6,0.003533,0.003727,0.169662,0.014051,   2.328
   294.8,0.003533,0.003727,0.169755,0.014064,   2.327
   295.0,0.003533,0.003728,0.169825,0.014064,   2.327
   295.2,0.003530,0.003730,0.169889,0.014064,   2.332
   295.4,0.003532,0.003732,0.169948,0.014064,   2.329
   295.6,0.003538,0.003730,0.170009,0.014064,   2.331
   295.8,0.003535,0.003726,0.170065,0.014064,   2.332
   296.0,0.003535,0.003728,0.170121,0.014078,   2.334
   296.2,0.003540,0.003728,0.170196,0.014078,   2.334
   296.4,0.003537,0.003728,0.170283,0.014078,   2.334
   296.6,0.003537,0.003726,0.170376,0.014091,   2.334
   296.8,0.003543,0.003728,0.170466,0.014105,   2.333
   297.0,0.003539,0.003734,0.170560,0.014091,   2.334
   297.2,0.003539,0.003736,0.170654,0.014091,   2.334
   297.4,0.003543,0.003735,0.170721,0.014105,   2.339
   297.6,0.003543,0.003735,0.170788,0.014091,   2.338
   297.8,0.003539,0.003737,0.170836,0.014091,   2.342
   298.0,0.003539,0.003740,0.170900,0.014105,   2.342
   298.2,0.003545,0.003740,0.170975,0.014105,   2.343
   298.4,0.003547,0.003738,0.171049,0.014105,   2.343
   298.6,0.003550,0.003737,0.171112,0.014118,   2.343
   298.8,0.003552,0.003741,0.171176,0.014118,   2.339
   299.0,0.003549,0.003743,0.171232,0.014132,   2.344
   299.2,0.003549,0.003742,0.171318,0.014132,   2.337
   299.4,0.003557,0.003742,0.171409,0.014132,   2.344
   299.6,0.003554,0.003743,0.171518,0.014132,   2.342
   299.8,0.003554,0.003748,0.171598,0.014146,   2.342
   300.0,0.003561,0.003749,0.171662,0.014132,   2.343
   300.2,0.003556,0.003742,0.171712,0.014132,   2.346
   300.4,0.003554,0.003744,0.171773,0.014111,   2.347
   300.6,0.003557,0.003746,0.171832,0.014146,   2.352
   300.8,0.003554,0.003746,0.171882,0.014146,   2.347
   301.0,0.003551,0.003748,0.171935,0.014159,   2.349
   301.2,0.003557,0.003748,0.171981,0.014159,   2.349
   301.4,0.003554,0.003746,0.172027,0.014159,   2.351
   301.6,0.003554,0.003747,0.172067,0.014173,   2.351
   301.8,0.003554,0.003745,0.172137,0.014173,   2.353
   302.0,0.003553,0.003749,0.172213,0.014173,   2.352
   302.2,0.003555,0.003752,0.172300,0.014186,   2.353
   302.4,0.003555,0.003752,0.172372,0.014186,   2.352
   302.6,0.003552,0.003759,0.172455,0.014173,   2.353
   302.8,0.003562,0.003761,0.172535,0.014186,   2.354
   303.0,0.003565,0.003760,0.172608,0.014186,   2.353
   303.2,0.003562,0.003762,0.172679,0.014173,   2.358
   303.4,0.003570,0.003756,0.172745,0.014186,   2.356
   303.6,0.003570,0.003756,0.172807,0.014186,   2.355
   303.8,0.003567,0.003755,0.172871,0.014186,   2.356
   304.0,0.003575,0.003757,0.172932,0.014200,   2.359
   304.2,0.003575,0.003758,0.173015,0.014200,   2.358
   304.4,0.003572,0.003760,0.173109,0.014200,   2.362
   304.6,0.003577,0.003760,0.173208,0.014213,   2.362
   304.8,0.003575,0.003765,0.173277,0.014227,   2.367
   305.0,0.003574,0.003764,0.173336,0.014213,   2.361
   305.2,0.003582,0.003770,0.173379,0.014213,   2.359
   305.4,0.003584,0.003769,0.173436,0.014227,   2.364
   305.6,0.003583,0.003771,0.173499,0.014227,   2.364
   305.8,0.003591,0.003773,0.173572,0.014227,   2.365
   306.0,0.003591,0.003778,0.173638,0.014240,   2.363
   306.2,0.003590,0.003780,0.173702,0.014240,   2.367
   306.4,0.003600,0.003781,0.173767,0.014254,   2.364
   306.6,0.003603,0.003784,0.173842,0.014254,   2.370
   306.8,0.003600,0.003786,0.173933,0.014254,   2.369
   307.0,0.003610,0.003789,0.174021,0.014267,   2.367
   307.2,0.003607,0.003794,0.174097,0.014267,   2.369
   307.4,0.003607,0.003790,0.174181,0.014267,   2.373
   307.6,0.003607,0.003792,0.174253,0.014281,   2.374
   307.8,0.003610,0.003793,0.174324,0.014281,   2.374
   308.0,0.003610,0.003793,0.174402,0.014281,   2.372
   308.2,0.003607,0.003792,0.174471,0.014295,   2.371
   308.4,0.003610,0.003800,0.174539,0.014260,   2.373
   308.6,0.003610,0.003803,0.174611,0.014260,   2.373
   308.8,0.003607,0.003805,0.174683,0.014274,   2.373
   309.0,0.003614,0.003809,0.174702,0.014239,   2.378
   309.2,0.003617,0.003811,0.174692,0.014274,   2.378
   309.4,0.003616,0.003808,0.174664,0.014274,   2.380
   309.6,0.003621,0.003809,0.174724,0.014253,   2.375
   309.8,0.003621,0.003810,0.174821,0.014274,   2.379
   310.0,0.003618,0.003811,0.174952,0.014287,   2.382
   310.2,0.003628,0.003811,0.175049,0.014287,   2.379
   310.4,0.003628,0.003813,0.175150,0.014301,   2.381
   310.6,0.003625,0.003816,0.175254,0.014301,   2.383
   310.8,0.003628,0.003818,0.175331,0.014301,   2.382
   311.0,0.003630,0.003820,0.175389,0.014280,   2.381
   311.2,0.003629,0.003823,0.175439,0.014314,   2.385
   311.4,0.003632,0.003828,0.175475,0.014314,   2.386
   311.6,0.003642,0.003829,0.175551,0.014293,   2.384
   311.8,0.003639,0.003828,0.175638,0.014328,   2.387
   312.0,0.003641,0.003832,0.175734,0.014341,   2.385
   312.2,0.003644,0.003831,0.175805,0.014307,   2.389
   312.4,0.003641,0.003833,0.175868,0.014341,   2.389
   312.6,0.003641,0.003834,0.175928,0.014355,   2.387
   312.8,0.003646,0.003834,0.175968,0.014320,   2.389
   313.0,0.003643,0.003837,0.175999,0.014355,   2.391
   313.2,0.003641,0.003835,0.176017,0.014368,   2.387
   313.4,0.003646,0.003834,0.176077,0.014320,   2.393
   313.6,0.003643,0.003836,0.176157,0.014341,   2.395
   313.8,0.003646,0.003835,0.176246,0.014355,   2.390
   314.0,0.003653,0.003836,0.176348,0.014320,   2.391
   314.2,0.003650,0.003835,0.176464,0.014355,   2.389
   314.4,0.003650,0.003840,0.176590,0.014368,   2.396
   314.6,0.003653,0.003845,0.176676,0.014334,   2.390
   314.8,0.003650,0.003849,0.176739,0.014368,   2.397
   315.0,0.003650,0.003845,0.176785,0.014382,   2.395
   315.2,0.003656,0.003847,0.176852,0.014334,   2.395
   315.4,0.003653,0.003845,0.176916,0.014368,   2.397
   315.6,0.003653,0.003841,0.176975,0.014382,   2.393
   315.8,0.003653,0.003837,0.177047,0.014347,   2.401
   316.0,0.003653,0.003835,0.177117,0.014382,   2.398
   316.2,0.003653,0.003835,0.177197,0.014396,   2.397
   316.4,0.003648,0.003835,0.177271,0.014361,   2.403
   316.6,0.003643,0.003829,0.177344,0.014382,   2.404
   316.8,0.003640,0.003830,0.177418,0.014396,   2.403
   317.0,0.003638,0.003832,0.177476,0.014361,   2.405
   317.2,0.003638,0.003830,0.177532,0.014396,   2.405
   317.4,0.003638,0.003830,0.177580,0.014409,   2.403
   317.6,0.003636,0.003831,0.177653,0.014375,   2.404
   317.8,0.003639,0.003829,0.177739,0.014375,   2.406
   318.0,0.003639,0.003827,0.177842,0.014388,   2.403
   318.2,0.003639,0.003826,0.177913,0.014402,   2.408
   318.4,0.003644,0.003822,0.177973,0.014388,   2.408
   318.6,0.003641,0.003824,0.178026,0.014388,   2.410
   318.8,0.003641,0.003829,0.178090,0.014402,   2.407
   319.0,0.003646,0.003827,0.178156,0.014402,   2.407
   319.2,0.003643,0.003825,0.178220,0.014415,   2.413
   319.4,0.003646,0.003831,0.178283,0.014415,   2.409
   319.6,0.003653,0.003831,0.178344,0.014415,   2.412
   319.8,0.003653,0.003831,0.178402,0.014415,   2.413
   320.0,0.003653,0.003834,0.178457,0.014429,   2.411
   320.2,0.003658,0.003833,0.178508,0.014429,   2.408
   320.4,0.003655,0.003835,0.178561,0.014415,   2.417
   320.6,0.003655,0.003832,0.178603,0.014415,   2.414
   320.8,0.003653,0.003828,0.178642,0.014429,   2.416
   321.0,0.003647,0.003834,0.178669,0.014415,   2.416
   321.2,0.003650,0.003834,0.178696,0.014429,   2.420
   321.4,0.003650,0.003832,0.178764,0.014429,   2.419
   321.6,0.003644,0.003836,0.178850,0.014429,   2.420
   321.8,0.003649,0.003837,0.178941,0.014442,   2.418
   322.0,0.003654,0.003837,0.179018,0.014442,   2.417
   322.2,0.003654,0.003835,0.179093,0.014442,   2.416
   322.4,0.003657,0.003833,0.179160,0.014456,   2.421
   322.6,0.003654,0.003832,0.179226,0.014456,   2.420
   322.8,0.003657,0.003832,0.179290,0.014456,   2.420
   323.0,0.003657,0.003830,0.179348,0.014469,   2.419
   323.2,0.003657,0.003831,0.179418,0.014469,   2.424
   323.4,0.003659,0.003827,0.179494,0.014469,   2.421
   323.6,0.003661,0.003827,0.179583,0.014483,   2.422
   323.8,0.003664,0.003831,0.179651,0.014483,   2.421
   324.0,0.003666,0.003829,0.179718,0.014483,   2.424
   324.2,0.003664,0.003831,0.179783,0.014497,   2.424
   324.4,0.003659,0.003831,0.179848,0.014497,   2.422
   324.6,0.003661,0.003831,0.179917,0.014497,   2.424
   324.8,0.003661,0.003831,0.179986,0.014510,   2.426
   325.0,0.003661,0.003833,0.180042,0.014510,   2.429
   325.2,0.003664,0.003835,0.180086,0.014497,   2.426
   325.4,0.003664,0.003835,0.180130,0.014497,   2.421
   325.6,0.003664,0.003837,0.180202,0.014510,   2.429
   325.8,0.003666,0.003842,0.180287,0.014524,   2.427
   326.0,0.003666,0.003841,0.180383,0.014524,   2.432
   326.2,0.003666,0.003841,0.180438,0.014524,   2.430
   326.4,0.003666,0.003845,0.180487,0.014524,   2.434
   326.6,0.003666,0.003844,0.180519,0.014524,   2.431
   326.8,0.003666,0.003842,0.180527,0.014524,   2.431
   327.0,0.003666,0.003838,0.180520,0.014524,   2.436
   327.2,0.003663,0.003834,0.180485,0.014524,   2.436
   327.4,0.003661,0.003839,0.180540,0.014524,   2.436
   327.6,0.003661,0.003839,0.180636,0.014524,   2.435
   327.8,0.003658,0.003836,0.180760,0.014524,   2.437
   328.0,0.003663,0.003840,0.180848,0.014524,   2.435
   328.2,0.003665,0.003842,0.180935,0.014524,   2.434
   328.4,0.003668,0.003842,0.181015,0.014537,   2.438
   328.6,0.003665,0.003840,0.181092,0.014537,   2.441
   328.8,0.003660,0.003842,0.181163,0.014551,   2.441
   329.0,0.003662,0.003842,0.181230,0.014564,   2.439
   329.2,0.003667,0.003843,0.181311,0.014530,   2.440
   329.4,0.003669,0.003845,0.181404,0.014530,   2.443
   329.6,0.003672,0.003843,0.181500,0.014530,   2.442
   329.8,0.003672,0.003843,0.181550,0.014495,   2.442
   330.0,0.003669,0.003843,0.181591,0.014543,   2.445
   330.2,0.003672,0.003842,0.181607,0.014543,   2.446
   330.4,0.003674,0.003844,0.181657,0.014557,   2.445
   330.6,0.003674,0.003842,0.181718,0.014557,   2.445
   330.8,0.003676,0.003837,0.181777,0.014557,   2.443
   331.0,0.003676,0.003839,0.181850,0.014570,   2.443
   331.2,0.003676,0.003837,0.181903,0.014536,   2.447
   331.4,0.003676,0.003836,0.181956,0.014570,   2.451
   331.6,0.003676,0.003840,0.182014,0.014584,   2.446
   331.8,0.003676,0.003842,0.182079,0.014549,   2.446
   332.0,0.003676,0.003840,0.182152,0.014584,   2.448
   332.2,0.003676,0.003843,0.182225,0.014598,   2.450
   332.4,0.003676,0.003847,0.182209,0.014577,   2.450
   332.6,0.003679,0.003850,0.182148,0.014598,   2.449
   332.8,0.003681,0.003854,0.182045,0.014598,   2.447
   333.0,0.003681,0.003855,0.182098,0.014577,   2.451
   333.2,0.003683,0.003853,0.182207,0.014611,   2.451
   333.4,0.003680,0.003849,0.182372,0.014611,   2.450
   333.6,0.003678,0.003845,0.182484,0.014577,   2.456
   333.8,0.003678,0.003847,0.182601,0.014611,   2.454
   334.0,0.003678,0.003844,0.182718,0.014611,   2.454
   334.2,0.003683,0.003844,0.182804,0.014590,   2.456
   334.4,0.003683,0.003840,0.182878,0.014625,   2.460
   334.6,0.003686,0.003846,0.182935,0.014638,   2.460
   334.8,0.003686,0.003846,0.182969,0.014604,   2.456
   335.0,0.003686,0.003842,0.182987,0.014638,   2.456
   335.2,0.003688,0.003846,0.182992,0.014652,   2.461
   335.4,0.003686,0.003844,0.183053,0.014604,   2.460
   335.6,0.003688,0.003840,0.183126,0.014638,   2.461
   335.8,0.003685,0.003846,0.183231,0.014652,   2.460
   336.0,0.003685,0.003848,0.183319,0.014617,   2.463
   336.2,0.003687,0.003845,0.183415,0.014652,   2.462
   336.4,0.003682,0.003849,0.183512,0.014631,   2.463
   336.6,0.003687,0.003850,0.183580,0.014644,   2.460
   336.8,0.003687,0.003846,0.183646,0.014644,   2.463
   337.0,0.003690,0.003849,0.183690,0.014623,   2.461
   337.2,0.003690,0.003851,0.183761,0.014658,   2.460
   337.4,0.003690,0.003852,0.183851,0.014644,   2.468
   337.6,0.003687,0.003849,0.183938,0.014623,   2.467
   337.8,0.003692,0.003846,0.184008,0.014658,   2.470
   338.0,0.003694,0.003848,0.184067,0.014658,   2.470
   338.2,0.003691,0.003856,0.184122,0.014637,   2.470
   338.4,0.003696,0.003856,0.184202,0.014671,   2.465
   338.6,0.003696,0.003854,0.184284,0.014671,   2.470
   338.8,0.003693,0.003856,0.184381,0.014671,   2.471
   339.0,0.003701,0.003854,0.184464,0.014671,   2.470
   339.2,0.003701,0.003850,0.184539,0.014685,   2.473
   339.4,0.003698,0.003857,0.184617,0.014671,   2.475
   339.6,0.003703,0.003856,0.184671,0.014685,   2.472
   339.8,0.003703,0.003856,0.184708,0.014685,   2.475
   340.0,0.003700,0.003857,0.184738,0.014650,   2.480
   340.2,0.003703,0.003859,0.184780,0.014616,   2.478
   340.4,0.003703,0.003856,0.184827,0.014629,   2.475
   340.6,0.003700,0.003857,0.184873,0.014664,   2.477
   340.8,0.003703,0.003857,0.184921,0.014629,   2.475
   341.0,0.003701,0.003855,0.184974,0.014643,   2.475
   341.2,0.003698,0.003853,0.185028,0.014678,   2.477
   341.4,0.003698,0.003857,0.185079,0.014643,   2.477
   341.6,0.003698,0.003855,0.185124,0.014657,   2.476
   341.8,0.003694,0.003852,0.185163,0.014678,   2.480
   342.0,0.003692,0.003849,0.185203,0.014643,   2.480
   342.2,0.003695,0.003849,0.185186,0.014657,   2.481
   342.4,0.003692,0.003851,0.185134,0.014678,   2.483
   342.6,0.003692,0.003852,0.185057,0.014643,   2.479
   342.8,0.003695,0.003854,0.185116,0.014678,   2.483
   343.0,0.003692,0.003852,0.185222,0.014699,   2.484
   343.2,0.003690,0.003859,0.185389,0.014678,   2.484
   343.4,0.003693,0.003859,0.185486,0.014712,   2.484
   343.6,0.003690,0.003859,0.185572,0.014726,   2.485
   343.8,0.003690,0.003857,0.185650,0.014705,   2.485
   344.0,0.003690,0.003854,0.185720,0.014739,   2.484
   344.2,0.003687,0.003852,0.185776,0.014739,   2.488
   344.4,0.003692,0.003852,0.185821,0.014718,   2.482
   344.6,0.003690,0.003854,0.185880,0.014766,   2.489
   344.8,0.003687,0.003856,0.185935,0.014766,   2.490
   345.0,0.003692,0.003854,0.185997,0.014745,   2.488
   345.2,0.003692,0.003854,0.186068,0.014780,   2.486
   345.4,0.003691,0.003853,0.186149,0.014766,   2.485
   345.6,0.003694,0.003850,0.186234,0.014745,   2.481
   345.8,0.003696,0.003848,0.186300,0.014780,   2.488
   346.0,0.003693,0.003846,0.186369,0.014780,   2.493
   346.2,0.003698,0.003846,0.186429,0.014759,   2.491
   346.4,0.003701,0.003848,0.186487,0.014794,   2.491
   346.6,0.003703,0.003848,0.186546,0.014794,   2.486
   346.8,0.003705,0.003845,0.186603,0.014773,   2.491
   347.0,0.003705,0.003847,0.186667,0.014821,   2.494
   347.2,0.003708,0.003847,0.186734,0.014807,   2.496
   347.4,0.003708,0.003842,0.186797,0.014773,   2.491
   347.6,0.003705,0.003844,0.186865,0.014821,   2.491
   347.8,0.003703,0.003841,0.186930,0.014807,   2.496
   348.0,0.003698,0.003835,0.186989,0.014773,   2.494
   348.2,0.003695,0.003834,0.187055,0.014821,   2.494
   348.4,0.003696,0.003828,0.187126,0.014821,   2.497
   348.6,0.003691,0.003830,0.187195,0.014834,   2.498
   348.8,0.003695,0.003830,0.187250,0.014834,   2.497
   349.0,0.003701,0.003829,0.187306,0.014800,   2.497
   349.2,0.003695,0.003829,0.187357,0.014800,   2.500
   349.4,0.003698,0.003829,0.187404,0.014813,   2.502
   349.6,0.003701,0.003826,0.187449,0.014813,   2.498
   349.8,0.003695,0.003826,0.187499,0.014813,   2.501
   350.0,0.003701,0.003829,0.187557,0.014792,   2.501
   350.2,0.003704,0.003823,0.187617,0.014792,   2.505
   350.4,0.003698,0.003825,0.187685,0.014827,   2.507
   350.6,0.003698,0.003827,0.187755,0.014806,   2.505
   350.8,0.003696,0.003822,0.187802,0.014806,   2.498
   351.0,0.003691,0.003826,0.187839,0.014827,   2.505
   351.2,0.003693,0.003828,0.187875,0.014806,   2.502
   351.4,0.003691,0.003828,0.187944,0.014806,   2.507
   351.6,0.003691,0.003837,0.188027,0.014840,   2.513
   351.8,0.003695,0.003842,0.188124,0.014819,   2.510
   352.0,0.003695,0.003841,0.188175,0.014806,   2.510
   352.2,0.003692,0.003841,0.188212,0.014840,   2.511
   352.4,0.003692,0.003839,0.188237,0.014819,   2.511
   352.6,0.003692,0.003839,0.188285,0.014819,   2.509
   352.8,0.003689,0.003835,0.188338,0.014833,   2.510
   353.0,0.003689,0.003839,0.188397,0.014812,   2.514
   353.2,0.003695,0.003839,0.188437,0.014847,   2.508
   353.4,0.003697,0.003837,0.188468,0.014847,   2.509
   353.6,0.003697,0.003839,0.188499,0.014826,   2.511
   353.8,0.003697,0.003838,0.188542,0.014860,   2.513
   354.0,0.003699,0.003835,0.188583,0.014847,   2.513
   354.2,0.003695,0.003835,0.188631,0.014812,   2.513
   354.4,0.003692,0.003835,0.188709,0.014860,   2.514
   354.6,0.003692,0.003829,0.188797,0.014860,   2.515
   354.8,0.003690,0.003827,0.188900,0.014826,   2.520
   355.0,0.003688,0.003827,0.188966,0.014874,   2.520
   355.2,0.003690,0.003819,0.189028,0.014860,   2.518
   355.4,0.003690,0.003814,0.189080,0.014826,   2.518
   355.6,0.003692,0.003815,0.189144,0.014874,   2.515
   355.8,0.003695,0.003813,0.189217,0.014874,   2.515
   356.0,0.003692,0.003810,0.189290,0.014839,   2.519
   356.2,0.003692,0.003812,0.189346,0.014887,   2.519
   356.4,0.003692,0.003812,0.189394,0.014887,   2.523
   356.6,0.003689,0.003810,0.189433,0.014853,   2.522
   356.8,0.003689,0.003807,0.189490,0.014901,   2.523
   357.0,0.003687,0.003809,0.189549,0.014887,   2.523
   357.2,0.003684,0.003808,0.189605,0.014866,   2.522
   357.4,0.003687,0.003812,0.189664,0.014901,   2.525
   357.6,0.003687,0.003813,0.189718,0.014901,   2.522
   357.8,0.003689,0.003808,0.189772,0.014880,   2.527
   358.0,0.003684,0.003810,0.189816,0.014866,   2.527
   358.2,0.003689,0.003814,0.189845,0.014866,   2.524
   358.4,0.003692,0.003810,0.189862,0.014866,   2.529
   358.6,0.003684,0.003809,0.189866,0.014859,   2.529
   358.8,0.003687,0.003809,0.189853,0.014845,   2.526
   359.0,0.003689,0.003813,0.189828,0.014880,   2.523
   359.2,0.003682,0.003810,0.189897,0.014845,   2.528
   359.4,0.003687,0.003808,0.190010,0.014880,   2.532
   359.6,0.003689,0.003806,0.190166,0.014880,   2.531
   359.8,0.003686,0.003810,0.190246,0.014859,   2.533
   360.0,0.003691,0.003812,0.190306,0.014859,   2.537
   360.2,0.003691,0.003810,0.190351,0.014893,   2.530
   360.4,0.003691,0.003811,0.190378,0.014872,   2.532
   360.6,0.003691,0.003809,0.190425,0.014872,   2.532
   360.8,0.003691,0.003811,0.190480,0.014921,   2.533
   361.0,0.003689,0.003809,0.190529,0.014886,   2.535
   361.2,0.003686,0.003807,0.190594,0.014886,   2.543
   361.4,0.003689,0.003808,0.190660,0.014921,   2.538
   361.6,0.003689,0.003807,0.190736,0.014886,   2.537
   361.8,0.003689,0.003803,0.190798,0.014886,   2.538
   362.0,0.003691,0.003803,0.190855,0.014921,   2.537
   362.2,0.003685,0.003803,0.190903,0.014900,   2.538
   362.4,0.003683,0.003803,0.190961,0.014913,   2.540
   362.6,0.003685,0.003801,0.191029,0.014948,   2.540
   362.8,0.003680,0.003804,0.191101,0.014927,   2.542
   363.0,0.003683,0.003802,0.191165,0.014940,   2.546
   363.2,0.003685,0.003800,0.191228,0.014948,   2.542
   363.4,0.003678,0.003800,0.191293,0.014913,   2.540
   363.6,0.003681,0.003801,0.191355,0.014927,   2.547
   363.8,0.003683,0.003798,0.191415,0.014961,   2.548
   364.0,0.003681,0.003798,0.191469,0.014927,   2.545
   364.2,0.003686,0.003798,0.191536,0.014927,   2.543
   364.4,0.003689,0.003794,0.191609,0.014961,   2.546
   364.6,0.003686,0.003792,0.191684,0.014927,   2.548
   364.8,0.003686,0.003796,0.191728,0.014940,   2.549
   365.0,0.003689,0.003797,0.191766,0.014975,   2.548
   365.2,0.003681,0.003796,0.191795,0.014940,   2.548
   365.4,0.003681,0.003799,0.191848,0.014954,   2.551
   365.6,0.003678,0.003797,0.191903,0.014975,   2.551
   365.8,0.003675,0.003796,0.191976,0.014954,   2.548
   366.0,0.003675,0.003797,0.192018,0.014954,   2.547
   366.2,0.003675,0.003793,0.192062,0.014988,   2.554
   366.4,0.003675,0.003794,0.192092,0.014967,   2.551
   366.6,0.003678,0.003798,0.192146,0.014967,   2.552
   366.8,0.003678,0.003798,0.192208,0.015016,   2.552
   367.0,0.003675,0.003798,0.192282,0.014995,   2.555
   367.2,0.003677,0.003797,0.192339,0.014981,   2.557
   367.4,0.003682,0.003795,0.192389,0.015016,   2.555
   367.6,0.003681,0.003799,0.192438,0.014995,   2.557
   367.8,0.003681,0.003799,0.192506,0.014995,   2.555
   368.0,0.003686,0.003795,0.192576,0.014995,   2.556
   368.2,0.003683,0.003797,0.192652,0.015008,   2.559
   368.4,0.003683,0.003795,0.192675,0.014995,   2.558
   368.6,0.003691,0.003790,0.192677,0.015016,   2.560
   368.8,0.003688,0.003790,0.192654,0.015016,   2.558
   369.0,0.003686,0.003792,0.192713,0.014995,   2.561
   369.2,0.003691,0.003786,0.192805,0.014995,   2.563
   369.4,0.003688,0.003789,0.192935,0.015008,   2.559
   369.6,0.003688,0.003794,0.193000,0.015008,   2.560
   369.8,0.003696,0.003794,0.193043,0.015008,   2.563
   370.0,0.003690,0.003790,0.193090,0.015022,   2.563
   370.2,0.003696,0.003792,0.193109,0.015022,   2.564
   370.4,0.003701,0.003796,0.193112,0.015022,   2.563
   370.6,0.003698,0.003794,0.193100,0.015043,   2.563
   370.8,0.003698,0.003801,0.193068,0.015008,   2.567
   371.0,0.003698,0.003804,0.193128,0.015008,   2.562
   371.2,0.003695,0.003802,0.193221,0.015056,   2.564
   371.4,0.003697,0.003802,0.193347,0.015035,   2.569
   371.6,0.003700,0.003802,0.193434,0.015049,   2.567
   371.8,0.003695,0.003799,0.193516,0.015083,   2.568
   372.0,0.003697,0.003797,0.193592,0.015049,   2.568
   372.2,0.003695,0.003796,0.193662,0.015062,   2.570
   372.4,0.003687,0.003790,0.193729,0.015062,   2.573
   372.6,0.003693,0.003792,0.193792,0.015076,   2.568
   372.8,0.003690,0.003791,0.193847,0.015076,   2.569
   373.0,0.003683,0.003787,0.193907,0.015076,   2.564
   373.2,0.003686,0.003787,0.193960,0.015090,   2.569
   373.4,0.003686,0.003785,0.194007,0.015076,   2.568
   373.6,0.003680,0.003785,0.194058,0.015076,   2.575
   373.8,0.003681,0.003778,0.194110,0.015090,   2.567
   374.0,0.003676,0.003774,0.194154,0.015076,   2.573
   374.2,0.003671,0.003771,0.194198,0.015076,   2.573
   374.4,0.003674,0.003762,0.194243,0.015090,   2.579
   374.6,0.003672,0.003759,0.194235,0.015076,   2.575
   374.8,0.003664,0.003751,0.194196,0.015076,   2.575
   375.0,0.003669,0.003750,0.194124,0.015090,   2.574
   375.2,0.003669,0.003750,0.194160,0.015090,   2.575
   375.4,0.003662,0.003748,0.194233,0.015090,   2.579
   375.6,0.003659,0.003745,0.194342,0.015103,   2.582
   375.8,0.003654,0.003747,0.194429,0.015103,   2.580
   376.0,0.003654,0.003743,0.194518,0.015090,   2.580
   376.2,0.003649,0.003739,0.194619,0.015103,   2.580
   376.4,0.003644,0.003739,0.194671,0.015103,   2.582
   376.6,0.003642,0.003734,0.194714,0.015090,   2.582
   376.8,0.003642,0.003731,0.194738,0.015103,   2.582
   377.0,0.003642,0.003732,0.194787,0.015103,   2.580
   377.2,0.003642,0.003730,0.194852,0.015103,   2.583
   377.4,0.003637,0.003727,0.194930,0.015117,   2.589
   377.6,0.003637,0.003732,0.194980,0.015117,   2.586
   377.8,0.003639,0.003732,0.195025,0.015117,   2.587
   378.0,0.003636,0.003732,0.195071,0.015130,   2.587
   378.2,0.003636,0.003731,0.195136,0.015130,   2.586
   378.4,0.003644,0.003729,0.195205,0.015130,   2.585
   378.6,0.003646,0.003729,0.195285,0.015130,   2.586
   378.8,0.003644,0.003730,0.195333,0.015144,   2.587
   379.0,0.003644,0.003730,0.195363,0.015144,   2.587
   379.2,0.003646,0.003731,0.195390,0.015130,   2.591
   379.4,0.003641,0.003733,0.195429,0.015144,   2.585
   379.6,0.003643,0.003735,0.195478,0.015144,   2.593
   379.8,0.003645,0.003737,0.195525,0.015130,   2.590
   380.0,0.003638,0.003739,0.195575,0.015144,   2.591
   380.2,0.003643,0.003742,0.195632,0.015144,   2.590
   380.4,0.003645,0.003741,0.195691,0.015144,   2.590
   380.6,0.003640,0.003743,0.195754,0.015158,   2.594
   380.8,0.003648,0.003743,0.195819,0.015171,   2.593
   381.0,0.003648,0.003743,0.195881,0.015158,   2.593
   381.2,0.003642,0.003739,0.195950,0.015158,   2.595
   381.4,0.003642,0.003738,0.196009,0.015171,   2.597
   381.6,0.003642,0.003738,0.196068,0.015171,   2.594
   381.8,0.003642,0.003738,0.196122,0.015137,   2.596
   382.0,0.003642,0.003736,0.196164,0.015150,   2.593
   382.2,0.003645,0.003738,0.196198,0.015150,   2.595
   382.4,0.003645,0.003736,0.196224,0.015116,   2.594
   382.6,0.003645,0.003736,0.196280,0.015129,   2.595
   382.8,0.003647,0.003736,0.196348,0.015150,   2.597
   383.0,0.003647,0.003736,0.196420,0.015164,   2.594
   383.2,0.003645,0.003732,0.196464,0.015164,   2.597
   383.4,0.003642,0.003730,0.196508,0.015164,   2.600
   383.6,0.003637,0.003725,0.196545,0.015177,   2.600
   383.8,0.003637,0.003720,0.196592,0.015177,   2.605
   384.0,0.003635,0.003720,0.196642,0.015177,   2.602
   384.2,0.003629,0.003719,0.196704,0.015191,   2.599
   384.4,0.003635,0.003715,0.196764,0.015191,   2.602
   384.6,0.003637,0.003714,0.196824,0.015177,   2.602
   384.8,0.003637,0.003714,0.196878,0.015191,   2.601
   385.0,0.003640,0.003720,0.196946,0.015191,   2.606
   385.2,0.003642,0.003720,0.197024,0.015177,   2.606
   385.4,0.003642,0.003720,0.197100,0.015191,   2.604
   385.6,0.003642,0.003718,0.197131,0.015191,   2.605
   385.8,0.003642,0.003716,0.197146,0.015177,   2.606
   386.0,0.003642,0.003717,0.197145,0.015191,   2.609
   386.2,0.003642,0.003717,0.197178,0.015204,   2.605
   386.4,0.003642,0.003720,0.197225,0.015204,   2.607
   386.6,0.003637,0.003721,0.197288,0.015218,   2.611
   386.8,0.003639,0.003717,0.197338,0.015218,   2.608
   387.0,0.003637,0.003717,0.197392,0.015218,   2.605
   387.2,0.003637,0.003715,0.197446,0.015218,   2.608
   387.4,0.003637,0.003709,0.197503,0.015218,   2.613
   387.6,0.003632,0.003705,0.197560,0.015218,   2.613
   387.8,0.003635,0.003702,0.197614,0.015218,   2.609
   388.0,0.003624,0.003702,0.197660,0.015218,   2.614
   388.2,0.003627,0.003700,0.197694,0.015204,   2.614
   388.4,0.003630,0.003700,0.197723,0.015191,   2.617
   388.6,0.003622,0.003699,0.197765,0.015239,   2.615
   388.8,0.003627,0.003698,0.197817,0.015191,   2.616
   389.0,0.003630,0.003695,0.197864,0.015212,   2.615
   389.2,0.003622,0.003696,0.197907,0.015225,   2.618
   389.4,0.003627,0.003696,0.197947,0.015204,   2.618
   389.6,0.003624,0.003691,0.197988,0.015218,   2.618
   389.8,0.003622,0.003691,0.198035,0.015197,   2.616
   390.0,0.003622,0.003693,0.198091,0.015197,   2.618
   390.2,0.003619,0.003691,0.198146,0.015232,   2.617
   390.4,0.003617,0.003692,0.198209,0.015245,   2.620
   390.6,0.003617,0.003690,0.198243,0.015259,   2.622
   390.8,0.003614,0.003686,0.198264,0.015245,   2.617
   391.0,0.003614,0.003686,0.198285,0.015245,   2.618
   391.2,0.003619,0.003688,0.198317,0.015259,   2.615
   391.4,0.003616,0.003686,0.198352,0.015245,   2.624
   391.6,0.003616,0.003686,0.198386,0.015245,   2.624
   391.8,0.003619,0.003682,0.198437,0.015259,   2.621
   392.0,0.003616,0.003680,0.198502,0.015259,   2.619
   392.2,0.003616,0.003677,0.198573,0.015259,   2.623
   392.4,0.003619,0.003673,0.198634,0.015238,   2.623
   392.6,0.003616,0.003671,0.198700,0.015238,   2.626
   392.8,0.003616,0.003673,0.198770,0.015251,   2.625
   393.0,0.003619,0.003674,0.198815,0.015217,   2.625
   393.2,0.003614,0.003674,0.198849,0.015251,   2.627
   393.4,0.003614,0.003675,0.198881,0.015265,   2.632
   393.6,0.003609,0.003675,0.198932,0.015217,   2.631
   393.8,0.003604,0.003673,0.198988,0.015251,   2.622
   394.0,0.003611,0.003673,0.199060,0.015265,   2.628
   394.2,0.003609,0.003672,0.199108,0.015230,   2.630
   394.4,0.003606,0.003668,0.199153,0.015265,   2.634
   394.6,0.003611,0.003671,0.199197,0.015279,   2.632
   394.8,0.003611,0.003675,0.199260,0.015244,   2.633
   395.0,0.003608,0.003673,0.199326,0.015265,   2.630
   395.2,0.003614,0.003671,0.199397,0.015279,   2.632
   395.4,0.003616,0.003672,0.199452,0.015244,   2.631
   395.6,0.003613,0.003670,0.199494,0.015279,   2.630
   395.8,0.003618,0.003668,0.199528,0.015292,   2.629
