Run Name,50
Run Date,02:32:57 PM   03-22-12
Method Name,Group 6 lilly.3
Export Format Version, 1.00
Method ID, 1425
Points/Second, 5.00
Number of Records,   3466
Offset from Run Start Time,00:00:00
Run End Time,00:11:36
Time,Second
QuadTec 1, (280.0 nm), AU
QuadTec 2, (260.0 nm), AU
Gradient Pump,<Not Selected>
QuadTec 3, (214.0 nm), AU
QuadTec 4, (405.0 nm), AU
Conductivity,mS/cm
Trace 6,<Not Available>
GP Pressure,<Not Selected>
Volume,<Not Selected>
Fraction,<Not Available>
Time,QuadTec 1,QuadTec 2,QuadTec 3,QuadTec 4,Conductivity
     0.0,-0.166656,-0.361350,0.068583,0.000000,  46.915
     0.2,-0.166654,-0.361345,0.068583,0.000000,  46.911
     0.4,-0.166656,-0.361343,0.068583,0.000000,  46.914
     0.6,-0.166654,-0.361349,0.068583,0.000000,  46.919
     0.8,-0.166651,-0.361342,0.000000,0.000000,  46.921
     1.0,-0.166648,-0.361338,0.000000,0.000000,  46.918
     1.2,-0.166646,-0.361342,0.000000,0.000000,  46.915
     1.4,-0.166643,-0.361338,0.000000,0.000000,  46.917
     1.6,-0.166640,-0.361332,0.000000,0.000000,  46.916
     1.8,-0.166640,-0.361327,0.000000,0.000000,  46.918
     2.0,-0.166640,-0.361323,0.000000,0.000000,  46.916
     2.2,-0.166640,-0.361323,0.000000,0.000000,  46.915
     2.4,-0.166638,-0.361323,0.000000,0.000000,  46.918
     2.6,-0.166635,-0.361324,0.000000,0.000000,  46.919
     2.8,-0.166635,-0.361321,0.000000,0.000000,  46.922
     3.0,-0.167109,-0.361313,0.000000,0.000000,  46.921
     3.2,-0.167114,0.000000,0.000000,0.000000,  46.920
     3.4,-0.167105,0.000000,0.000000,0.000000,  46.918
     3.6,-0.166853,0.000000,0.000000,0.000000,  46.921
     3.8,0.000000,0.000000,0.000000,0.000000,  46.924
     4.0,0.000000,0.000000,0.000000,0.000000,  46.921
     4.2,0.000000,0.000000,0.000000,0.000000,  46.923
     4.4,0.000000,0.000000,0.000000,0.000000,  46.926
     4.6,0.000000,0.000000,0.000084,-0.000049,  46.925
     4.8,0.000000,0.000000,0.000209,-0.000013,  46.925
     5.0,0.000000,0.000000,0.000235,-0.000013,  46.929
     5.2,0.000000,0.000000,0.000159,-0.000049,  46.930
     5.4,0.000000,0.000000,-0.000010,-0.000036,  46.928
     5.6,0.000000,0.000000,-0.000274,-0.000023,  46.929
     5.8,0.000000,0.000000,-0.000631,-0.000046,  46.929
     6.0,0.000000,0.000000,-0.000650,-0.000033,  46.922
     6.2,0.000000,0.000000,-0.000552,-0.000046,  46.926
     6.4,0.000000,0.000000,-0.000332,-0.000082,  46.926
     6.6,0.000000,0.000000,-0.000261,-0.000069,  46.931
     6.8,0.000000,0.000000,-0.000216,-0.000033,  46.927
     7.0,0.000000,0.000000,-0.000198,-0.000056,  46.933
     7.2,0.000000,0.000000,-0.000152,-0.000056,  46.930
     7.4,0.000000,0.000000,-0.000099,-0.000019,  46.931
     7.6,0.000000,0.000000,-0.000040,-0.000042,  46.932
     7.8,-0.000001,0.000006,-0.000039,-0.000056,  46.935
     8.0,-0.000007,0.000008,-0.000064,-0.000019,  46.932
     8.2,-0.000010,0.000004,-0.000092,-0.000042,  46.935
     8.4,-0.000004,0.000004,-0.000099,-0.000056,  46.932
     8.6,-0.000007,-0.000001,-0.000113,-0.000019,  46.933
     8.8,-0.000005,0.000005,-0.000128,-0.000042,  46.935
     9.0,0.000004,0.000009,-0.000237,-0.000042,  46.938
     9.2,0.000001,0.000006,-0.000411,-0.000029,  46.936
     9.4,0.000001,0.000007,-0.000630,-0.000052,  46.940
     9.6,0.000004,0.000010,-0.000630,-0.000016,  46.937
     9.8,0.000001,0.000009,-0.000546,-0.000016,  46.938
    10.0,0.000001,0.000009,-0.000384,-0.000039,  46.935
    10.2,0.000007,0.000007,-0.000292,-0.000003,  46.939
    10.4,0.000003,0.000011,-0.000187,-0.000016,  46.939
    10.6,0.000009,0.000015,-0.000087,-0.000039,  46.938
    10.8,0.000016,0.000017,-0.000033,-0.000039,  46.942
    11.0,0.000012,0.000019,0.000005,-0.000052,  46.941
    11.2,0.000018,0.000017,0.000016,-0.000075,  46.943
    11.4,0.000022,0.000023,0.000049,-0.000075,  46.943
    11.6,0.000018,0.000019,0.000075,-0.000039,  46.943
    11.8,0.000018,0.000013,0.000101,-0.000039,  46.944
    12.0,0.000022,0.000021,0.000141,-0.000039,  46.938
    12.2,0.000018,0.000023,0.000174,-0.000026,  46.944
    12.4,0.000018,0.000021,0.000207,-0.000026,  46.947
    12.6,0.000025,0.000019,0.000195,-0.000062,  46.947
    12.8,0.000025,0.000021,0.000156,-0.000013,  46.949
    13.0,0.000027,0.000023,0.000096,-0.000026,  46.944
    13.2,0.000030,0.000023,0.000064,-0.000062,  46.945
    13.4,0.000036,0.000023,0.000043,-0.000062,  46.946
    13.6,0.000033,0.000025,0.000012,-0.000026,  46.946
    13.8,0.000036,0.000025,-0.000015,-0.000062,  46.945
    14.0,0.000036,0.000025,0.000019,-0.000062,  46.949
    14.2,0.000030,0.000031,0.000066,-0.000026,  46.948
    14.4,0.000039,0.000031,0.000145,-0.000062,  46.947
    14.6,0.000036,0.000031,0.000172,-0.000049,  46.947
    14.8,0.000030,0.000038,0.000198,0.000001,  46.948
    15.0,0.000039,0.000038,0.000205,-0.000036,  46.947
    15.2,0.000036,0.000036,0.000185,-0.000022,  46.945
    15.4,0.000030,0.000029,0.000133,0.000014,  46.949
    15.6,0.000039,0.000032,0.000067,-0.000022,  46.952
    15.8,0.000036,0.000039,-0.000045,-0.000009,  46.948
    16.0,0.000036,0.000036,-0.000213,0.000014,  46.946
    16.2,0.000039,0.000036,-0.000419,-0.000009,  46.951
    16.4,0.000045,0.000040,-0.000388,-0.000009,  46.950
    16.6,0.000048,0.000040,-0.000264,-0.000009,  46.945
    16.8,0.000041,0.000042,-0.000043,-0.000009,  46.950
    17.0,0.000050,0.000044,0.000036,-0.000009,  46.947
    17.2,0.000053,0.000039,0.000102,-0.000022,  46.949
    17.4,0.000047,0.000042,0.000164,-0.000009,  46.950
    17.6,0.000056,0.000047,0.000216,-0.000009,  46.951
    17.8,0.000058,0.000042,0.000249,-0.000009,  46.955
    18.0,0.000056,0.000047,0.000268,0.000004,  46.948
    18.2,0.000062,0.000049,0.000275,0.000004,  46.949
    18.4,0.000064,0.000051,0.000269,0.000017,  46.950
    18.6,0.000064,0.000053,0.000243,0.000030,  46.948
    18.8,0.000067,0.000051,0.000264,0.000017,  46.948
    19.0,0.000067,0.000057,0.000296,0.000004,  46.950
    19.2,0.000067,0.000059,0.000348,0.000017,  46.945
    19.4,0.000067,0.000062,0.000362,0.000030,  46.949
    19.6,0.000067,0.000069,0.000355,0.000030,  46.951
    19.8,0.000067,0.000071,0.000336,0.000044,  46.949
    20.0,0.000073,0.000068,0.000329,0.000044,  46.947
    20.2,0.000076,0.000073,0.000317,0.000030,  46.947
    20.4,0.000076,0.000073,0.000303,0.000030,  46.947
    20.6,0.000082,0.000069,0.000324,0.000008,  46.952
    20.8,0.000085,0.000067,0.000363,0.000008,  46.950
    21.0,0.000087,0.000070,0.000416,0.000021,  46.949
    21.2,0.000087,0.000070,0.000412,-0.000015,  46.949
    21.4,0.000087,0.000074,0.000405,0.000008,  46.949
    21.6,0.000084,0.000074,0.000377,0.000008,  46.949
    21.8,0.000090,0.000079,0.000338,-0.000006,  46.949
    22.0,0.000090,0.000081,0.000286,-0.000006,  46.951
    22.2,0.000086,0.000081,0.000226,-0.000006,  46.949
    22.4,0.000090,0.000084,0.000153,0.000021,  46.950
    22.6,0.000093,0.000087,-0.000087,0.000034,  46.954
    22.8,0.000095,0.000084,-0.000404,0.000034,  46.953
    23.0,0.000095,0.000084,-0.000804,0.000047,  46.953
    23.2,0.000095,0.000087,-0.000798,0.000060,  46.956
    23.4,0.000098,0.000087,-0.000636,0.000047,  46.955
    23.6,0.000101,0.000087,-0.000320,0.000047,  46.953
    23.8,0.000101,0.000093,-0.000305,0.000047,  46.954
    24.0,0.000106,0.000090,-0.000351,0.000047,  46.953
    24.2,0.000106,0.000092,-0.000474,0.000047,  46.954
    24.4,0.000106,0.000098,-0.000415,0.000060,  46.954
    24.6,0.000115,0.000097,-0.000292,0.000060,  46.955
    24.8,0.000117,0.000099,-0.000124,0.000060,  46.954
    25.0,0.000117,0.000099,-0.000033,0.000074,  46.954
    25.2,0.000124,0.000099,0.000044,0.000060,  46.958
    25.4,0.000126,0.000100,0.000097,0.000060,  46.956
    25.6,0.000126,0.000106,0.000182,0.000074,  46.963
    25.8,0.000123,0.000107,0.000260,0.000060,  46.956
    26.0,0.000125,0.000109,0.000345,0.000060,  46.959
    26.2,0.000132,0.000113,0.000377,0.000060,  46.964
    26.4,0.000128,0.000115,0.000366,0.000034,  46.964
    26.6,0.000134,0.000113,0.000345,0.000047,  46.962
    26.8,0.000138,0.000115,0.000371,0.000060,  46.964
    27.0,0.000134,0.000115,0.000405,0.000074,  46.962
    27.2,0.000140,0.000113,0.000456,0.000087,  46.959
    27.4,0.000138,0.000117,0.000489,0.000087,  46.963
    27.6,0.000134,0.000119,0.000515,0.000100,  46.964
    27.8,0.000140,0.000121,0.000540,0.000113,  46.964
    28.0,0.000147,0.000118,0.000541,0.000100,  46.963
    28.2,0.000143,0.000118,0.000534,0.000100,  46.964
    28.4,0.000140,0.000116,0.000514,0.000113,  46.964
    28.6,0.000147,0.000119,0.000534,0.000100,  46.962
    28.8,0.000143,0.000124,0.000567,0.000100,  46.963
    29.0,0.000144,0.000126,0.000619,0.000100,  46.963
    29.2,0.000148,0.000126,0.000633,0.000077,  46.960
    29.4,0.000150,0.000126,0.000647,0.000113,  46.969
    29.6,0.000150,0.000130,0.000647,0.000113,  46.988
    29.8,0.000157,0.000132,0.000653,0.000090,  46.985
    30.0,0.000165,0.000128,0.000654,0.000090,  46.983
    30.2,0.000159,0.000130,0.000641,0.000090,  46.984
    30.4,0.000168,0.000134,0.000634,0.000090,  46.984
    30.6,0.000159,0.000136,0.000583,0.000041,  46.982
    30.8,0.000156,0.000141,0.000523,0.000064,  46.980
    31.0,0.000159,0.000143,0.000444,0.000077,  46.983
    31.2,0.000168,0.000141,0.000431,0.000028,  46.985
    31.4,0.000173,0.000138,0.000445,0.000064,  46.982
    31.6,0.000176,0.000140,0.000490,0.000077,  46.987
    31.8,0.000176,0.000147,0.000471,0.000041,  46.987
    32.0,0.000179,0.000145,0.000437,0.000077,  46.987
    32.2,0.000184,0.000143,0.000371,0.000090,  46.989
    32.4,0.000181,0.000151,0.000347,0.000054,  46.987
    32.6,0.000184,0.000146,0.000340,0.000090,  46.988
    32.8,0.000184,0.000146,0.000340,0.000090,  46.992
    33.0,0.000190,0.000148,0.000356,0.000054,  46.987
    33.2,0.000193,0.000147,0.000395,0.000090,  46.986
    33.4,0.000190,0.000153,0.000447,0.000103,  46.990
    33.6,0.000196,0.000154,0.000500,0.000080,  46.990
    33.8,0.000199,0.000154,0.000553,0.000080,  46.987
    34.0,0.000199,0.000157,0.000612,0.000094,  46.990
    34.2,0.000202,0.000155,0.000638,0.000107,  46.989
    34.4,0.000204,0.000155,0.000632,0.000080,  46.990
    34.6,0.000202,0.000156,0.000612,0.000080,  46.992
    34.8,0.000199,0.000158,0.000606,0.000094,  46.992
    35.0,0.000202,0.000155,0.000587,0.000080,  46.989
    35.2,0.000202,0.000151,0.000567,0.000080,  46.993
    35.4,0.000199,0.000158,0.000563,0.000094,  46.991
    35.6,0.000202,0.000158,0.000581,0.000094,  46.994
    35.8,0.000202,0.000153,0.000601,0.000094,  46.991
    36.0,0.000199,0.000158,0.000615,0.000107,  46.992
    36.2,0.000208,0.000158,0.000629,0.000107,  46.993
    36.4,0.000211,0.000158,0.000642,0.000107,  46.993
    36.6,0.000211,0.000161,0.000649,0.000120,  46.997
    36.8,0.000219,0.000165,0.000650,0.000107,  46.994
    37.0,0.000214,0.000173,0.000650,0.000107,  46.994
    37.2,0.000203,0.000174,0.000658,0.000120,  46.988
    37.4,0.000203,0.000174,0.000679,0.000107,  46.991
    37.6,0.000203,0.000172,0.000704,0.000107,  46.992
    37.8,0.000206,0.000170,0.000692,0.000120,  46.990
    38.0,0.000203,0.000169,0.000660,0.000107,  46.995
    38.2,0.000205,0.000167,0.000607,0.000107,  46.994
    38.4,0.000212,0.000164,0.000600,0.000120,  46.995
    38.6,0.000212,0.000171,0.000601,0.000107,  46.992
    38.8,0.000208,0.000172,0.000608,0.000120,  46.995
    39.0,0.000214,0.000173,0.000628,0.000133,  46.991
    39.2,0.000217,0.000177,0.000611,0.000120,  46.991
    39.4,0.000211,0.000174,0.000585,0.000120,  46.989
    39.6,0.000211,0.000177,0.000565,0.000133,  46.989
    39.8,0.000214,0.000176,0.000511,0.000133,  46.995
    40.0,0.000211,0.000177,0.000419,0.000133,  46.988
    40.2,0.000211,0.000178,0.000302,0.000147,  46.987
    40.4,0.000219,0.000182,0.000297,0.000147,  46.987
    40.6,0.000213,0.000184,0.000349,0.000133,  46.986
    40.8,0.000213,0.000182,0.000434,0.000147,  46.989
    41.0,0.000219,0.000178,0.000494,0.000110,  46.985
    41.2,0.000216,0.000175,0.000561,0.000110,  46.984
    41.4,0.000216,0.000175,0.000639,0.000124,  46.986
    41.6,0.000222,0.000179,0.000692,0.000074,  46.981
    41.8,0.000218,0.000180,0.000738,0.000110,  46.985
    42.0,0.000225,0.000178,0.000772,0.000124,  46.982
    42.2,0.000228,0.000185,0.000577,0.000074,  46.980
    42.4,0.000219,0.000187,0.000265,0.000110,  46.980
    42.6,0.000226,0.000184,-0.000158,0.000124,  46.981
    42.8,0.000226,0.000184,-0.000190,0.000087,  46.981
    43.0,0.000219,0.000187,-0.000074,0.000124,  46.982
    43.2,0.000226,0.000188,0.000184,0.000137,  46.978
    43.4,0.000228,0.000194,0.000250,0.000101,  46.982
    43.6,0.000225,0.000191,0.000295,0.000124,  46.980
    43.8,0.000234,0.000193,0.000315,0.000137,  46.978
    44.0,0.000234,0.000198,0.000096,0.000101,  46.978
    44.2,0.000227,0.000202,-0.000235,0.000124,  46.978
    44.4,0.000234,0.000197,-0.000701,0.000137,  46.976
    44.6,0.000234,0.000201,-0.000647,0.000101,  46.974
    44.8,0.000227,0.000198,-0.000394,0.000137,  46.973
    45.0,0.000236,0.000196,0.000047,0.000137,  46.973
    45.2,0.000236,0.000202,0.000211,0.000101,  46.970
    45.4,0.000230,0.000202,0.000341,0.000137,  46.977
    45.6,0.000240,0.000198,0.000425,0.000137,  46.972
    45.8,0.000241,0.000200,0.000491,0.000101,  46.972
    46.0,0.000235,0.000200,0.000543,0.000137,  46.970
    46.2,0.000241,0.000200,0.000562,0.000137,  46.970
    46.4,0.000241,0.000202,0.000562,0.000150,  46.972
    46.6,0.000235,0.000204,0.000548,0.000137,  46.972
    46.8,0.000241,0.000200,0.000508,0.000137,  46.972
    47.0,0.000241,0.000202,0.000509,0.000150,  46.970
    47.2,0.000243,0.000204,0.000534,0.000163,  46.974
    47.4,0.000246,0.000200,0.000561,0.000163,  46.974
    47.6,0.000246,0.000200,0.000607,0.000176,  46.972
    47.8,0.000255,0.000200,0.000606,0.000153,  46.972
    48.0,0.000258,0.000198,0.000586,0.000176,  46.974
    48.2,0.000260,0.000200,0.000553,0.000176,  46.975
    48.4,0.000258,0.000206,0.000501,0.000140,  46.974
    48.6,0.000264,0.000204,0.000446,0.000176,  46.976
    48.8,0.000265,0.000208,0.000373,0.000176,  46.975
    49.0,0.000272,0.000215,0.000386,0.000140,  46.974
    49.2,0.000275,0.000212,0.000433,0.000176,  46.972
    49.4,0.000280,0.000217,0.000517,0.000140,  46.972
    49.6,0.000279,0.000220,0.000459,0.000140,  46.976
    49.8,0.000275,0.000222,0.000331,0.000140,  46.976
    50.0,0.000278,0.000224,0.000162,0.000140,  46.976
    50.2,0.000287,0.000232,0.000182,0.000140,  46.974
    50.4,0.000290,0.000234,0.000248,0.000163,  46.972
    50.6,0.000292,0.000232,0.000384,0.000163,  46.973
    50.8,0.000292,0.000238,0.000470,0.000140,  46.974
    51.0,0.000295,0.000240,0.000567,0.000163,  46.976
    51.2,0.000297,0.000240,0.000660,0.000163,  46.977
    51.4,0.000295,0.000245,0.000733,0.000140,  46.977
    51.6,0.000297,0.000247,0.000810,0.000176,  46.977
    51.8,0.000300,0.000245,0.000880,0.000176,  46.980
    52.0,0.000303,0.000247,0.000894,0.000153,  46.977
    52.2,0.000305,0.000248,0.000862,0.000190,  46.979
    52.4,0.000308,0.000246,0.000803,0.000190,  46.977
    52.6,0.000308,0.000248,0.000803,0.000167,  46.979
    52.8,0.000317,0.000248,0.000810,0.000190,  46.982
    53.0,0.000314,0.000250,0.000829,0.000167,  46.982
    53.2,0.000312,0.000252,0.000486,0.000167,  46.981
    53.4,0.000320,0.000255,-0.000039,0.000167,  46.979
    53.6,0.000320,0.000255,-0.000721,0.000144,  46.980
    53.8,0.000317,0.000260,-0.000728,0.000180,  46.982
    54.0,0.000317,0.000261,-0.000500,0.000180,  46.980
    54.2,0.000317,0.000261,-0.000004,0.000193,  46.981
    54.4,0.000317,0.000263,0.000028,0.000180,  46.985
    54.6,0.000317,0.000258,-0.000037,0.000203,  46.983
    54.8,0.000323,0.000258,-0.000206,0.000180,  46.981
    55.0,0.000329,0.000263,-0.000096,0.000193,  46.979
    55.2,0.000326,0.000265,0.000100,0.000206,  46.982
    55.4,0.000328,0.000263,0.000385,0.000220,  46.984
    55.6,0.000328,0.000265,0.000503,0.000233,  46.984
    55.8,0.000325,0.000264,0.000586,0.000220,  46.986
    56.0,0.000336,0.000266,0.000625,0.000206,  46.989
    56.2,0.000340,0.000266,0.000670,0.000220,  46.984
    56.4,0.000342,0.000272,0.000696,0.000206,  46.982
    56.6,0.000345,0.000269,0.000690,0.000206,  46.986
    56.8,0.000341,0.000273,0.000675,0.000183,  46.985
    57.0,0.000348,0.000281,0.000683,0.000220,  46.985
    57.2,0.000344,0.000280,0.000700,0.000220,  46.988
    57.4,0.000344,0.000284,0.000706,0.000197,  46.983
    57.6,0.000353,0.000289,0.000745,0.000233,  46.988
    57.8,0.000349,0.000295,0.000786,0.000233,  46.987
    58.0,0.000358,0.000297,0.000844,0.000210,  46.984
    58.2,0.000364,0.000299,0.000851,0.000259,  46.987
    58.4,0.000361,0.000304,0.000833,0.000246,  46.988
    58.6,0.000363,0.000306,0.000805,0.000210,  46.986
    58.8,0.000364,0.000307,0.000825,0.000259,  46.987
    59.0,0.000361,0.000305,0.000846,0.000246,  46.987
    59.2,0.000370,0.000309,0.000891,0.000210,  46.986
    59.4,0.000379,0.000314,0.000891,0.000259,  46.987
    59.6,0.000372,0.000312,0.000871,0.000246,  46.986
    59.8,0.000379,0.000320,0.000831,0.000210,  46.986
    60.0,0.000376,0.000327,0.000838,0.000259,  46.988
    60.2,0.000372,0.000327,0.000858,0.000259,  46.989
    60.4,0.000381,0.000329,0.000891,0.000223,  46.990
    60.6,0.000381,0.000332,0.000885,0.000259,  46.989
    60.8,0.000384,0.000332,0.000853,0.000259,  46.988
    61.0,0.000384,0.000331,0.000813,0.000223,  46.990
    61.2,0.000387,0.000334,0.000665,0.000259,  46.993
    61.4,0.000390,0.000332,0.000469,0.000259,  46.989
    61.6,0.000390,0.000327,0.000208,0.000223,  46.991
    61.8,0.000394,0.000328,0.000229,0.000272,  46.989
    62.0,0.000396,0.000327,0.000372,0.000272,  46.988
    62.2,0.000396,0.000331,0.000621,0.000249,  46.984
    62.4,0.000394,0.000333,0.000700,0.000286,  46.986
    62.6,0.000396,0.000335,0.000758,0.000286,  46.987
    62.8,0.000394,0.000337,0.000771,0.000263,  46.984
    63.0,0.000397,0.000333,0.000817,0.000263,  46.988
    63.2,0.000400,0.000335,0.000862,0.000263,  46.988
    63.4,0.000391,0.000328,0.000888,0.000263,  46.988
    63.6,0.000397,0.000326,0.000915,0.000226,  46.985
    63.8,0.000397,0.000323,0.000941,0.000249,  46.987
    64.0,0.000391,0.000323,0.000954,0.000249,  46.992
    64.2,0.000395,0.000322,0.000980,0.000263,  46.988
    64.4,0.000395,0.000333,0.001019,0.000263,  46.988
    64.6,0.000397,0.000335,0.001041,0.000263,  46.987
    64.8,0.000400,0.000335,0.001086,0.000226,  46.988
    65.0,0.000403,0.000339,0.001087,0.000226,  46.990
    65.2,0.000403,0.000339,0.001086,0.000236,  46.988
    65.4,0.000412,0.000339,0.001055,0.000213,  46.993
    65.6,0.000414,0.000339,0.000971,0.000213,  46.992
    65.8,0.000418,0.000344,0.000852,0.000249,  46.993
    66.0,0.000419,0.000342,0.000689,0.000226,  46.990
    66.2,0.000421,0.000343,0.000605,0.000226,  46.993
    66.4,0.000423,0.000341,0.000540,0.000263,  46.996
    66.6,0.000422,0.000347,0.000500,0.000240,  46.990
    66.8,0.000421,0.000343,0.000532,0.000240,  46.994
    67.0,0.000418,0.000341,0.000597,0.000276,  46.989
    67.2,0.000418,0.000346,0.000707,0.000253,  46.991
    67.4,0.000424,0.000349,0.000785,0.000253,  46.993
    67.6,0.000423,0.000352,0.000864,0.000289,  46.991
    67.8,0.000428,0.000352,0.000942,0.000266,  46.990
    68.0,0.000437,0.000352,0.000970,0.000266,  46.994
    68.2,0.000436,0.000354,0.000988,0.000302,  46.991
    68.4,0.000439,0.000358,0.000975,0.000266,  46.995
    68.6,0.000442,0.000355,0.000975,0.000266,  46.991
    68.8,0.000436,0.000353,0.000969,0.000302,  46.993
    69.0,0.000440,0.000353,0.000956,0.000266,  46.995
    69.2,0.000444,0.000357,0.000995,0.000266,  46.996
    69.4,0.000441,0.000359,0.001067,0.000302,  46.996
    69.6,0.000443,0.000361,0.001154,0.000266,  46.996
    69.8,0.000446,0.000361,0.001162,0.000266,  46.993
    70.0,0.000442,0.000363,0.001142,0.000302,  46.992
    70.2,0.000451,0.000367,0.001089,0.000266,  46.989
    70.4,0.000454,0.000365,0.001110,0.000266,  46.990
    70.6,0.000450,0.000367,0.001149,0.000302,  46.993
    70.8,0.000457,0.000364,0.001202,0.000279,  46.992
    71.0,0.000457,0.000368,0.001234,0.000279,  46.992
    71.2,0.000450,0.000370,0.001262,0.000316,  46.991
    71.4,0.000457,0.000364,0.001282,0.000293,  46.991
    71.6,0.000454,0.000371,0.001296,0.000306,  46.991
    71.8,0.000450,0.000378,0.001296,0.000329,  46.991
    72.0,0.000457,0.000380,0.001295,0.000342,  46.995
    72.2,0.000454,0.000383,0.001257,0.000306,  46.993
    72.4,0.000450,0.000381,0.001210,0.000342,  46.993
    72.6,0.000457,0.000376,0.001143,0.000329,  46.995
    72.8,0.000454,0.000379,0.001124,0.000329,  46.991
    73.0,0.000454,0.000379,0.001124,0.000329,  46.992
    73.2,0.000453,0.000375,0.001131,0.000329,  46.996
    73.4,0.000457,0.000377,0.001164,0.000293,  46.994
    73.6,0.000459,0.000377,0.001151,0.000306,  46.993
    73.8,0.000459,0.000374,0.001138,0.000329,  46.993
    74.0,0.000465,0.000378,0.001118,0.000293,  46.995
    74.2,0.000465,0.000382,0.001093,0.000306,  46.989
    74.4,0.000459,0.000379,0.001066,0.000342,  46.997
    74.6,0.000462,0.000384,0.001045,0.000319,  46.993
    74.8,0.000468,0.000391,0.001052,0.000319,  46.994
    75.0,0.000462,0.000390,0.001066,0.000368,  46.995
    75.2,0.000473,0.000388,0.001105,0.000345,  46.993
    75.4,0.000480,0.000383,0.001112,0.000332,  46.995
    75.6,0.000473,0.000385,0.001107,0.000368,  46.993
    75.8,0.000482,0.000394,0.001095,0.000345,  46.994
    76.0,0.000480,0.000399,0.001110,0.000332,  46.995
    76.2,0.000476,0.000398,0.001154,0.000368,  46.995
    76.4,0.000482,0.000397,0.001205,0.000332,  46.997
    76.6,0.000482,0.000399,0.001220,0.000332,  46.996
    76.8,0.000479,0.000394,0.001243,0.000319,  46.995
    77.0,0.000482,0.000396,0.001249,0.000296,  46.994
    77.2,0.000482,0.000400,0.001229,0.000332,  46.996
    77.4,0.000485,0.000399,0.001190,0.000332,  46.998
    77.6,0.000485,0.000401,0.001120,0.000309,  46.994
    77.8,0.000491,0.000405,0.000977,0.000345,  47.000
    78.0,0.000494,0.000408,0.000782,0.000345,  46.995
    78.2,0.000488,0.000408,0.000535,0.000323,  46.994
    78.4,0.000491,0.000410,0.000529,0.000359,  46.999
    78.6,0.000495,0.000412,0.000621,0.000345,  46.997
    78.8,0.000496,0.000412,0.000822,0.000323,  46.997
    79.0,0.000498,0.000414,0.000893,0.000359,  46.998
    79.2,0.000500,0.000415,0.000933,0.000359,  46.997
    79.4,0.000497,0.000415,0.000965,0.000336,  46.999
    79.6,0.000493,0.000418,0.000983,0.000372,  47.000
    79.8,0.000490,0.000416,0.000971,0.000372,  46.998
    80.0,0.000486,0.000414,0.000944,0.000349,  47.001
    80.2,0.000487,0.000414,0.000971,0.000385,  46.995
    80.4,0.000487,0.000416,0.001011,0.000372,  47.000
    80.6,0.000492,0.000420,0.001076,0.000349,  47.003
    80.8,0.000492,0.000418,0.001124,0.000385,  47.003
    81.0,0.000495,0.000416,0.001171,0.000372,  47.002
    81.2,0.000497,0.000423,0.001229,0.000372,  47.000
    81.4,0.000497,0.000425,0.001263,0.000349,  47.004
    81.6,0.000500,0.000423,0.001277,0.000385,  47.002
    81.8,0.000503,0.000421,0.001283,0.000372,  47.001
    82.0,0.000503,0.000421,0.001271,0.000349,  47.001
    82.2,0.000503,0.000416,0.001257,0.000372,  46.997
    82.4,0.000505,0.000418,0.001212,0.000336,  46.993
    82.6,0.000505,0.000423,0.001170,0.000313,  47.001
    82.8,0.000505,0.000427,0.001151,0.000313,  46.997
    83.0,0.000508,0.000427,0.001136,0.000336,  47.001
    83.2,0.000508,0.000434,0.001129,0.000313,  47.000
    83.4,0.000508,0.000437,0.001130,0.000313,  47.002
    83.6,0.000511,0.000435,0.001151,0.000349,  47.002
    83.8,0.000511,0.000439,0.001177,0.000313,  47.001
    84.0,0.000514,0.000438,0.001184,0.000313,  47.003
    84.2,0.000514,0.000438,0.001190,0.000349,  47.001
    84.4,0.000519,0.000436,0.001189,0.000326,  47.008
    84.6,0.000528,0.000439,0.001189,0.000326,  47.005
    84.8,0.000528,0.000443,0.001182,0.000362,  47.008
    85.0,0.000531,0.000440,0.001180,0.000339,  47.004
    85.2,0.000528,0.000447,0.001219,0.000339,  47.004
    85.4,0.000531,0.000446,0.001283,0.000362,  47.002
    85.6,0.000534,0.000447,0.001372,0.000326,  47.006
    85.8,0.000534,0.000451,0.001431,0.000339,  47.008
    86.0,0.000536,0.000451,0.001483,0.000389,  47.007
    86.2,0.000539,0.000452,0.001535,0.000352,  47.005
    86.4,0.000539,0.000457,0.001579,0.000352,  47.010
    86.6,0.000541,0.000459,0.001615,0.000389,  47.005
    86.8,0.000541,0.000454,0.001638,0.000352,  47.008
    87.0,0.000539,0.000456,0.001679,0.000352,  47.012
    87.2,0.000544,0.000460,0.001715,0.000389,  47.010
    87.4,0.000544,0.000456,0.001757,0.000366,  47.008
    87.6,0.000544,0.000462,0.001830,0.000366,  47.011
    87.8,0.000553,0.000462,0.001916,0.000415,  47.013
    88.0,0.000556,0.000464,0.002026,0.000379,  47.009
    88.2,0.000556,0.000467,0.002142,0.000379,  47.008
    88.4,0.000562,0.000471,0.002259,0.000402,  47.011
    88.6,0.000564,0.000471,0.002389,0.000379,  47.007
    88.8,0.000564,0.000472,0.002557,0.000379,  47.011
    89.0,0.000561,0.000474,0.002754,0.000415,  47.014
    89.2,0.000566,0.000478,0.002969,0.000392,  47.012
    89.4,0.000578,0.000480,0.003252,0.000392,  47.013
    89.6,0.000577,0.000483,0.003591,0.000428,  47.014
    89.8,0.000591,0.000484,0.003975,0.000441,  47.011
    90.0,0.000605,0.000488,0.004352,0.000405,  47.015
    90.2,0.000612,0.000496,0.004765,0.000405,  47.012
    90.4,0.000626,0.000502,0.005204,0.000441,  47.012
    90.6,0.000634,0.000505,0.005580,0.000405,  47.013
    90.8,0.000644,0.000510,0.005956,0.000441,  47.012
    91.0,0.000657,0.000516,0.006307,0.000428,  47.012
    91.2,0.000665,0.000526,0.006663,0.000392,  47.011
    91.4,0.000678,0.000540,0.007149,0.000392,  47.014
    91.6,0.000694,0.000548,0.007666,0.000402,  47.015
    91.8,0.000710,0.000561,0.008245,0.000379,  47.015
    92.0,0.000735,0.000575,0.008919,0.000379,  47.009
    92.2,0.000752,0.000589,0.009677,0.000415,  47.008
    92.4,0.000778,0.000602,0.010513,0.000392,  47.010
    92.6,0.000811,0.000617,0.011367,0.000392,  47.008
    92.8,0.000836,0.000632,0.012268,0.000405,  47.009
    93.0,0.000870,0.000647,0.013231,0.000419,  47.008
    93.2,0.000916,0.000673,0.014165,0.000405,  47.010
    93.4,0.000949,0.000697,0.015107,0.000405,  47.010
    93.6,0.000989,0.000721,0.016056,0.000419,  47.005
    93.8,0.001040,0.000748,0.017201,0.000419,  47.007
    94.0,0.001083,0.000774,0.018459,0.000419,  47.007
    94.2,0.001136,0.000810,0.019816,0.000432,  47.007
    94.4,0.001200,0.000841,0.021148,0.000432,  47.006
    94.6,0.001259,0.000876,0.022518,0.000419,  47.008
    94.8,0.001323,0.000918,0.023937,0.000432,  47.006
    95.0,0.001397,0.000954,0.025284,0.000432,  47.003
    95.2,0.001470,0.000995,0.026599,0.000419,  47.002
    95.4,0.001560,0.001049,0.027899,0.000432,  47.002
    95.6,0.001656,0.001098,0.029779,0.000432,  47.004
    95.8,0.001748,0.001147,0.031952,0.000432,  47.000
    96.0,0.001841,0.001206,0.034411,0.000432,  47.002
    96.2,0.001947,0.001263,0.036685,0.000432,  47.002
    96.4,0.002047,0.001310,0.039017,0.000432,  47.000
    96.6,0.002141,0.001357,0.041396,0.000432,  47.002
    96.8,0.002247,0.001394,0.043606,0.000432,  47.000
    97.0,0.002377,0.001435,0.045763,0.000432,  47.002
    97.2,0.002510,0.001504,0.047847,0.000432,  47.005
    97.4,0.002667,0.001584,0.050495,0.000432,  46.999
    97.6,0.002820,0.001669,0.053401,0.000432,  47.000
    97.8,0.002975,0.001753,0.056564,0.000445,  47.000
    98.0,0.003147,0.001844,0.059850,0.000445,  46.996
    98.2,0.003327,0.001934,0.063330,0.000445,  46.995
    98.4,0.003511,0.002029,0.067017,0.000458,  46.993
    98.6,0.003719,0.002133,0.070738,0.000471,  46.996
    98.8,0.003933,0.002248,0.074589,0.000458,  46.996
    99.0,0.004152,0.002365,0.078555,0.000458,  46.990
    99.2,0.004394,0.002485,0.082682,0.000471,  46.993
    99.4,0.004622,0.002613,0.086949,0.000471,  46.992
    99.6,0.004841,0.002746,0.091369,0.000458,  46.991
    99.8,0.005073,0.002882,0.095196,0.000471,  46.993
   100.0,0.005282,0.003019,0.098780,0.000471,  46.993
   100.2,0.005483,0.003156,0.102131,0.000471,  46.989
   100.4,0.005681,0.003295,0.105225,0.000471,  46.986
   100.6,0.005869,0.003426,0.110040,0.000471,  46.989
   100.8,0.006166,0.003599,0.115416,0.000471,  46.989
   101.0,0.006513,0.003785,0.121382,0.000471,  46.987
   101.2,0.006894,0.003992,0.127050,0.000471,  46.990
   101.4,0.007270,0.004195,0.132871,0.000471,  46.988
   101.6,0.007656,0.004419,0.138845,0.000471,  46.989
   101.8,0.008068,0.004656,0.144777,0.000471,  46.991
   102.0,0.008480,0.004886,0.150757,0.000471,  46.986
   102.2,0.008900,0.005122,0.156807,0.000485,  46.984
   102.4,0.009338,0.005373,0.163673,0.000485,  46.985
   102.6,0.009786,0.005628,0.170993,0.000498,  46.988
   102.8,0.010245,0.005889,0.178822,0.000498,  46.986
   103.0,0.010718,0.006158,0.186148,0.000498,  46.986
   103.2,0.011237,0.006448,0.193459,0.000485,  46.983
   103.4,0.011786,0.006751,0.200759,0.000462,  46.980
   103.6,0.012361,0.007066,0.208861,0.000462,  46.976
   103.8,0.012960,0.007407,0.217396,0.000462,  46.983
   104.0,0.013585,0.007757,0.226362,0.000439,  46.978
   104.2,0.014232,0.008124,0.235427,0.000426,  46.979
   104.4,0.014886,0.008490,0.244778,0.000462,  46.980
   104.6,0.015554,0.008865,0.254425,0.000475,  46.976
   104.8,0.016234,0.009242,0.264052,0.000462,  46.973
   105.0,0.016910,0.009561,0.273806,0.000462,  46.974
   105.2,0.017595,0.009858,0.283704,0.000475,  46.971
   105.4,0.018279,0.010131,0.293568,0.000462,  46.972
   105.6,0.019051,0.010381,0.303438,0.000462,  46.970
   105.8,0.019871,0.010797,0.313352,0.000475,  46.968
   106.0,0.020743,0.011276,0.324616,0.000462,  46.969
   106.2,0.021611,0.011809,0.336634,0.000462,  46.966
   106.4,0.022505,0.012301,0.349468,0.000475,  46.969
   106.6,0.023429,0.012797,0.362568,0.000462,  46.965
   106.8,0.024402,0.013300,0.376222,0.000462,  46.963
   107.0,0.025410,0.013841,0.390511,0.000462,  46.961
   107.2,0.026457,0.014403,0.404712,0.000462,  46.963
   107.4,0.027549,0.014978,0.419167,0.000426,  46.961
   107.6,0.028679,0.015574,0.433890,0.000462,  46.961
   107.8,0.029849,0.016196,0.448938,0.000462,  46.962
   108.0,0.030803,0.016831,0.464339,0.000462,  46.962
   108.2,0.031665,0.017459,0.480032,0.000462,  46.960
   108.4,0.032439,0.018089,0.493899,0.000475,  46.956
   108.6,0.033127,0.018728,0.506840,0.000462,  46.961
   108.8,0.034309,0.019400,0.518751,0.000462,  46.962
   109.0,0.035628,0.020093,0.529541,0.000475,  46.957
   109.2,0.037094,0.020798,0.545369,0.000462,  46.955
   109.4,0.038499,0.021568,0.562799,0.000462,  46.956
   109.6,0.039954,0.022385,0.582038,0.000475,  46.952
   109.8,0.041461,0.023245,0.599942,0.000462,  46.954
   110.0,0.043004,0.024127,0.618012,0.000462,  46.953
   110.2,0.044600,0.025043,0.636202,0.000475,  46.954
   110.4,0.046252,0.026000,0.654774,0.000475,  46.952
   110.6,0.047897,0.026933,0.673573,0.000488,  46.951
   110.8,0.049573,0.027882,0.692636,0.000515,  46.952
   111.0,0.051284,0.028837,0.712474,0.000515,  46.950
   111.2,0.053044,0.029817,0.732843,0.000528,  46.955
   111.4,0.054852,0.030829,0.753785,0.000528,  46.958
   111.6,0.056711,0.031857,0.774609,0.000528,  46.955
   111.8,0.058631,0.032929,0.795674,0.000515,  46.952
   112.0,0.060613,0.034030,0.816896,0.000501,  46.951
   112.2,0.062663,0.035171,0.839070,0.000488,  46.952
   112.4,0.064725,0.036343,0.861807,0.000475,  46.949
   112.6,0.066846,0.037543,0.885181,0.000475,  46.949
   112.8,0.069009,0.038779,0.908570,0.000475,  46.949
   113.0,0.071157,0.040008,0.932082,0.000448,  46.951
   113.2,0.073334,0.041255,0.955783,0.000448,  46.949
   113.4,0.075535,0.042512,0.979528,0.000426,  46.949
   113.6,0.077763,0.043565,1.003216,0.000412,  46.950
   113.8,0.080022,0.044518,1.026761,0.000426,  46.950
   114.0,0.082314,0.045379,1.050904,0.000389,  46.953
   114.2,0.084644,0.046139,1.075235,0.000426,  46.950
   114.4,0.087019,0.047382,1.099610,0.000439,  46.952
   114.6,0.089435,0.048761,1.125411,0.000389,  46.952
   114.8,0.091911,0.050274,1.151971,0.000426,  46.952
   115.0,0.094443,0.051693,1.179510,0.000439,  46.950
   115.2,0.097042,0.053130,1.207206,0.000403,  46.949
   115.4,0.099727,0.054597,1.235406,0.000416,  46.949
   115.6,0.102491,0.056104,1.264088,0.000429,  46.953
   115.8,0.105342,0.057638,1.292756,0.000416,  46.953
   116.0,0.108177,0.059215,1.321514,0.000416,  46.951
   116.2,0.111053,0.060810,1.350247,0.000416,  46.948
   116.4,0.113968,0.062432,1.379414,0.000393,  46.947
   116.6,0.116771,0.064080,1.408323,0.000416,  46.950
   116.8,0.119549,0.065678,1.436947,0.000416,  46.949
   117.0,0.122292,0.067263,1.463018,0.000393,  46.954
   117.2,0.124823,0.068831,1.486937,0.000380,  46.951
   117.4,0.127232,0.070506,1.508441,0.000416,  46.954
   117.6,0.129499,0.072227,1.526677,0.000429,  46.951
   117.8,0.131652,0.073992,1.554462,0.000429,  46.954
   118.0,0.134629,0.075786,1.584383,0.000442,  46.953
   118.2,0.137877,0.077622,1.617286,0.000455,  46.953
   118.4,0.141404,0.079488,1.647410,0.000455,  46.956
   118.6,0.144763,0.081392,1.677735,0.000455,  46.956
   118.8,0.148184,0.083335,1.707200,0.000482,  46.954
   119.0,0.151664,0.085314,1.736099,0.000495,  46.954
   119.2,0.155120,0.087278,1.764179,0.000508,  46.954
   119.4,0.158593,0.089249,1.790767,0.000522,  46.952
   119.6,0.162098,0.091239,1.819090,0.000535,  46.960
   119.8,0.165645,0.093237,1.847656,0.000548,  46.958
   120.0,0.169228,0.095238,1.876385,0.000561,  46.958
   120.2,0.172858,0.097260,1.904156,0.000548,  46.954
   120.4,0.176541,0.099330,1.931718,0.000535,  46.953
   120.6,0.180267,0.101435,1.958899,0.000535,  46.952
   120.8,0.184053,0.103574,1.986148,0.000522,  46.954
   121.0,0.187824,0.105722,2.013324,0.000495,  46.955
   121.2,0.191605,0.107894,2.038954,0.000495,  46.948
   121.4,0.195416,0.110088,2.066079,0.000508,  46.954
   121.6,0.199158,0.112248,2.092691,0.000495,  46.952
   121.8,0.202856,0.114400,2.116952,0.000508,  46.950
   122.0,0.206539,0.116558,2.141866,0.000508,  46.952
   122.2,0.210264,0.118631,2.166499,0.000508,  46.950
   122.4,0.213981,0.120657,2.187855,0.000522,  46.950
   122.6,0.217716,0.122643,2.210271,0.000522,  46.951
   122.8,0.221443,0.124438,2.233893,0.000535,  46.948
   123.0,0.225171,0.126122,2.254412,0.000548,  46.951
   123.2,0.228897,0.127684,2.275968,0.000548,  46.946
   123.4,0.232721,0.129126,2.297438,0.000561,  46.944
   123.6,0.236600,0.131163,2.317456,0.000575,  46.944
   123.8,0.240530,0.133371,2.337106,0.000588,  46.942
   124.0,0.244504,0.135751,2.356294,0.000588,  46.939
   124.2,0.248528,0.138011,2.374915,0.000614,  46.937
   124.4,0.252606,0.140297,2.392827,0.000628,  46.933
   124.6,0.256646,0.142612,2.409916,0.000628,  46.936
   124.8,0.260689,0.144909,2.426068,0.000641,  46.934
   125.0,0.264748,0.147212,2.444556,0.000641,  46.933
   125.2,0.268689,0.149518,2.458521,0.000641,  46.930
   125.4,0.272566,0.151763,2.471126,0.000654,  46.930
   125.6,0.276401,0.153978,2.485975,0.000631,  46.927
   125.8,0.279825,0.156164,2.497455,0.000667,  46.929
   126.0,0.283013,0.158450,2.509236,0.000667,  46.925
   126.2,0.285941,0.160775,2.521352,0.000657,  46.923
   126.4,0.288636,0.163138,2.529613,0.000671,  46.924
   126.6,0.292430,0.165456,2.538036,0.000720,  46.920
   126.8,0.296522,0.167773,2.542310,0.000747,  46.920
   127.0,0.300937,0.170083,2.551001,0.000747,  46.919
   127.2,0.305078,0.172428,2.559881,0.000747,  46.919
   127.4,0.309244,0.174797,2.571241,0.000773,  46.923
   127.6,0.313428,0.177184,2.580531,0.000786,  46.919
   127.8,0.317555,0.179530,2.587637,0.000813,  46.914
   128.0,0.321667,0.181866,2.594850,0.000839,  46.917
   128.2,0.325758,0.184191,2.602185,0.000853,  46.913
   128.4,0.329858,0.186525,2.609662,0.000866,  46.917
   128.6,0.333958,0.188866,2.614718,0.000879,  46.915
   128.8,0.338057,0.191202,2.619811,0.000866,  46.916
   129.0,0.342166,0.193534,2.624966,0.000866,  46.909
   129.2,0.346285,0.195867,2.630177,0.000879,  46.907
   129.4,0.350415,0.198199,2.638146,0.000866,  46.906
   129.6,0.354459,0.200521,2.643562,0.000866,  46.898
   129.8,0.358445,0.202838,2.643594,0.000879,  46.882
   130.0,0.362396,0.205142,2.649057,0.000879,  46.881
   130.2,0.366262,0.207394,2.654594,0.000892,  46.877
   130.4,0.370039,0.209619,2.657382,0.000919,  46.875
   130.6,0.373750,0.211805,2.663007,0.000932,  46.872
   130.8,0.377550,0.213938,2.662985,0.000958,  46.865
   131.0,0.381345,0.216026,2.665802,0.000985,  46.864
   131.2,0.385148,0.218071,2.668737,0.000985,  46.861
   131.4,0.388817,0.220177,2.674638,0.000985,  46.859
   131.6,0.392428,0.222288,2.674796,0.000998,  46.857
   131.8,0.395957,0.224412,2.677731,0.000975,  46.856
   132.0,0.399594,0.226216,2.680649,0.001002,  46.852
   132.2,0.403236,0.227861,2.683540,0.001015,  46.850
   132.4,0.406888,0.229352,2.689478,0.001005,  46.846
   132.6,0.410551,0.230678,2.689425,0.001055,  46.840
   132.8,0.414218,0.232635,2.692394,0.001081,  46.840
   133.0,0.417882,0.234748,2.695404,0.001072,  46.837
   133.2,0.421467,0.237015,2.698442,0.001108,  46.826
   133.4,0.425025,0.239099,2.698431,0.001134,  46.829
   133.6,0.428550,0.241166,2.701507,0.001111,  46.822
   133.8,0.431955,0.243210,2.701501,0.001147,  46.813
   134.0,0.435293,0.245174,2.704620,0.001174,  46.816
   134.2,0.438556,0.247082,2.707756,0.001151,  46.812
   134.4,0.441930,0.248933,2.707756,0.001187,  46.804
   134.6,0.445317,0.250882,2.710925,0.001164,  46.803
   134.8,0.448701,0.252856,2.714096,0.001178,  46.799
   135.0,0.452073,0.254852,2.714080,0.001191,  46.796
   135.2,0.455428,0.256796,2.714054,0.001204,  46.793
   135.4,0.458779,0.258733,2.717264,0.001181,  46.788
   135.6,0.461654,0.260648,2.717280,0.001194,  46.782
   135.8,0.464260,0.262544,2.717317,0.001244,  46.763
   136.0,0.466633,0.264425,2.717317,0.001208,  46.755
   136.2,0.468727,0.266285,2.720541,0.001208,  46.749
   136.4,0.471708,0.268135,2.723778,0.001244,  46.747
   136.6,0.474882,0.269978,2.723762,0.001257,  46.744
   136.8,0.478269,0.271802,2.727040,0.001270,  46.743
   137.0,0.481366,0.273608,2.727045,0.001320,  46.741
   137.2,0.484412,0.275409,2.727045,0.001346,  46.731
   137.4,0.487420,0.277191,2.727045,0.001323,  46.728
   137.6,0.490454,0.278962,2.730348,0.001373,  46.715
   137.8,0.493474,0.280717,2.730353,0.001399,  46.710
   138.0,0.496489,0.282449,2.733681,0.001376,  46.704
   138.2,0.499364,0.284154,2.733681,0.001426,  46.697
   138.4,0.502178,0.285832,2.733686,0.001403,  46.691
   138.6,0.504916,0.287482,2.737035,0.001416,  46.686
   138.8,0.507535,0.289054,2.737024,0.001443,  46.678
   139.0,0.510073,0.290570,2.737013,0.001420,  46.670
   139.2,0.512514,0.292043,2.740383,0.001469,  46.659
   139.4,0.515093,0.293518,2.740377,0.001469,  46.635
   139.6,0.517694,0.294967,2.740372,0.001460,  46.628
   139.8,0.520310,0.296394,2.743784,0.001509,  46.618
   140.0,0.522779,0.297831,2.743805,0.001509,  46.609
   140.2,0.525204,0.299266,2.743836,0.001486,  46.602
   140.4,0.527557,0.300688,2.747370,0.001536,  46.595
   140.6,0.529952,0.302112,2.747506,0.001549,  46.584
   140.8,0.532364,0.303532,2.744252,0.001562,  46.572
   141.0,0.534765,0.304945,2.747696,0.001562,  46.565
   141.2,0.537128,0.306339,2.747648,0.001585,  46.550
   141.4,0.539471,0.307726,2.747533,0.001612,  46.540
   141.6,0.541791,0.309097,2.750951,0.001602,  46.536
   141.8,0.544009,0.310264,2.750914,0.001651,  46.523
   142.0,0.546180,0.311321,2.750877,0.001642,  46.493
   142.2,0.548285,0.312252,2.754329,0.001642,  46.480
   142.4,0.550295,0.313075,2.754292,0.001628,  46.469
   142.6,0.552226,0.314184,2.750767,0.001605,  46.463
   142.8,0.554070,0.315340,2.750741,0.001642,  46.450
   143.0,0.556050,0.316536,2.754208,0.001642,  46.436
   143.2,0.558064,0.317715,2.754203,0.001619,  46.423
   143.4,0.560113,0.318901,2.754187,0.001668,  46.414
   143.6,0.562112,0.320100,2.757688,0.001681,  46.403
   143.8,0.564097,0.321284,2.757677,0.001695,  46.372
   144.0,0.566088,0.322468,2.757677,0.001708,  46.359
   144.2,0.568046,0.323650,2.761227,0.001672,  46.342
   144.4,0.569997,0.324836,2.761238,0.001708,  46.330
   144.6,0.571936,0.326017,2.761233,0.001685,  46.316
   144.8,0.573574,0.327205,2.764802,0.001672,  46.301
   145.0,0.575053,0.328338,2.761217,0.001695,  46.288
   145.2,0.576373,0.329440,2.761212,0.001645,  46.273
   145.4,0.577531,0.330511,2.764770,0.001681,  46.250
   145.6,0.579164,0.331577,2.761185,0.001668,  46.240
   145.8,0.580885,0.332620,2.764744,0.001632,  46.219
   146.0,0.582717,0.333640,2.768343,0.001668,  46.200
   146.2,0.584460,0.334709,2.764744,0.001668,  46.181
   146.4,0.586232,0.335790,2.764760,0.001645,  46.171
   146.6,0.587996,0.336877,2.768374,0.001681,  46.150
   146.8,0.589658,0.337895,2.768380,0.001668,  46.114
   147.0,0.591289,0.338880,2.768395,0.001645,  46.099
   147.2,0.592857,0.339837,2.772025,0.001681,  46.074
   147.4,0.594318,0.340754,2.772009,0.001681,  46.059
   147.6,0.595711,0.341638,2.768359,0.001645,  46.041
   147.8,0.597011,0.342480,2.771993,0.001681,  46.018
   148.0,0.598538,0.343433,2.771993,0.001681,  45.980
   148.2,0.600127,0.344427,2.772009,0.001645,  45.960
   148.4,0.601797,0.345450,2.775663,0.001681,  45.941
   148.6,0.603383,0.346391,2.775658,0.001681,  45.916
   148.8,0.604936,0.347295,2.775642,0.001659,  45.893
   149.0,0.606476,0.348175,2.779338,0.001695,  45.852
   149.2,0.608064,0.349104,2.779354,0.001695,  45.823
   149.4,0.609658,0.350041,2.775684,0.001659,  45.803
   149.6,0.611253,0.350988,2.779386,0.001645,  45.775
   149.8,0.612863,0.351955,2.779396,0.001619,  45.727
   150.0,0.614469,0.352933,2.779407,0.001569,  45.702
   150.2,0.616084,0.353926,2.783140,0.001579,  45.663
   150.4,0.617619,0.354775,2.783140,0.001589,  45.626
   150.6,0.619111,0.355545,2.783140,0.001562,  45.594
   150.8,0.620549,0.356245,2.786895,0.001536,  45.561
   151.0,0.622018,0.356875,2.790677,0.001505,  45.526
   151.2,0.623470,0.357689,2.786863,0.001443,  45.468
   151.4,0.624894,0.358527,2.786853,0.001443,  45.444
   151.6,0.626478,0.359394,2.790646,0.001443,  45.403
   151.8,0.628145,0.360326,2.786853,0.001380,  45.348
   152.0,0.629875,0.361295,2.786847,0.001403,  45.312
   152.2,0.631679,0.362322,2.790630,0.001376,  45.263
   152.4,0.633559,0.363414,2.790625,0.001350,  45.217
   152.6,0.635503,0.364572,2.790614,0.001323,  45.176
   152.8,0.637490,0.365784,2.794430,0.001247,  45.116
   153.0,0.639520,0.366977,2.794425,0.001244,  45.073
   153.2,0.641595,0.368191,2.798301,0.001234,  45.004
   153.4,0.643391,0.369418,2.798322,0.001287,  44.967
   153.6,0.645090,0.370666,2.798359,0.001416,  44.921
   153.8,0.646627,0.371932,2.802270,0.001340,  44.870
   154.0,0.648076,0.373211,2.802270,0.001257,  44.831
   154.2,0.650163,0.374517,2.806200,0.001098,  44.754
   154.4,0.652454,0.375850,2.806195,0.000982,  44.710
   154.6,0.654941,0.377212,2.814169,0.000939,  44.639
   154.8,0.657406,0.378704,2.810177,0.000860,  44.588
   155.0,0.659916,0.380267,2.810187,0.000744,  44.514
   155.2,0.662500,0.381907,2.814185,0.000714,  44.449
   155.4,0.665142,0.383492,2.814174,0.000635,  44.388
   155.6,0.667843,0.385077,2.814163,0.000545,  44.332
   155.8,0.670579,0.386678,2.818188,0.000519,  44.257
   156.0,0.673252,0.388300,2.818167,0.000479,  44.183
   156.2,0.675892,0.389942,2.818156,0.000417,  44.104
   156.4,0.678524,0.391599,2.822223,0.000390,  44.039
   156.6,0.681385,0.393400,2.826324,0.000400,  43.963
   156.8,0.684354,0.395280,2.822202,0.000324,  43.900
   157.0,0.687413,0.397243,2.822202,0.000271,  43.816
   157.2,0.690585,0.399140,2.826335,0.000254,  43.720
   157.4,0.693902,0.401032,2.826356,0.000192,  43.666
   157.6,0.697317,0.402946,2.830507,0.000178,  43.580
   157.8,0.700812,0.404978,2.830496,0.000201,  43.492
   158.0,0.704415,0.407081,2.834676,0.000165,  43.418
   158.2,0.708114,0.409253,2.838950,0.000139,  43.311
   158.4,0.711846,0.411473,2.839019,0.000162,  43.245
   158.6,0.715678,0.413760,2.843382,0.000126,  43.155
   158.8,0.719565,0.416110,2.847698,0.000112,  43.065
   159.0,0.723459,0.418138,2.847666,0.000122,  42.992
   159.2,0.727387,0.420036,2.847598,0.000073,  42.882
   159.4,0.731357,0.421796,2.851947,0.000059,  42.814
   159.6,0.735444,0.423418,2.851942,0.000069,  42.720
   159.8,0.739601,0.425728,2.851952,0.000033,  42.629
   160.0,0.743825,0.428228,2.856345,0.000007,  42.532
   160.2,0.748157,0.430934,2.856319,0.000043,  42.435
   160.4,0.752570,0.433578,2.856303,0.000020,  42.365
   160.6,0.757057,0.436286,2.860742,0.000020,  42.275
   160.8,0.761646,0.439078,2.865232,0.000069,  42.190
   161.0,0.766358,0.441939,2.860726,0.000059,  42.100
   161.2,0.771146,0.444863,2.860731,0.000059,  41.998
   161.4,0.775965,0.447866,2.869790,0.000109,  41.931
   161.6,0.780852,0.450897,2.869816,0.000149,  41.857
   161.8,0.785787,0.453961,2.874423,0.000188,  41.774
   162.0,0.790035,0.457076,2.874428,0.000241,  41.694
   162.2,0.793982,0.460207,2.874433,0.000294,  41.611
   162.4,0.797570,0.463361,2.874428,0.000334,  41.574
   162.6,0.800823,0.466552,2.879052,0.000347,  41.515
   162.8,0.805449,0.469728,2.879036,0.000360,  41.447
   163.0,0.810437,0.472900,2.879004,0.000337,  41.365
   163.2,0.815791,0.476081,2.883699,0.000337,  41.272
   163.4,0.820754,0.479316,2.883699,0.000347,  41.219
   163.6,0.825717,0.482567,2.883710,0.000311,  41.165
   163.8,0.830631,0.485851,2.888456,0.000337,  41.099
   164.0,0.835517,0.489051,2.888446,0.000387,  41.036
   164.2,0.840343,0.492203,2.888441,0.000350,  40.982
   164.4,0.845126,0.495332,2.893245,0.000364,  40.933
   164.6,0.849603,0.498342,2.893255,0.000387,  40.889
   164.8,0.853915,0.501274,2.888477,0.000377,  40.836
   165.0,0.857999,0.504141,2.893271,0.000430,  40.801
   165.2,0.862198,0.507006,2.893260,0.000506,  40.746
   165.4,0.866322,0.509833,2.893250,0.000509,  40.726
   165.6,0.870394,0.512633,2.893250,0.000562,  40.696
   165.8,0.874434,0.515361,2.893255,0.000625,  40.656
   166.0,0.878379,0.518028,2.893271,0.000615,  40.627
   166.2,0.882261,0.520634,2.898129,0.000642,  40.608
   166.4,0.886091,0.523235,2.898134,0.000691,  40.582
   166.6,0.889845,0.525793,2.898139,0.000681,  40.568
   166.8,0.893523,0.528300,2.903052,0.000708,  40.559
   167.0,0.897143,0.530801,2.903063,0.000770,  40.551
   167.2,0.900723,0.533272,2.898176,0.000774,  40.548
   167.4,0.904200,0.535701,2.898160,0.000800,  40.550
   167.6,0.907529,0.538049,2.903041,0.000837,  40.549
   167.8,0.910747,0.540341,2.903010,0.000840,  40.557
   168.0,0.913811,0.542565,2.902994,0.000880,  40.567
   168.2,0.916810,0.544450,2.907947,0.000943,  40.586
   168.4,0.919655,0.546133,2.902989,0.000933,  40.593
   168.6,0.922394,0.547605,2.902983,0.000959,  40.616
   168.8,0.925034,0.548869,2.907947,0.001022,  40.639
   169.0,0.927550,0.550654,2.902983,0.001026,  40.680
   169.2,0.929937,0.552520,2.902983,0.001039,  40.714
   169.4,0.932264,0.554467,2.907963,0.001115,  40.748
   169.6,0.934484,0.556218,2.903015,0.001105,  40.783
   169.8,0.936570,0.557904,2.903010,0.001105,  40.822
   170.0,0.938569,0.559531,2.907968,0.001141,  40.871
   170.2,0.940479,0.561095,2.902994,0.001155,  40.926
   170.4,0.942272,0.562597,2.902989,0.001181,  40.973
   170.6,0.943951,0.564032,2.907952,0.001221,  41.018
   170.8,0.945491,0.565400,2.902983,0.001247,  41.074
   171.0,0.946957,0.566681,2.902983,0.001238,  41.110
   171.2,0.948142,0.567882,2.902983,0.001277,  41.181
   171.4,0.949167,0.569039,2.902989,0.001304,  41.226
   171.6,0.949932,0.570119,2.902999,0.001294,  41.300
   171.8,0.950546,0.571123,2.907957,0.001344,  41.373
   172.0,0.951412,0.572061,2.902983,0.001344,  41.430
   172.2,0.952281,0.572935,2.902978,0.001334,  41.523
   172.4,0.953133,0.573723,2.902978,0.001384,  41.583
   172.6,0.953817,0.574467,2.907947,0.001410,  41.648
   172.8,0.954359,0.575154,2.902999,0.001400,  41.724
   173.0,0.954784,0.575767,2.902983,0.001437,  41.805
   173.2,0.955044,0.576300,2.907931,0.001437,  41.903
   173.4,0.955115,0.576752,2.902946,0.001414,  41.972
   173.6,0.954997,0.577128,2.902941,0.001450,  42.043
   173.8,0.955020,0.577428,2.907915,0.001463,  42.125
   174.0,0.954997,0.577658,2.902968,0.001440,  42.213
   174.2,0.954902,0.577819,2.902968,0.001476,  42.316
   174.4,0.954713,0.577973,2.907921,0.001526,  42.383
   174.6,0.954430,0.578092,2.902952,0.001503,  42.462
   174.8,0.954029,0.578174,2.902952,0.001516,  42.552
   175.0,0.953557,0.578196,2.907910,0.001529,  42.644
   175.2,0.953039,0.578167,2.902952,0.001520,  42.754
   175.4,0.952404,0.578082,2.902957,0.001546,  42.825
   175.6,0.951770,0.577990,2.907926,0.001560,  42.901
   175.8,0.951114,0.577856,2.902973,0.001537,  42.991
   176.0,0.950394,0.577680,2.902968,0.001537,  43.086
   176.2,0.949623,0.577465,2.907921,0.001573,  43.195
   176.4,0.948754,0.577198,2.902941,0.001550,  43.266
   176.6,0.947829,0.576883,2.902936,0.001550,  43.363
   176.8,0.946784,0.576598,2.907905,0.001586,  43.433
   177.0,0.945620,0.576302,2.902962,0.001563,  43.524
   177.2,0.944332,0.575981,2.902973,0.001576,  43.633
   177.4,0.943112,0.575655,2.902978,0.001599,  43.708
   177.6,0.941819,0.575201,2.898092,0.001563,  43.796
   177.8,0.940475,0.574677,2.893239,0.001590,  43.868
   178.0,0.939082,0.574090,2.893229,0.001626,  43.950
   178.2,0.937649,0.573496,2.893213,0.001590,  44.052
   178.4,0.936113,0.572852,2.888404,0.001590,  44.122
   178.6,0.934583,0.572183,2.888393,0.001599,  44.192
   178.8,0.932985,0.571472,2.893176,0.001599,  44.274
   179.0,0.931348,0.570720,2.893166,0.001613,  44.357
   179.2,0.929895,0.569934,2.893171,0.001599,  44.426
   179.4,0.928530,0.569142,2.893182,0.001599,  44.483
   179.6,0.927204,0.568332,2.888388,0.001576,  44.547
   179.8,0.925942,0.567521,2.893192,0.001613,  44.609
   180.0,0.924221,0.566641,2.888409,0.001626,  44.693
   180.2,0.922353,0.565724,2.888419,0.001603,  44.768
   180.4,0.920341,0.564762,2.893218,0.001603,  44.822
   180.6,0.918403,0.563794,2.888414,0.001639,  44.883
   180.8,0.916408,0.562788,2.888409,0.001616,  44.950
   181.0,0.914402,0.561743,2.893197,0.001603,  45.025
   181.2,0.912404,0.560711,2.888383,0.001639,  45.090
   181.4,0.910352,0.559671,2.883620,0.001616,  45.148
   181.6,0.908273,0.558616,2.888356,0.001630,  45.197
   181.8,0.906149,0.557572,2.883605,0.001679,  45.260
   182.0,0.903979,0.556547,2.883594,0.001669,  45.308
   182.2,0.901742,0.555517,2.888330,0.001669,  45.384
   182.4,0.899587,0.554382,2.883589,0.001706,  45.418
   182.6,0.897476,0.553186,2.878899,0.001683,  45.464
   182.8,0.895355,0.551954,2.883594,0.001683,  45.521
   183.0,0.893109,0.550750,2.883599,0.001706,  45.562
   183.2,0.890846,0.549537,2.878915,0.001669,  45.634
   183.4,0.888527,0.548301,2.883610,0.001669,  45.662
   183.6,0.886154,0.547030,2.878909,0.001706,  45.720
   183.8,0.883687,0.545739,2.874270,0.001669,  45.760
   184.0,0.881147,0.544412,2.878909,0.001669,  45.794
   184.2,0.878734,0.543102,2.874259,0.001706,  45.858
   184.4,0.876361,0.541770,2.874254,0.001669,  45.882
   184.6,0.874001,0.540443,2.878883,0.001669,  45.918
   184.8,0.871608,0.539119,2.874228,0.001706,  45.970
   185.0,0.869254,0.537800,2.874207,0.001669,  45.995
   185.2,0.866899,0.536478,2.874196,0.001669,  46.035
   185.4,0.864372,0.535317,2.874201,0.001706,  46.073
   185.6,0.861752,0.534213,2.869611,0.001669,  46.103
   185.8,0.859021,0.533208,2.869621,0.001683,  46.130
   186.0,0.856407,0.532256,2.869642,0.001719,  46.154
   186.2,0.853796,0.530940,2.865126,0.001683,  46.200
   186.4,0.851189,0.529523,2.865126,0.001696,  46.221
   186.6,0.848511,0.528011,2.865121,0.001719,  46.246
   186.8,0.845800,0.526536,2.865111,0.001669,  46.262
   187.0,0.843058,0.525023,2.865137,0.001656,  46.288
   187.2,0.840320,0.523486,2.865179,0.001666,  46.331
   187.4,0.837594,0.521980,2.860731,0.001630,  46.343
   187.6,0.834849,0.520464,2.860742,0.001603,  46.364
   187.8,0.832020,0.518940,2.860731,0.001639,  46.380
   188.0,0.829151,0.517369,2.856256,0.001639,  46.394
   188.2,0.826224,0.515781,2.851826,0.001652,  46.428
   188.4,0.823380,0.514171,2.851799,0.001652,  46.442
   188.6,0.820533,0.512583,2.851778,0.001666,  46.455
   188.8,0.817681,0.511008,2.851763,0.001643,  46.473
   189.0,0.815241,0.509438,2.851752,0.001643,  46.486
   189.2,0.813002,0.507798,2.851752,0.001656,  46.501
   189.4,0.810945,0.506142,2.847387,0.001669,  46.512
   189.6,0.809099,0.504459,2.847387,0.001683,  46.541
   189.8,0.806512,0.502811,2.847392,0.001683,  46.554
   190.0,0.803750,0.501169,2.843081,0.001696,  46.565
   190.2,0.800807,0.499524,2.847403,0.001709,  46.578
   190.4,0.797877,0.497880,2.843076,0.001696,  46.584
   190.6,0.794891,0.496247,2.843076,0.001709,  46.594
   190.8,0.791818,0.494613,2.847387,0.001709,  46.603
   191.0,0.789013,0.492979,2.843045,0.001722,  46.608
   191.2,0.786327,0.491357,2.843029,0.001736,  46.623
   191.4,0.783713,0.489743,2.847345,0.001722,  46.630
   191.6,0.780880,0.488077,2.843013,0.001722,  46.636
   191.8,0.778008,0.486392,2.838739,0.001736,  46.644
   192.0,0.775046,0.484699,2.843013,0.001722,  46.647
   192.2,0.772067,0.483000,2.838734,0.001722,  46.672
   192.4,0.769059,0.481278,2.834497,0.001722,  46.677
   192.6,0.765980,0.479546,2.834497,0.001722,  46.685
   192.8,0.763046,0.477856,2.834502,0.001709,  46.691
   193.0,0.760175,0.476167,2.830317,0.001709,  46.694
   193.2,0.757324,0.474498,2.830312,0.001709,  46.700
   193.4,0.754463,0.472807,2.830306,0.001719,  46.708
   193.6,0.751604,0.471115,2.826145,0.001683,  46.709
   193.8,0.748757,0.469427,2.826150,0.001696,  46.713
   194.0,0.745812,0.467681,2.826171,0.001683,  46.718
   194.2,0.742800,0.465909,2.822076,0.001683,  46.722
   194.4,0.739743,0.464112,2.822071,0.001696,  46.727
   194.6,0.736716,0.462611,2.822055,0.001683,  46.732
   194.8,0.733660,0.461246,2.817956,0.001683,  46.736
   195.0,0.730582,0.460010,2.814006,0.001696,  46.737
   195.2,0.727492,0.458907,2.814142,0.001683,  46.741
   195.4,0.724361,0.457232,2.814343,0.001633,  46.743
   195.6,0.721210,0.455417,2.810335,0.001633,  46.750
   195.8,0.718103,0.453449,2.810256,0.001607,  46.748
   196.0,0.714998,0.451615,2.810108,0.001570,  46.754
   196.2,0.711928,0.449782,2.814074,0.001557,  46.755
   196.4,0.708806,0.447940,2.810061,0.001580,  46.757
   196.6,0.705653,0.446070,2.806105,0.001593,  46.765
   196.8,0.702502,0.444182,2.810045,0.001593,  46.784
   197.0,0.699355,0.442281,2.806042,0.001580,  46.781
   197.2,0.696173,0.440414,2.802075,0.001593,  46.782
   197.4,0.692993,0.438560,2.805989,0.001593,  46.785
   197.6,0.689876,0.436727,2.802043,0.001620,  46.788
   197.8,0.686761,0.434862,2.798143,0.001620,  46.787
   198.0,0.683681,0.432974,2.794272,0.001633,  46.791
   198.2,0.681107,0.431077,2.798127,0.001633,  46.792
   198.4,0.678799,0.429251,2.794256,0.001646,  46.794
   198.6,0.676726,0.427454,2.794256,0.001660,  46.792
   198.8,0.674918,0.425680,2.794266,0.001660,  46.795
   199.0,0.671995,0.423826,2.794298,0.001633,  46.795
   199.2,0.668779,0.421954,2.790519,0.001633,  46.795
   199.4,0.665290,0.420053,2.790514,0.001646,  46.797
   199.6,0.662316,0.418274,2.790493,0.001646,  46.800
   199.8,0.659452,0.416548,2.786668,0.001646,  46.803
   200.0,0.656696,0.414864,2.786652,0.001660,  46.797
   200.2,0.653710,0.413065,2.786642,0.001646,  46.803
   200.4,0.650655,0.411243,2.782882,0.001646,  46.804
   200.6,0.647529,0.409382,2.779143,0.001660,  46.804
   200.8,0.644408,0.407505,2.779138,0.001646,  46.805
   201.0,0.641246,0.405616,2.779138,0.001646,  46.808
   201.2,0.638050,0.403699,2.775431,0.001660,  46.806
   201.4,0.635019,0.401841,2.775431,0.001646,  46.809
   201.6,0.632043,0.400010,2.775426,0.001646,  46.807
   201.8,0.629104,0.398196,2.779133,0.001660,  46.806
   202.0,0.626145,0.396391,2.775463,0.001646,  46.810
   202.2,0.623207,0.394603,2.771835,0.001646,  46.810
   202.4,0.620266,0.392832,2.775495,0.001660,  46.810
   202.6,0.617258,0.391006,2.768174,0.001646,  46.813
   202.8,0.614217,0.389168,2.764533,0.001646,  46.818
   203.0,0.611144,0.387304,2.764533,0.001660,  46.812
   203.2,0.608081,0.385443,2.764549,0.001646,  46.814
   203.4,0.604998,0.383580,2.761006,0.001646,  46.816
   203.6,0.601895,0.381701,2.760996,0.001660,  46.817
   203.8,0.598772,0.380086,2.760985,0.001646,  46.819
   204.0,0.595619,0.378599,2.753902,0.001633,  46.823
   204.2,0.592428,0.377243,2.753960,0.001607,  46.818
   204.4,0.589311,0.376004,2.754060,0.001567,  46.820
   204.6,0.586216,0.374228,2.750714,0.001567,  46.819
   204.8,0.583113,0.372306,2.747259,0.001554,  46.825
   205.0,0.580012,0.370245,2.747217,0.001567,  46.826
   205.2,0.576913,0.368323,2.747133,0.001580,  46.832
   205.4,0.573813,0.366391,2.743667,0.001580,  46.830
   205.6,0.570680,0.364454,2.740230,0.001580,  46.824
   205.8,0.567544,0.362543,2.740198,0.001593,  46.825
   206.0,0.564395,0.360637,2.743578,0.001607,  46.829
   206.2,0.561338,0.358734,2.740151,0.001607,  46.832
   206.4,0.558306,0.356866,2.736761,0.001620,  46.831
   206.6,0.555327,0.355011,2.736734,0.001620,  46.831
   206.8,0.552445,0.353173,2.736708,0.001633,  46.829
   207.0,0.549623,0.351390,2.730005,0.001620,  46.835
   207.2,0.546887,0.349628,2.730000,0.001620,  46.832
   207.4,0.544373,0.347900,2.730011,0.001633,  46.837
   207.6,0.542020,0.346025,2.723446,0.001633,  46.839
   207.8,0.539797,0.344103,2.720198,0.001646,  46.838
   208.0,0.537721,0.342128,2.720203,0.001646,  46.833
   208.2,0.535047,0.340360,2.720208,0.001633,  46.839
   208.4,0.532231,0.338677,2.716980,0.001633,  46.840
   208.6,0.529277,0.337073,2.716964,0.001597,  46.840
   208.8,0.526410,0.335321,2.713743,0.001597,  46.844
   209.0,0.523493,0.333543,2.710540,0.001597,  46.843
   209.2,0.520558,0.331729,2.710535,0.001561,  46.842
   209.4,0.517595,0.329902,2.707381,0.001597,  46.842
   209.6,0.514619,0.328066,2.701148,0.001597,  46.843
   209.8,0.511590,0.326197,2.701148,0.001561,  46.843
   210.0,0.508724,0.324418,2.698063,0.001597,  46.845
   210.2,0.505925,0.322675,2.691946,0.001597,  46.843
   210.4,0.503185,0.320969,2.688914,0.001561,  46.842
   210.6,0.500415,0.319256,2.685908,0.001597,  46.849
   210.8,0.497644,0.317550,2.682929,0.001597,  46.849
   211.0,0.494905,0.315872,2.679954,0.001561,  46.849
   211.2,0.492096,0.314147,2.674069,0.001597,  46.852
   211.4,0.489256,0.312396,2.671154,0.001597,  46.849
   211.6,0.486394,0.310637,2.668257,0.001561,  46.848
   211.8,0.483535,0.308881,2.665391,0.001597,  46.850
   212.0,0.480664,0.307116,2.659719,0.001597,  46.847
   212.2,0.477779,0.305342,2.657003,0.001561,  46.847
   212.4,0.474906,0.303547,2.654357,0.001597,  46.851
   212.6,0.472012,0.301736,2.649025,0.001584,  46.851
   212.8,0.469107,0.299906,2.646290,0.001521,  46.846
   213.0,0.466237,0.298106,2.643499,0.001531,  46.851
   213.2,0.463378,0.296310,2.637977,0.001531,  46.849
   213.4,0.460515,0.294525,2.632607,0.001481,  46.850
   213.6,0.457661,0.292980,2.629930,0.001531,  46.856
   213.8,0.454806,0.291562,2.624676,0.001544,  46.857
   214.0,0.451946,0.290269,2.622057,0.001508,  46.851
   214.2,0.449082,0.289094,2.616896,0.001544,  46.850
   214.4,0.446202,0.287430,2.609283,0.001557,  46.845
   214.6,0.443312,0.285647,2.604275,0.001521,  46.846
   214.8,0.440498,0.283744,2.596883,0.001544,  46.844
   215.0,0.437710,0.282004,2.592030,0.001557,  46.845
   215.2,0.434960,0.280273,2.587258,0.001508,  46.839
   215.4,0.432349,0.278560,2.580205,0.001531,  46.842
   215.6,0.429824,0.276910,2.573292,0.001544,  46.840
   215.8,0.427390,0.275300,2.568749,0.001508,  46.839
   216.0,0.424747,0.273724,2.564249,0.001557,  46.838
   216.2,0.422037,0.272015,2.555347,0.001557,  46.842
   216.4,0.419281,0.270258,2.548734,0.001534,  46.839
   216.6,0.417022,0.268459,2.544344,0.001557,  46.842
   216.8,0.414959,0.266830,2.535702,0.001557,  46.838
   217.0,0.413136,0.265264,2.531454,0.001534,  46.833
   217.2,0.411503,0.263753,2.525178,0.001557,  46.839
   217.4,0.409056,0.262140,2.521046,0.001557,  46.837
   217.6,0.406434,0.260506,2.512918,0.001570,  46.838
   217.8,0.403617,0.258852,2.504933,0.001534,  46.837
   218.0,0.400982,0.257198,2.497102,0.001570,  46.839
   218.2,0.398356,0.255541,2.487515,0.001584,  46.837
   218.4,0.395733,0.253880,2.479984,0.001534,  46.838
   218.6,0.393224,0.252290,2.470752,0.001557,  46.839
   218.8,0.390767,0.250739,2.461718,0.001570,  46.837
   219.0,0.388376,0.249222,2.452851,0.001521,  46.837
   219.2,0.385928,0.247690,2.444161,0.001521,  46.840
   219.4,0.383461,0.246168,2.435636,0.001534,  46.833
   219.6,0.381003,0.244652,2.427299,0.001521,  46.838
   219.8,0.378533,0.243111,2.417514,0.001544,  46.833
   220.0,0.376033,0.241558,2.406394,0.001557,  46.831
   220.2,0.373542,0.240001,2.397048,0.001521,  46.834
   220.4,0.371034,0.238439,2.386384,0.001544,  46.836
   220.6,0.368515,0.236865,2.375969,0.001557,  46.833
   220.8,0.365987,0.235288,2.365818,0.001521,  46.832
   221.0,0.363474,0.233702,2.355899,0.001544,  46.830
   221.2,0.360964,0.232110,2.346212,0.001544,  46.828
   221.4,0.358450,0.230511,2.335388,0.001494,  46.831
   221.6,0.355974,0.228929,2.323525,0.001491,  46.833
   221.8,0.353524,0.227357,2.313245,0.001491,  46.833
   222.0,0.351075,0.225788,2.303198,0.001468,  46.843
   222.2,0.348605,0.224440,2.293388,0.001491,  46.845
   222.4,0.346138,0.223213,2.282616,0.001491,  46.845
   222.6,0.343667,0.222094,2.272131,0.001481,  46.841
   222.8,0.341211,0.221086,2.260789,0.001481,  46.840
   223.0,0.338762,0.219637,2.246488,0.001494,  46.838
   223.2,0.336327,0.218076,2.234672,0.001494,  46.843
   223.4,0.333905,0.216412,2.223142,0.001494,  46.838
   223.6,0.331491,0.214906,2.211877,0.001508,  46.839
   223.8,0.329097,0.213426,2.199946,0.001508,  46.836
   224.0,0.326893,0.211962,2.188343,0.001508,  46.839
   224.2,0.324784,0.210544,2.177041,0.001508,  46.837
   224.4,0.322767,0.209163,2.166030,0.001508,  46.841
   224.6,0.320563,0.207820,2.154429,0.001521,  46.838
   224.8,0.318309,0.206386,2.143137,0.001508,  46.842
   225.0,0.316008,0.204915,2.132114,0.001508,  46.838
   225.2,0.314096,0.203429,2.119740,0.001508,  46.841
   225.4,0.312343,0.202029,2.106914,0.001508,  46.837
   225.6,0.310770,0.200656,2.096757,0.001521,  46.838
   225.8,0.309340,0.199318,2.086838,0.001521,  46.837
   226.0,0.307288,0.197933,2.077873,0.001508,  46.836
   226.2,0.305075,0.196548,2.069093,0.001521,  46.837
   226.4,0.302722,0.195157,2.056949,0.001521,  46.837
   226.6,0.300517,0.193747,2.043772,0.001508,  46.838
   226.8,0.298306,0.192334,2.029648,0.001521,  46.838
   227.0,0.296109,0.190917,2.015973,0.001521,  46.840
   227.2,0.294035,0.189579,2.002720,0.001508,  46.838
   227.4,0.292023,0.188282,1.989859,0.001521,  46.839
   227.6,0.290072,0.187026,1.976783,0.001485,  46.844
   227.8,0.288017,0.185745,1.963520,0.001471,  46.843
   228.0,0.285936,0.184469,1.950099,0.001485,  46.841
   228.2,0.283829,0.183203,1.937085,0.001449,  46.845
   228.4,0.281793,0.181910,1.923419,0.001471,  46.841
   228.6,0.279767,0.180613,1.909178,0.001485,  46.841
   228.8,0.277764,0.179309,1.895865,0.001449,  46.842
   229.0,0.275707,0.178006,1.882948,0.001471,  46.844
   229.2,0.273635,0.176698,1.869495,0.001485,  46.843
   229.4,0.271538,0.175384,1.857319,0.001449,  46.846
   229.6,0.269486,0.174075,1.845464,0.001471,  46.847
   229.8,0.267443,0.172761,1.833076,0.001471,  46.847
   230.0,0.265410,0.171450,1.819514,0.001435,  46.852
   230.2,0.263405,0.170156,1.805258,0.001445,  46.854
   230.4,0.261410,0.168874,1.790000,0.001445,  46.855
   230.6,0.259424,0.167594,1.777639,0.001409,  46.864
   230.8,0.257432,0.166496,1.766266,0.001432,  46.861
   231.0,0.255436,0.165485,1.755463,0.001432,  46.854
   231.2,0.253434,0.164571,1.743289,0.001432,  46.856
   231.4,0.251447,0.163743,1.731122,0.001468,  46.852
   231.6,0.249459,0.162563,1.718326,0.001468,  46.856
   231.8,0.247480,0.161301,1.705890,0.001468,  46.854
   232.0,0.245524,0.159942,1.693199,0.001468,  46.853
   232.2,0.243568,0.158704,1.680276,0.001481,  46.855
   232.4,0.241629,0.157487,1.668289,0.001481,  46.858
   232.6,0.239845,0.156288,1.656063,0.001494,  46.856
   232.8,0.238136,0.155142,1.644442,0.001508,  46.857
   233.0,0.236502,0.154036,1.633138,0.001458,  46.857
   233.2,0.234748,0.152964,1.621872,0.001458,  46.858
   233.4,0.232980,0.151828,1.610649,0.001458,  46.856
   233.6,0.231183,0.150670,1.598963,0.001458,  46.863
   233.8,0.229419,0.149500,1.586872,0.001435,  46.860
   234.0,0.227652,0.148373,1.574185,0.001471,  46.859
   234.2,0.225898,0.147263,1.563885,0.001471,  46.860
   234.4,0.224383,0.146170,1.554493,0.001471,  46.857
   234.6,0.222997,0.145047,1.545733,0.001458,  46.855
   234.8,0.221724,0.143923,1.537578,0.001471,  46.862
   235.0,0.220579,0.142792,1.526008,0.001422,  46.858
   235.2,0.218957,0.141658,1.513734,0.001458,  46.858
   235.4,0.217231,0.140529,1.501003,0.001471,  46.856
   235.6,0.215374,0.139397,1.488675,0.001422,  46.859
   235.8,0.213729,0.138329,1.476341,0.001458,  46.857
   236.0,0.212124,0.137307,1.463651,0.001471,  46.857
   236.2,0.210568,0.136313,1.451606,0.001422,  46.861
   236.4,0.208917,0.135281,1.439870,0.001458,  46.857
   236.6,0.207228,0.134256,1.427918,0.001435,  46.861
   236.8,0.205517,0.133228,1.415994,0.001435,  46.863
   237.0,0.203906,0.132199,1.404242,0.001435,  46.859
   237.2,0.202316,0.131178,1.392195,0.001412,  46.858
   237.4,0.200755,0.130155,1.380351,0.001449,  46.856
   237.6,0.199156,0.129125,1.368849,0.001435,  46.857
   237.8,0.197537,0.128091,1.357095,0.001412,  46.860
   238.0,0.195913,0.127046,1.346549,0.001435,  46.862
   238.2,0.194319,0.126016,1.336500,0.001422,  46.860
   238.4,0.192731,0.124987,1.326787,0.001386,  46.864
   238.6,0.191149,0.123964,1.316282,0.001422,  46.858
   238.8,0.189576,0.122956,1.305660,0.001409,  46.867
   239.0,0.188018,0.121953,1.294682,0.001372,  46.870
   239.2,0.186457,0.120968,1.284439,0.001422,  46.873
   239.4,0.184909,0.120109,1.274436,0.001409,  46.868
   239.6,0.183367,0.119320,1.264539,0.001386,  46.866
   239.8,0.181830,0.118601,1.254101,0.001422,  46.864
   240.0,0.180293,0.117954,1.243491,0.001422,  46.866
   240.2,0.178763,0.117037,1.232717,0.001399,  46.870
   240.4,0.177239,0.116053,1.221922,0.001422,  46.871
   240.6,0.175743,0.115004,1.210915,0.001422,  46.871
   240.8,0.174257,0.114035,1.199721,0.001399,  46.870
   241.0,0.172797,0.113074,1.189943,0.001422,  46.869
   241.2,0.171417,0.112122,1.180718,0.001422,  46.868
   241.4,0.170069,0.111240,1.171919,0.001399,  46.867
   241.6,0.168762,0.110393,1.162811,0.001422,  46.867
   241.8,0.167419,0.109583,1.153724,0.001422,  46.868
   242.0,0.166076,0.108716,1.144740,0.001399,  46.873
   242.2,0.164739,0.107832,1.134990,0.001422,  46.877
   242.4,0.163387,0.106943,1.125003,0.001422,  46.877
   242.6,0.162037,0.106070,1.114633,0.001422,  46.875
   242.8,0.160698,0.105210,1.104961,0.001386,  46.880
   243.0,0.159538,0.104352,1.095484,0.001422,  46.877
   243.2,0.158470,0.103484,1.085952,0.001422,  46.877
   243.4,0.157503,0.102627,1.078031,0.001422,  46.877
   243.6,0.156626,0.101761,1.070810,0.001422,  46.882
   243.8,0.155396,0.100900,1.064212,0.001422,  46.880
   244.0,0.154096,0.100038,1.058325,0.001399,  46.888
   244.2,0.152708,0.099178,1.049705,0.001422,  46.886
   244.4,0.151463,0.098378,1.040319,0.001422,  46.886
   244.6,0.150253,0.097605,1.030341,0.001399,  46.889
   244.8,0.149083,0.096863,1.021024,0.001422,  46.894
   245.0,0.147841,0.096077,1.011771,0.001422,  46.888
   245.2,0.146583,0.095283,1.002534,0.001399,  46.887
   245.4,0.145316,0.094479,0.993422,0.001399,  46.893
   245.6,0.144096,0.093703,0.984492,0.001399,  46.889
   245.8,0.142896,0.092936,0.975635,0.001376,  46.890
   246.0,0.141723,0.092178,0.966711,0.001376,  46.895
   246.2,0.140505,0.091399,0.957770,0.001399,  46.896
   246.4,0.139296,0.090624,0.948708,0.001376,  46.899
   246.6,0.138076,0.089848,0.940671,0.001363,  46.894
   246.8,0.136872,0.089078,0.933134,0.001386,  46.898
   247.0,0.135691,0.088306,0.925959,0.001350,  46.901
   247.2,0.134510,0.087538,0.918097,0.001350,  46.902
   247.4,0.133326,0.086780,0.910078,0.001372,  46.902
   247.6,0.132159,0.086020,0.902012,0.001336,  46.909
   247.8,0.130980,0.085275,0.894270,0.001350,  46.931
   248.0,0.129817,0.084525,0.886573,0.001372,  46.925
   248.2,0.128673,0.083776,0.878916,0.001350,  46.921
   248.4,0.127533,0.083033,0.871121,0.001350,  46.919
   248.6,0.126389,0.082398,0.863293,0.001386,  46.919
   248.8,0.125251,0.081817,0.855387,0.001363,  46.921
   249.0,0.124125,0.081298,0.847497,0.001363,  46.922
   249.2,0.123032,0.080829,0.839541,0.001399,  46.923
   249.4,0.121961,0.080167,0.831560,0.001376,  46.924
   249.6,0.120921,0.079458,0.824161,0.001376,  46.919
   249.8,0.119867,0.078697,0.816979,0.001399,  46.922
   250.0,0.118821,0.078029,0.809966,0.001376,  46.926
   250.2,0.117791,0.077389,0.803121,0.001376,  46.921
   250.4,0.116786,0.076772,0.796433,0.001399,  46.921
   250.6,0.115803,0.076130,0.789895,0.001363,  46.924
   250.8,0.114848,0.075485,0.783001,0.001386,  46.929
   251.0,0.113860,0.074837,0.776084,0.001395,  46.924
   251.2,0.112886,0.074196,0.769062,0.001395,  46.928
   251.4,0.111911,0.073558,0.762105,0.001359,  46.923
   251.6,0.110915,0.072927,0.755093,0.001359,  46.926
   251.8,0.109928,0.072288,0.748093,0.001372,  46.928
   252.0,0.108933,0.071648,0.742182,0.001372,  46.929
   252.2,0.108102,0.071009,0.736755,0.001372,  46.926
   252.4,0.107346,0.070380,0.731821,0.001372,  46.932
   252.6,0.106666,0.069748,0.727311,0.001336,  46.926
   252.8,0.106073,0.069123,0.720953,0.001350,  46.929
   253.0,0.105227,0.068538,0.714149,0.001372,  46.929
   253.2,0.104327,0.067970,0.706940,0.001350,  46.931
   253.4,0.103384,0.067421,0.700221,0.001350,  46.930
   253.6,0.102480,0.066841,0.693481,0.001386,  46.929
   253.8,0.101581,0.066250,0.686754,0.001363,  46.932
   254.0,0.100680,0.065646,0.680164,0.001350,  46.931
   254.2,0.099792,0.065073,0.673643,0.001386,  46.931
   254.4,0.098907,0.064519,0.667149,0.001363,  46.933
   254.6,0.098035,0.063972,0.660796,0.001350,  46.931
   254.8,0.097149,0.063403,0.654512,0.001386,  46.932
   255.0,0.096256,0.062833,0.648269,0.001350,  46.931
   255.2,0.095366,0.062261,0.642411,0.001350,  46.928
   255.4,0.094496,0.061699,0.636729,0.001372,  46.932
   255.6,0.093624,0.061140,0.631242,0.001336,  46.933
   255.8,0.092772,0.060586,0.625607,0.001350,  46.933
   256.0,0.091920,0.060031,0.619976,0.001372,  46.942
   256.2,0.091066,0.059476,0.614334,0.001336,  46.943
   256.4,0.090229,0.058924,0.608766,0.001350,  46.944
   256.6,0.089391,0.058380,0.603228,0.001372,  46.939
   256.8,0.088548,0.057841,0.597662,0.001336,  46.941
   257.0,0.087726,0.057312,0.592094,0.001350,  46.936
   257.2,0.086909,0.056778,0.586506,0.001372,  46.939
   257.4,0.086087,0.056250,0.580900,0.001336,  46.943
   257.6,0.085282,0.055723,0.575291,0.001350,  46.941
   257.8,0.084514,0.055283,0.569662,0.001336,  46.941
   258.0,0.083767,0.054883,0.564014,0.001313,  46.943
   258.2,0.083039,0.054529,0.558960,0.001350,  46.945
   258.4,0.082285,0.054213,0.554179,0.001350,  46.944
   258.6,0.081525,0.053768,0.549619,0.001327,  46.947
   258.8,0.080761,0.053297,0.544690,0.001363,  46.946
   259.0,0.080045,0.052799,0.539718,0.001363,  46.953
   259.2,0.079346,0.052340,0.534666,0.001340,  46.950
   259.4,0.078685,0.051882,0.529750,0.001376,  46.949
   259.6,0.077992,0.051433,0.524894,0.001363,  46.952
   259.8,0.077287,0.050982,0.520024,0.001363,  46.954
   260.0,0.076586,0.050524,0.515133,0.001363,  46.949
   260.2,0.075889,0.050076,0.510227,0.001376,  46.950
   260.4,0.075190,0.049622,0.505296,0.001363,  46.953
   260.6,0.074502,0.049167,0.501125,0.001327,  46.953
   260.8,0.073918,0.048710,0.497313,0.001363,  46.957
   261.0,0.073384,0.048264,0.493838,0.001363,  46.953
   261.2,0.072912,0.047822,0.490706,0.001340,  46.957
   261.4,0.072491,0.047388,0.486177,0.001363,  46.959
   261.6,0.071893,0.046968,0.481293,0.001350,  46.961
   261.8,0.071254,0.046554,0.476100,0.001327,  46.964
   262.0,0.070575,0.046166,0.471366,0.001350,  46.965
   262.2,0.069940,0.045755,0.466708,0.001350,  46.966
   262.4,0.069297,0.045343,0.462129,0.001327,  46.966
   262.6,0.068664,0.044926,0.457483,0.001350,  46.973
   262.8,0.068029,0.044516,0.452831,0.001350,  46.973
   263.0,0.067395,0.044114,0.448193,0.001327,  46.966
   263.2,0.066771,0.043713,0.443819,0.001350,  46.968
   263.4,0.066142,0.043307,0.439535,0.001350,  46.973
   263.6,0.065517,0.042892,0.435366,0.001327,  46.969
   263.8,0.064896,0.042487,0.431340,0.001350,  46.975
   264.0,0.064281,0.042091,0.427428,0.001350,  46.979
   264.2,0.063665,0.041693,0.423611,0.001313,  46.983
   264.4,0.063055,0.041308,0.419747,0.001350,  46.982
   264.6,0.062459,0.040919,0.415900,0.001336,  46.983
   264.8,0.061863,0.040529,0.412082,0.001300,  46.987
   265.0,0.061274,0.040147,0.408244,0.001350,  46.982
   265.2,0.060683,0.039763,0.404413,0.001336,  46.976
   265.4,0.060096,0.039382,0.400590,0.001313,  46.979
   265.6,0.059509,0.039008,0.396708,0.001350,  46.987
   265.8,0.058935,0.038637,0.392794,0.001350,  46.985
   266.0,0.058365,0.038265,0.388851,0.001327,  46.984
   266.2,0.057808,0.037907,0.385022,0.001350,  46.988
   266.4,0.057278,0.037607,0.381201,0.001350,  46.991
   266.6,0.056762,0.037329,0.377418,0.001327,  46.992
   266.8,0.056264,0.037087,0.373457,0.001363,  46.990
   267.0,0.055745,0.036878,0.369400,0.001363,  46.991
   267.2,0.055221,0.036561,0.365279,0.001340,  46.992
   267.4,0.054697,0.036213,0.361827,0.001376,  46.994
   267.6,0.054198,0.035844,0.358663,0.001363,  46.997
   267.8,0.053711,0.035520,0.355756,0.001340,  46.998
   268.0,0.053240,0.035210,0.352569,0.001376,  46.999
   268.2,0.052748,0.034912,0.349383,0.001363,  47.000
   268.4,0.052263,0.034601,0.346197,0.001340,  47.002
   268.6,0.051782,0.034286,0.342922,0.001376,  47.000
   268.8,0.051292,0.033971,0.339619,0.001363,  47.001
   269.0,0.050811,0.033656,0.336275,0.001363,  47.004
   269.2,0.050334,0.033344,0.332971,0.001363,  47.005
   269.4,0.049866,0.033033,0.329690,0.001376,  47.005
   269.6,0.049405,0.032728,0.326394,0.001363,  47.007
   269.8,0.048950,0.032428,0.323378,0.001327,  47.006
   270.0,0.048563,0.032127,0.320518,0.001327,  47.002
   270.2,0.048217,0.031840,0.317768,0.001327,  47.010
   270.4,0.047907,0.031556,0.315165,0.001304,  47.008
   270.6,0.047635,0.031281,0.312294,0.001304,  47.013
   270.8,0.047229,0.030998,0.309385,0.001340,  47.009
   271.0,0.046791,0.030712,0.306452,0.001317,  47.010
   271.2,0.046321,0.030435,0.303502,0.001304,  47.014
   271.4,0.045890,0.030155,0.300531,0.001340,  47.012
   271.6,0.045456,0.029875,0.297546,0.001317,  47.014
   271.8,0.045022,0.029596,0.294686,0.001304,  47.018
   272.0,0.044592,0.029312,0.291899,0.001340,  47.013
   272.2,0.044163,0.029037,0.289164,0.001317,  47.013
   272.4,0.043731,0.028753,0.286423,0.001304,  47.016
   272.6,0.043308,0.028478,0.283704,0.001327,  47.013
   272.8,0.042885,0.028205,0.281026,0.001304,  47.018
   273.0,0.042469,0.027937,0.278381,0.001304,  47.019
   273.2,0.042061,0.027676,0.275768,0.001327,  47.022
   273.4,0.041657,0.027412,0.273170,0.001304,  47.019
   273.6,0.041257,0.027153,0.270601,0.001304,  47.017
   273.8,0.040859,0.026889,0.268041,0.001327,  47.018
   274.0,0.040459,0.026632,0.265497,0.001304,  47.017
   274.2,0.040062,0.026377,0.262783,0.001304,  47.020
   274.4,0.039671,0.026124,0.260017,0.001327,  47.019
   274.6,0.039284,0.025872,0.257156,0.001304,  47.018
   274.8,0.038903,0.025622,0.254529,0.001304,  47.021
   275.0,0.038536,0.025386,0.251979,0.001327,  47.018
   275.2,0.038187,0.025155,0.249510,0.001304,  47.019
   275.4,0.037852,0.024930,0.247203,0.001304,  47.019
   275.6,0.037497,0.024728,0.245005,0.001340,  47.017
   275.8,0.037150,0.024547,0.242926,0.001317,  47.019
   276.0,0.036802,0.024372,0.240641,0.001304,  47.017
   276.2,0.036454,0.024222,0.238320,0.001340,  47.016
   276.4,0.036121,0.024019,0.235948,0.001317,  47.020
   276.6,0.035788,0.023808,0.233689,0.001304,  47.021
   276.8,0.035446,0.023584,0.231436,0.001340,  47.016
   277.0,0.035119,0.023371,0.229231,0.001304,  47.019
   277.2,0.034790,0.023157,0.226949,0.001290,  47.019
   277.4,0.034454,0.022939,0.224628,0.001300,  47.017
   277.6,0.034134,0.022728,0.222287,0.001277,  47.019
   277.8,0.033806,0.022519,0.219889,0.001290,  47.019
   278.0,0.033488,0.022308,0.217444,0.001290,  47.020
   278.2,0.033186,0.022099,0.214947,0.001290,  47.016
   278.4,0.032880,0.021897,0.212730,0.001304,  47.019
   278.6,0.032572,0.021696,0.210613,0.001304,  47.022
   278.8,0.032279,0.021495,0.208595,0.001290,  47.020
   279.0,0.031982,0.021305,0.206800,0.001290,  47.016
   279.2,0.031729,0.021124,0.205182,0.001290,  47.020
   279.4,0.031495,0.020925,0.203707,0.001290,  47.015
   279.6,0.031289,0.020736,0.202394,0.001304,  47.016
   279.8,0.031097,0.020543,0.200541,0.001304,  47.019
   280.0,0.030827,0.020351,0.198559,0.001304,  47.016
   280.2,0.030538,0.020161,0.196459,0.001317,  47.016
   280.4,0.030221,0.019965,0.194525,0.001317,  47.021
   280.6,0.029922,0.019775,0.192606,0.001317,  47.019
   280.8,0.029633,0.019591,0.190710,0.001330,  47.017
   281.0,0.029348,0.019407,0.188776,0.001330,  47.023
   281.2,0.029061,0.019217,0.186811,0.001317,  47.025
   281.4,0.028781,0.019032,0.184819,0.001330,  47.023
   281.6,0.028501,0.018853,0.183013,0.001317,  47.022
   281.8,0.028218,0.018673,0.181275,0.001327,  47.027
   282.0,0.027950,0.018496,0.179604,0.001304,  47.024
   282.2,0.027673,0.018322,0.177887,0.001304,  47.026
   282.4,0.027396,0.018148,0.176183,0.001340,  47.025
   282.6,0.027137,0.017972,0.174479,0.001317,  47.026
   282.8,0.026870,0.017793,0.172778,0.001317,  47.028
   283.0,0.026599,0.017619,0.171078,0.001353,  47.024
   283.2,0.026343,0.017449,0.169373,0.001330,  47.032
   283.4,0.026088,0.017283,0.167569,0.001330,  47.032
   283.6,0.025842,0.017121,0.165731,0.001353,  47.033
   283.8,0.025611,0.016966,0.163828,0.001330,  47.028
   284.0,0.025398,0.016822,0.162264,0.001330,  47.031
   284.2,0.025158,0.016694,0.160840,0.001330,  47.028
   284.4,0.024931,0.016569,0.159542,0.001330,  47.033
   284.6,0.024699,0.016461,0.158057,0.001330,  47.030
   284.8,0.024463,0.016356,0.156556,0.001330,  47.030
   285.0,0.024242,0.016215,0.155021,0.001330,  47.030
   285.2,0.024017,0.016075,0.153516,0.001330,  47.030
   285.4,0.023789,0.015920,0.152025,0.001330,  47.032
   285.6,0.023572,0.015780,0.150553,0.001330,  47.031
   285.8,0.023347,0.015635,0.149035,0.001330,  47.035
   286.0,0.023129,0.015491,0.147497,0.001330,  47.051
   286.2,0.022908,0.015355,0.145940,0.001330,  47.050
   286.4,0.022696,0.015214,0.144300,0.001330,  47.053
   286.6,0.022492,0.015067,0.142593,0.001330,  47.054
   286.8,0.022284,0.014931,0.140823,0.001330,  47.052
   287.0,0.022095,0.014800,0.139398,0.001330,  47.052
   287.2,0.021893,0.014673,0.138120,0.001330,  47.051
   287.4,0.021689,0.014540,0.136966,0.001330,  47.054
   287.6,0.021494,0.014414,0.135826,0.001330,  47.051
   287.8,0.021323,0.014296,0.134739,0.001330,  47.052
   288.0,0.021172,0.014164,0.133726,0.001330,  47.058
   288.2,0.021028,0.014039,0.132779,0.001343,  47.050
   288.4,0.020910,0.013911,0.131462,0.001343,  47.053
   288.6,0.020725,0.013779,0.130050,0.001343,  47.054
   288.8,0.020530,0.013658,0.128511,0.001357,  47.057
   289.0,0.020325,0.013532,0.126955,0.001357,  47.058
   289.2,0.020133,0.013406,0.125352,0.001343,  47.057
   289.4,0.019935,0.013285,0.123680,0.001330,  47.058
   289.6,0.019749,0.013160,0.122498,0.001330,  47.060
   289.8,0.019562,0.013037,0.121505,0.001330,  47.061
   290.0,0.019370,0.012915,0.120726,0.001330,  47.057
   290.2,0.019192,0.012794,0.119698,0.001330,  47.052
   290.4,0.019012,0.012676,0.118637,0.001343,  47.059
   290.6,0.018822,0.012558,0.117554,0.001343,  47.060
   290.8,0.018650,0.012441,0.116493,0.001343,  47.056
   291.0,0.018475,0.012321,0.115434,0.001330,  47.058
   291.2,0.018300,0.012210,0.114375,0.001317,  47.055
   291.4,0.018132,0.012097,0.113248,0.001317,  47.056
   291.6,0.017960,0.011983,0.112114,0.001330,  47.054
   291.8,0.017788,0.011874,0.110940,0.001343,  47.057
   292.0,0.017610,0.011770,0.109854,0.001343,  47.053
   292.2,0.017452,0.011668,0.108811,0.001343,  47.053
   292.4,0.017302,0.011564,0.107796,0.001357,  47.053
   292.6,0.017157,0.011467,0.106808,0.001370,  47.056
   292.8,0.017007,0.011366,0.105858,0.001357,  47.056
   293.0,0.016855,0.011262,0.104942,0.001357,  47.052
   293.2,0.016702,0.011164,0.103944,0.001370,  47.054
   293.4,0.016553,0.011079,0.102910,0.001357,  47.053
   293.6,0.016406,0.011002,0.101841,0.001357,  47.053
   293.8,0.016256,0.010934,0.100827,0.001357,  47.053
   294.0,0.016106,0.010875,0.099831,0.001380,  47.053
   294.2,0.015959,0.010784,0.098837,0.001343,  47.055
   294.4,0.015815,0.010694,0.097853,0.001357,  47.053
   294.6,0.015671,0.010593,0.096889,0.001357,  47.054
   294.8,0.015527,0.010498,0.095937,0.001357,  47.056
   295.0,0.015390,0.010406,0.094980,0.001370,  47.058
   295.2,0.015257,0.010318,0.094038,0.001357,  47.056
   295.4,0.015120,0.010222,0.093098,0.001357,  47.054
   295.6,0.014996,0.010138,0.092147,0.001370,  47.059
   295.8,0.014866,0.010059,0.091189,0.001357,  47.058
   296.0,0.014730,0.009970,0.090236,0.001357,  47.054
   296.2,0.014603,0.009885,0.089319,0.001357,  47.057
   296.4,0.014495,0.009809,0.088429,0.001343,  47.056
   296.6,0.014397,0.009719,0.087556,0.001343,  47.057
   296.8,0.014299,0.009639,0.086709,0.001357,  47.060
   297.0,0.014226,0.009559,0.085872,0.001357,  47.059
   297.2,0.014107,0.009478,0.085067,0.001357,  47.055
   297.4,0.013982,0.009394,0.084265,0.001357,  47.055
   297.6,0.013850,0.009312,0.083535,0.001370,  47.060
   297.8,0.013726,0.009234,0.082853,0.001370,  47.059
   298.0,0.013595,0.009153,0.082203,0.001370,  47.062
   298.2,0.013474,0.009068,0.081483,0.001370,  47.063
   298.4,0.013353,0.008986,0.080739,0.001370,  47.063
   298.6,0.013228,0.008907,0.079978,0.001370,  47.062
   298.8,0.013116,0.008833,0.079216,0.001370,  47.065
   299.0,0.013000,0.008752,0.078446,0.001370,  47.063
   299.2,0.012878,0.008676,0.077661,0.001370,  47.064
   299.4,0.012759,0.008603,0.076925,0.001370,  47.064
   299.6,0.012643,0.008520,0.076207,0.001370,  47.062
   299.8,0.012527,0.008451,0.075497,0.001370,  47.064
   300.0,0.012411,0.008378,0.074743,0.001370,  47.066
   300.2,0.012298,0.008299,0.073993,0.001370,  47.068
   300.4,0.012185,0.008231,0.073219,0.001370,  47.062
   300.6,0.012075,0.008160,0.072510,0.001370,  47.068
   300.8,0.011981,0.008092,0.071826,0.001370,  47.064
   301.0,0.011879,0.008030,0.071158,0.001370,  47.070
   301.2,0.011782,0.007968,0.070532,0.001370,  47.068
   301.4,0.011691,0.007895,0.069942,0.001370,  47.069
   301.6,0.011592,0.007831,0.069372,0.001370,  47.073
   301.8,0.011486,0.007767,0.068731,0.001370,  47.070
   302.0,0.011389,0.007711,0.068071,0.001370,  47.071
   302.2,0.011292,0.007654,0.067383,0.001334,  47.074
   302.4,0.011193,0.007613,0.066738,0.001347,  47.071
   302.6,0.011096,0.007571,0.066121,0.001347,  47.072
   302.8,0.011004,0.007513,0.065492,0.001311,  47.072
   303.0,0.010908,0.007449,0.064837,0.001324,  47.072
   303.2,0.010816,0.007390,0.064154,0.001347,  47.072
   303.4,0.010725,0.007326,0.063466,0.001360,  47.067
   303.6,0.010640,0.007268,0.062823,0.001360,  47.073
   303.8,0.010548,0.007213,0.062202,0.001360,  47.073
   304.0,0.010462,0.007157,0.061592,0.001360,  47.071
   304.2,0.010385,0.007099,0.060996,0.001374,  47.074
   304.4,0.010293,0.007052,0.060415,0.001337,  47.073
   304.6,0.010204,0.006996,0.059830,0.001360,  47.072
   304.8,0.010125,0.006938,0.059201,0.001374,  47.074
   305.0,0.010052,0.006889,0.058550,0.001337,  47.071
   305.2,0.009988,0.006832,0.057866,0.001374,  47.074
   305.4,0.009931,0.006780,0.057349,0.001387,  47.068
   305.6,0.009881,0.006731,0.056905,0.001387,  47.072
   305.8,0.009808,0.006678,0.056515,0.001374,  47.073
   306.0,0.009728,0.006630,0.056196,0.001387,  47.073
   306.2,0.009639,0.006573,0.055726,0.001374,  47.069
   306.4,0.009555,0.006523,0.055213,0.001360,  47.073
   306.6,0.009475,0.006469,0.054679,0.001374,  47.078
   306.8,0.009401,0.006416,0.054201,0.001374,  47.075
   307.0,0.009317,0.006363,0.053744,0.001374,  47.076
   307.2,0.009234,0.006309,0.053304,0.001387,  47.080
   307.4,0.009160,0.006264,0.052797,0.001374,  47.076
   307.6,0.009079,0.006212,0.052292,0.001360,  47.079
   307.8,0.009007,0.006161,0.051757,0.001360,  47.078
   308.0,0.008936,0.006109,0.051258,0.001360,  47.076
   308.2,0.008858,0.006059,0.050773,0.001347,  47.074
   308.4,0.008792,0.006018,0.050296,0.001360,  47.075
   308.6,0.008717,0.005972,0.049783,0.001374,  47.076
   308.8,0.008638,0.005923,0.049280,0.001374,  47.077
   309.0,0.008575,0.005880,0.048768,0.001387,  47.076
   309.2,0.008509,0.005829,0.048297,0.001387,  47.080
   309.4,0.008434,0.005788,0.047848,0.001374,  47.076
   309.6,0.008369,0.005745,0.047421,0.001387,  47.083
   309.8,0.008309,0.005706,0.047007,0.001387,  47.081
   310.0,0.008239,0.005671,0.046596,0.001387,  47.077
   310.2,0.008174,0.005639,0.046192,0.001400,  47.075
   310.4,0.008117,0.005608,0.045792,0.001400,  47.082
   310.6,0.008054,0.005582,0.045386,0.001400,  47.080
   310.8,0.007993,0.005546,0.045006,0.001413,  47.080
   311.0,0.007940,0.005504,0.044598,0.001413,  47.080
   311.2,0.007876,0.005465,0.044183,0.001413,  47.080
   311.4,0.007814,0.005423,0.043766,0.001413,  47.080
   311.6,0.007756,0.005383,0.043336,0.001400,  47.079
   311.8,0.007691,0.005339,0.042898,0.001387,  47.084
   312.0,0.007633,0.005296,0.042457,0.001400,  47.085
   312.2,0.007578,0.005261,0.042070,0.001400,  47.084
   312.4,0.007518,0.005219,0.041694,0.001400,  47.086
   312.6,0.007465,0.005179,0.041350,0.001400,  47.082
   312.8,0.007418,0.005146,0.041025,0.001400,  47.082
   313.0,0.007372,0.005114,0.040735,0.001364,  47.080
   313.2,0.007327,0.005074,0.040463,0.001400,  47.082
   313.4,0.007292,0.005038,0.040219,0.001400,  47.082
   313.6,0.007252,0.005005,0.039870,0.001364,  47.083
   313.8,0.007205,0.004967,0.039496,0.001413,  47.086
   314.0,0.007151,0.004938,0.039090,0.001413,  47.079
   314.2,0.007095,0.004906,0.038785,0.001413,  47.077
   314.4,0.007038,0.004872,0.038505,0.001413,  47.079
   314.6,0.006983,0.004840,0.038259,0.001413,  47.080
   314.8,0.006933,0.004806,0.037927,0.001413,  47.076
   315.0,0.006876,0.004774,0.037558,0.001413,  47.083
   315.2,0.006823,0.004743,0.037163,0.001413,  47.083
   315.4,0.006778,0.004714,0.036775,0.001413,  47.086
   315.6,0.006722,0.004680,0.036392,0.001413,  47.083
   315.8,0.006674,0.004643,0.035999,0.001427,  47.083
   316.0,0.006629,0.004614,0.035636,0.001390,  47.078
   316.2,0.006575,0.004585,0.035305,0.001390,  47.081
   316.4,0.006528,0.004547,0.034990,0.001404,  47.080
   316.6,0.006484,0.004520,0.034677,0.001381,  47.080
   316.8,0.006433,0.004486,0.034377,0.001404,  47.081
   317.0,0.006388,0.004454,0.034079,0.001404,  47.074
   317.2,0.006340,0.004425,0.033758,0.001381,  47.075
   317.4,0.006298,0.004391,0.033436,0.001381,  47.078
   317.6,0.006253,0.004360,0.033113,0.001381,  47.078
   317.8,0.006216,0.004336,0.032808,0.001381,  47.080
   318.0,0.006174,0.004306,0.032522,0.001381,  47.081
   318.2,0.006122,0.004281,0.032254,0.001381,  47.077
   318.4,0.006084,0.004251,0.031984,0.001381,  47.080
   318.6,0.006041,0.004227,0.031713,0.001381,  47.079
   318.8,0.005995,0.004201,0.031448,0.001381,  47.079
   319.0,0.005961,0.004183,0.031155,0.001381,  47.078
   319.2,0.005924,0.004165,0.030840,0.001367,  47.080
   319.4,0.005881,0.004141,0.030522,0.001367,  47.076
   319.6,0.005847,0.004116,0.030264,0.001381,  47.075
   319.8,0.005810,0.004093,0.030031,0.001381,  47.080
   320.0,0.005761,0.004067,0.029820,0.001381,  47.075
   320.2,0.005725,0.004038,0.029562,0.001381,  47.074
   320.4,0.005688,0.004013,0.029283,0.001381,  47.074
   320.6,0.005644,0.003988,0.028988,0.001381,  47.067
   320.8,0.005616,0.003964,0.028688,0.001381,  47.071
   321.0,0.005582,0.003942,0.028380,0.001358,  47.075
   321.2,0.005547,0.003914,0.028065,0.001394,  47.071
   321.4,0.005522,0.003894,0.027827,0.001358,  47.074
   321.6,0.005495,0.003876,0.027616,0.001358,  47.072
   321.8,0.005462,0.003853,0.027446,0.001394,  47.074
   322.0,0.005445,0.003830,0.027308,0.001394,  47.074
   322.2,0.005421,0.003810,0.027065,0.001407,  47.074
   322.4,0.005392,0.003786,0.026800,0.001394,  47.073
   322.6,0.005354,0.003763,0.026517,0.001394,  47.074
   322.8,0.005315,0.003745,0.026310,0.001407,  47.076
   323.0,0.005280,0.003725,0.026132,0.001394,  47.075
   323.2,0.005246,0.003698,0.025973,0.001381,  47.072
   323.4,0.005211,0.003681,0.025751,0.001367,  47.071
   323.6,0.005179,0.003659,0.025531,0.001377,  47.074
   323.8,0.005136,0.003639,0.025289,0.001377,  47.072
   324.0,0.005104,0.003620,0.025066,0.001341,  47.066
   324.2,0.005075,0.003598,0.024857,0.001390,  47.070
   324.4,0.005037,0.003572,0.024654,0.001404,  47.071
   324.6,0.005011,0.003552,0.024466,0.001367,  47.070
   324.8,0.004980,0.003532,0.024285,0.001390,  47.069
   325.0,0.004948,0.003510,0.024098,0.001390,  47.069
   325.2,0.004917,0.003489,0.023881,0.001367,  47.069
   325.4,0.004888,0.003470,0.023644,0.001367,  47.068
   325.6,0.004861,0.003448,0.023386,0.001367,  47.063
   325.8,0.004832,0.003432,0.023177,0.001381,  47.070
   326.0,0.004806,0.003410,0.022975,0.001381,  47.063
   326.2,0.004776,0.003392,0.022794,0.001381,  47.064
   326.4,0.004745,0.003376,0.022613,0.001381,  47.063
   326.6,0.004718,0.003358,0.022437,0.001417,  47.065
   326.8,0.004692,0.003339,0.022273,0.001417,  47.063
   327.0,0.004660,0.003318,0.022104,0.001381,  47.063
   327.2,0.004633,0.003307,0.021924,0.001404,  47.062
   327.4,0.004607,0.003288,0.021742,0.001404,  47.062
   327.6,0.004580,0.003282,0.021601,0.001394,  47.064
   327.8,0.004557,0.003269,0.021457,0.001394,  47.064
   328.0,0.004530,0.003252,0.021332,0.001407,  47.062
   328.2,0.004504,0.003238,0.021178,0.001407,  47.062
   328.4,0.004477,0.003218,0.021010,0.001407,  47.062
   328.6,0.004453,0.003199,0.020828,0.001421,  47.063
   328.8,0.004430,0.003185,0.020653,0.001407,  47.063
   329.0,0.004403,0.003167,0.020472,0.001407,  47.065
   329.2,0.004379,0.003153,0.020289,0.001407,  47.064
   329.4,0.004358,0.003139,0.020099,0.001407,  47.064
   329.6,0.004337,0.003125,0.019890,0.001394,  47.063
   329.8,0.004318,0.003110,0.019696,0.001394,  47.065
   330.0,0.004297,0.003094,0.019556,0.001394,  47.062
   330.2,0.004281,0.003075,0.019437,0.001371,  47.062
   330.4,0.004257,0.003057,0.019346,0.001407,  47.062
   330.6,0.004250,0.003045,0.019142,0.001371,  47.058
   330.8,0.004234,0.003032,0.018909,0.001371,  47.061
   331.0,0.004215,0.003018,0.018632,0.001407,  47.063
   331.2,0.004197,0.003008,0.018307,0.001421,  47.059
   331.4,0.004173,0.003002,0.018179,0.001407,  47.058
   331.6,0.004154,0.002987,0.018106,0.001407,  47.058
   331.8,0.004133,0.002975,0.018075,0.001421,  47.062
   332.0,0.004109,0.002962,0.018003,0.001407,  47.057
   332.2,0.004088,0.002944,0.017923,0.001407,  47.059
   332.4,0.004067,0.002931,0.017856,0.001421,  47.050
   332.6,0.004052,0.002918,0.017727,0.001407,  47.054
   332.8,0.004034,0.002906,0.017571,0.001407,  47.057
   333.0,0.004006,0.002889,0.017379,0.001421,  47.052
   333.2,0.003991,0.002877,0.017252,0.001407,  47.052
   333.4,0.003973,0.002864,0.017145,0.001407,  47.052
   333.6,0.003945,0.002852,0.017051,0.001421,  47.047
   333.8,0.003930,0.002842,0.016842,0.001407,  47.046
   334.0,0.003912,0.002828,0.016579,0.001407,  47.047
   334.2,0.003891,0.002818,0.016286,0.001421,  47.043
   334.4,0.003879,0.002809,0.016170,0.001407,  47.044
   334.6,0.003863,0.002797,0.016111,0.001407,  47.046
   334.8,0.003844,0.002785,0.016117,0.001421,  47.041
   335.0,0.003826,0.002782,0.016078,0.001421,  47.041
   335.2,0.003807,0.002768,0.016065,0.001434,  47.039
   335.4,0.003789,0.002748,0.016052,0.001447,  47.035
   335.6,0.003770,0.002736,0.015993,0.001411,  47.035
   335.8,0.003754,0.002725,0.015919,0.001424,  47.035
   336.0,0.003738,0.002711,0.015825,0.001424,  47.035
   336.2,0.003725,0.002710,0.015723,0.001388,  47.035
   336.4,0.003716,0.002705,0.015601,0.001424,  47.030
   336.6,0.003701,0.002692,0.015464,0.001424,  47.031
   336.8,0.003681,0.002689,0.015341,0.001411,  47.028
   337.0,0.003667,0.002676,0.015206,0.001434,  47.031
   337.2,0.003657,0.002668,0.015076,0.001447,  47.027
   337.4,0.003637,0.002660,0.014962,0.001411,  47.031
   337.6,0.003612,0.002648,0.014848,0.001411,  47.028
   337.8,0.003598,0.002640,0.014752,0.001424,  47.028
   338.0,0.003585,0.002628,0.014535,0.001388,  47.023
   338.2,0.003566,0.002623,0.014257,0.001424,  47.022
   338.4,0.003555,0.002615,0.013930,0.001424,  47.021
   338.6,0.003548,0.002607,0.013781,0.001388,  47.024
   338.8,0.003538,0.002602,0.013704,0.001424,  47.023
   339.0,0.003524,0.002596,0.013694,0.001424,  47.023
   339.2,0.003506,0.002583,0.013674,0.001424,  47.020
   339.4,0.003493,0.002569,0.013688,0.001437,  47.025
   339.6,0.003485,0.002561,0.013723,0.001437,  47.023
   339.8,0.003474,0.002555,0.013721,0.001415,  47.021
   340.0,0.003466,0.002552,0.013701,0.001451,  47.020
   340.2,0.003453,0.002546,0.013684,0.001437,  47.019
   340.4,0.003443,0.002535,0.013654,0.001437,  47.021
   340.6,0.003432,0.002525,0.013577,0.001401,  47.020
   340.8,0.003421,0.002521,0.013474,0.001437,  47.020
   341.0,0.003406,0.002513,0.013356,0.001437,  47.021
   341.2,0.003390,0.002500,0.013294,0.001401,  47.027
   341.4,0.003379,0.002491,0.013252,0.001437,  47.027
   341.6,0.003363,0.002483,0.013218,0.001437,  47.027
   341.8,0.003350,0.002478,0.013158,0.001415,  47.024
   342.0,0.003340,0.002468,0.013090,0.001451,  47.020
   342.2,0.003326,0.002462,0.013021,0.001451,  47.018
   342.4,0.003313,0.002456,0.012932,0.001428,  47.022
   342.6,0.003303,0.002448,0.012822,0.001451,  47.022
   342.8,0.003292,0.002439,0.012704,0.001451,  47.022
   343.0,0.003282,0.002433,0.012628,0.001428,  47.024
   343.2,0.003277,0.002427,0.012566,0.001451,  47.023
   343.4,0.003264,0.002419,0.012516,0.001451,  47.022
   343.6,0.003248,0.002413,0.012427,0.001428,  47.023
   343.8,0.003244,0.002405,0.012324,0.001464,  47.024
   344.0,0.003231,0.002395,0.012218,0.001464,  47.022
   344.2,0.003214,0.002385,0.012122,0.001428,  47.022
   344.4,0.003203,0.002379,0.012019,0.001464,  47.019
   344.6,0.003195,0.002374,0.011928,0.001464,  47.028
   344.8,0.003185,0.002373,0.011865,0.001428,  47.023
   345.0,0.003177,0.002367,0.011810,0.001464,  47.023
   345.2,0.003169,0.002361,0.011768,0.001428,  47.023
   345.4,0.003161,0.002357,0.011719,0.001441,  47.023
   345.6,0.003156,0.002353,0.011677,0.001441,  47.026
   345.8,0.003145,0.002351,0.011628,0.001405,  47.028
   346.0,0.003132,0.002343,0.011525,0.001454,  47.027
   346.2,0.003127,0.002336,0.011387,0.001441,  47.024
   346.4,0.003116,0.002330,0.011227,0.001405,  47.030
   346.6,0.003106,0.002315,0.011158,0.001454,  47.031
   346.8,0.003098,0.002316,0.011115,0.001441,  47.031
   347.0,0.003090,0.002312,0.011107,0.001418,  47.032
   347.2,0.003079,0.002305,0.011059,0.001454,  47.033
   347.4,0.003071,0.002304,0.011012,0.001454,  47.032
   347.6,0.003066,0.002296,0.010981,0.001454,  47.035
   347.8,0.003055,0.002288,0.010933,0.001431,  47.033
   348.0,0.003048,0.002285,0.010884,0.001454,  47.034
   348.2,0.003040,0.002279,0.010834,0.001454,  47.034
   348.4,0.003026,0.002272,0.010784,0.001468,  47.036
   348.6,0.003019,0.002270,0.010745,0.001454,  47.036
   348.8,0.003016,0.002263,0.010687,0.001454,  47.036
   349.0,0.003005,0.002262,0.010634,0.001468,  47.038
   349.2,0.003006,0.002254,0.010550,0.001454,  47.035
   349.4,0.002992,0.002250,0.010460,0.001491,  47.036
   349.6,0.002984,0.002242,0.010361,0.001504,  47.037
   349.8,0.002980,0.002239,0.010272,0.001454,  47.036
   350.0,0.002961,0.002235,0.010186,0.001491,  47.040
   350.2,0.002962,0.002225,0.010095,0.001504,  47.040
   350.4,0.002962,0.002226,0.010011,0.001454,  47.041
   350.6,0.002950,0.002222,0.009934,0.001491,  47.040
   350.8,0.002945,0.002209,0.009869,0.001504,  47.040
   351.0,0.002937,0.002208,0.009834,0.001454,  47.037
   351.2,0.002926,0.002209,0.009832,0.001491,  47.042
   351.4,0.002918,0.002201,0.009857,0.001504,  47.044
   351.6,0.002913,0.002199,0.009842,0.001454,  47.046
   351.8,0.002902,0.002195,0.009818,0.001491,  47.044
   352.0,0.002894,0.002187,0.009788,0.001504,  47.042
   352.2,0.002890,0.002180,0.009757,0.001468,  47.045
   352.4,0.002878,0.002170,0.009726,0.001504,  47.042
   352.6,0.002870,0.002160,0.009675,0.001517,  47.049
   352.8,0.002862,0.002163,0.009626,0.001481,  47.047
   353.0,0.002851,0.002161,0.009581,0.001504,  47.044
   353.2,0.002849,0.002148,0.009531,0.001481,  47.044
   353.4,0.002844,0.002146,0.009481,0.001481,  47.046
   353.6,0.002832,0.002146,0.009425,0.001481,  47.044
   353.8,0.002833,0.002137,0.009376,0.001458,  47.048
   354.0,0.002825,0.002138,0.008999,0.001481,  47.042
   354.2,0.002814,0.002140,0.008454,0.001481,  47.043
   354.4,0.002815,0.002132,0.007754,0.001458,  47.044
   354.6,0.002810,0.002132,0.007684,0.001481,  47.043
   354.8,0.002799,0.002127,0.007848,0.001481,  47.044
   355.0,0.002794,0.002125,0.008250,0.001494,  47.044
   355.2,0.002797,0.002121,0.008353,0.001481,  47.044
   355.4,0.002788,0.002115,0.008417,0.001517,  47.041
   355.6,0.002783,0.002113,0.008446,0.001553,  47.048
   355.8,0.002784,0.002113,0.008489,0.001517,  47.044
   356.0,0.002775,0.002113,0.008518,0.001567,  47.043
   356.2,0.002773,0.002111,0.008528,0.001517,  47.042
   356.4,0.002765,0.002107,0.008543,0.001481,  47.046
   356.6,0.002753,0.002101,0.008552,0.001481,  47.049
   356.8,0.002751,0.002099,0.008547,0.001481,  47.048
   357.0,0.002744,0.002090,0.008542,0.001458,  47.046
   357.2,0.002738,0.002086,0.008543,0.001481,  47.045
   357.4,0.002729,0.002083,0.008532,0.001481,  47.046
   357.6,0.002730,0.002076,0.008508,0.001458,  47.046
   357.8,0.002725,0.002073,0.008471,0.001458,  47.049
   358.0,0.002714,0.002069,0.008425,0.001471,  47.045
   358.2,0.002715,0.002066,0.008368,0.001435,  47.047
   358.4,0.002713,0.002065,0.008325,0.001435,  47.047
   358.6,0.002701,0.002063,0.008293,0.001471,  47.051
   358.8,0.002699,0.002059,0.008255,0.001435,  47.048
   359.0,0.002694,0.002053,0.008213,0.001435,  47.043
   359.2,0.002683,0.002047,0.008188,0.001471,  47.045
   359.4,0.002680,0.002043,0.008157,0.001435,  47.046
   359.6,0.002681,0.002042,0.008100,0.001435,  47.044
   359.8,0.002672,0.002038,0.008030,0.001458,  47.045
   360.0,0.002667,0.002034,0.007951,0.001435,  47.044
   360.2,0.002665,0.002034,0.007806,0.001435,  47.047
   360.4,0.002657,0.002030,0.007615,0.001471,  47.050
   360.6,0.002654,0.002028,0.007376,0.001435,  47.045
   360.8,0.002655,0.002024,0.007332,0.001435,  47.048
   361.0,0.002646,0.002024,0.007367,0.001471,  47.045
   361.2,0.002641,0.002023,0.007468,0.001435,  47.046
   361.4,0.002642,0.002020,0.007492,0.001435,  47.044
   361.6,0.002630,0.002018,0.007515,0.001471,  47.046
   361.8,0.002628,0.002009,0.007538,0.001448,  47.052
   362.0,0.002623,0.002009,0.007541,0.001448,  47.049
   362.2,0.002612,0.002008,0.007530,0.001485,  47.052
   362.4,0.002609,0.002008,0.007505,0.001462,  47.053
   362.6,0.002613,0.002004,0.007495,0.001475,  47.053
   362.8,0.002604,0.002000,0.007496,0.001498,  47.050
   363.0,0.002605,0.001998,0.007485,0.001462,  47.056
   363.2,0.002608,0.001994,0.007481,0.001475,  47.057
   363.4,0.002600,0.001994,0.007483,0.001511,  47.060
   363.6,0.002601,0.001990,0.007485,0.001511,  47.061
   363.8,0.002593,0.001986,0.007460,0.001511,  47.062
   364.0,0.002586,0.001989,0.007415,0.001498,  47.057
   364.2,0.002587,0.001988,0.007362,0.001498,  47.061
   364.4,0.002585,0.001982,0.007299,0.001511,  47.061
   364.6,0.002578,0.001982,0.007226,0.001511,  47.064
   364.8,0.002579,0.001982,0.007152,0.001498,  47.063
   365.0,0.002574,0.001981,0.007113,0.001462,  47.065
   365.2,0.002572,0.001980,0.007088,0.001475,  47.068
   365.4,0.002569,0.001980,0.007072,0.001498,  47.066
   365.6,0.002569,0.001980,0.007079,0.001462,  47.065
   365.8,0.002566,0.001974,0.007068,0.001475,  47.068
   366.0,0.002557,0.001970,0.007063,0.001498,  47.067
   366.2,0.002561,0.001965,0.007069,0.001462,  47.070
   366.4,0.002556,0.001965,0.007052,0.001475,  47.074
   366.6,0.002547,0.001965,0.007028,0.001498,  47.070
   366.8,0.002550,0.001961,0.007003,0.001462,  47.069
   367.0,0.002545,0.001962,0.006978,0.001475,  47.073
   367.2,0.002536,0.001965,0.006940,0.001498,  47.072
   367.4,0.002540,0.001963,0.006895,0.001462,  47.074
   367.6,0.002535,0.001955,0.006878,0.001475,  47.077
   367.8,0.002526,0.001952,0.006866,0.001511,  47.078
   368.0,0.002529,0.001945,0.006854,0.001488,  47.073
   368.2,0.002524,0.001944,0.006810,0.001488,  47.075
   368.4,0.002515,0.001942,0.006764,0.001501,  47.076
   368.6,0.002519,0.001939,0.006685,0.001465,  47.075
   368.8,0.002516,0.001944,0.006647,0.001501,  47.076
   369.0,0.002514,0.001943,0.006609,0.001488,  47.077
   369.2,0.002508,0.001942,0.006583,0.001452,  47.079
   369.4,0.002504,0.001941,0.006584,0.001501,  47.075
   369.6,0.002495,0.001937,0.006579,0.001488,  47.077
   369.8,0.002492,0.001930,0.006594,0.001452,  47.079
   370.0,0.002487,0.001928,0.006597,0.001501,  47.078
   370.2,0.002481,0.001926,0.006587,0.001488,  47.074
   370.4,0.002485,0.001924,0.006588,0.001452,  47.078
   370.6,0.002479,0.001918,0.006404,0.001501,  47.080
   370.8,0.002470,0.001918,0.006127,0.001488,  47.082
   371.0,0.002474,0.001918,0.005762,0.001452,  47.083
   371.2,0.002471,0.001914,0.005724,0.001501,  47.081
   371.4,0.002463,0.001909,0.005805,0.001488,  47.080
   371.6,0.002466,0.001908,0.006004,0.001465,  47.082
   371.8,0.002463,0.001912,0.006031,0.001501,  47.082
   372.0,0.002463,0.001911,0.006026,0.001501,  47.082
   372.2,0.002463,0.001911,0.005993,0.001478,  47.084
   372.4,0.002464,0.001911,0.006029,0.001515,  47.084
   372.6,0.002462,0.001905,0.006098,0.001515,  47.087
   372.8,0.002462,0.001907,0.006181,0.001515,  47.089
   373.0,0.002465,0.001907,0.006210,0.001492,  47.081
   373.2,0.002463,0.001907,0.006231,0.001515,  47.085
   373.4,0.002460,0.001907,0.006237,0.001501,  47.085
   373.6,0.002460,0.001905,0.006126,0.001515,  47.085
   373.8,0.002458,0.001904,0.005941,0.001515,  47.087
   374.0,0.002451,0.001896,0.005696,0.001515,  47.086
   374.2,0.002455,0.001895,0.005636,0.001492,  47.087
   374.4,0.002446,0.001901,0.005642,0.001528,  47.090
   374.6,0.002446,0.001897,0.005704,0.001515,  47.089
   374.8,0.002437,0.001894,0.005829,0.001492,  47.088
   375.0,0.002441,0.001894,0.005877,0.001528,  47.088
   375.2,0.002438,0.001892,0.005939,0.001515,  47.091
   375.4,0.002432,0.001894,0.006001,0.001492,  47.090
   375.6,0.002436,0.001891,0.005699,0.001528,  47.090
   375.8,0.002433,0.001887,0.005229,0.001515,  47.089
   376.0,0.002427,0.001887,0.004582,0.001492,  47.087
   376.2,0.002433,0.001885,0.004551,0.001528,  47.087
   376.4,0.002436,0.001878,0.004750,0.001551,  47.089
   376.6,0.002424,0.001881,0.005173,0.001528,  47.087
   376.8,0.002425,0.001881,0.005332,0.001528,  47.089
   377.0,0.002425,0.001881,0.005452,0.001551,  47.087
   377.2,0.002416,0.001878,0.005541,0.001528,  47.089
   377.4,0.002417,0.001880,0.005614,0.001528,  47.092
   377.6,0.002414,0.001879,0.005655,0.001551,  47.091
   377.8,0.002406,0.001877,0.005663,0.001528,  47.087
   378.0,0.002407,0.001875,0.005671,0.001528,  47.089
   378.2,0.002407,0.001873,0.005653,0.001564,  47.090
   378.4,0.002398,0.001870,0.005626,0.001541,  47.085
   378.6,0.002407,0.001875,0.005639,0.001528,  47.086
   378.8,0.002409,0.001875,0.005655,0.001564,  47.085
   379.0,0.002398,0.001873,0.005676,0.001541,  47.086
   379.2,0.002401,0.001872,0.005671,0.001541,  47.090
   379.4,0.002401,0.001867,0.005658,0.001541,  47.093
   379.6,0.002395,0.001871,0.005639,0.001518,  47.088
   379.8,0.002399,0.001873,0.005496,0.001555,  47.088
   380.0,0.002399,0.001871,0.005305,0.001541,  47.084
   380.2,0.002392,0.001872,0.005060,0.001518,  47.085
   380.4,0.002393,0.001865,0.005069,0.001555,  47.087
   380.6,0.002391,0.001865,0.005178,0.001541,  47.086
   380.8,0.002388,0.001863,0.005391,0.001518,  47.086
   381.0,0.002389,0.001866,0.005465,0.001555,  47.085
   381.2,0.002389,0.001867,0.005526,0.001541,  47.089
   381.4,0.002386,0.001869,0.005564,0.001518,  47.083
   381.6,0.002389,0.001863,0.005559,0.001555,  47.090
   381.8,0.002392,0.001862,0.005532,0.001555,  47.086
   382.0,0.002389,0.001864,0.005472,0.001555,  47.088
   382.2,0.002386,0.001862,0.005438,0.001518,  47.085
   382.4,0.002386,0.001860,0.005400,0.001541,  47.086
   382.6,0.002386,0.001858,0.005359,0.001541,  47.088
   382.8,0.002381,0.001862,0.005352,0.001541,  47.086
   383.0,0.002379,0.001864,0.005353,0.001541,  47.089
   383.2,0.002381,0.001859,0.005378,0.001541,  47.088
   383.4,0.002379,0.001859,0.005372,0.001532,  47.085
   383.6,0.002379,0.001855,0.005354,0.001568,  47.090
   383.8,0.002379,0.001853,0.005347,0.001568,  47.090
   384.0,0.002376,0.001851,0.005328,0.001545,  47.091
   384.2,0.002371,0.001852,0.005357,0.001581,  47.088
   384.4,0.002368,0.001854,0.005398,0.001568,  47.091
   384.6,0.002365,0.001854,0.005461,0.001532,  47.090
   384.8,0.002365,0.001854,0.005468,0.001568,  47.088
   385.0,0.002368,0.001850,0.005443,0.001568,  47.089
   385.2,0.002365,0.001852,0.005410,0.001532,  47.087
   385.4,0.002363,0.001851,0.005398,0.001568,  47.086
   385.6,0.002365,0.001849,0.005386,0.001568,  47.088
   385.8,0.002365,0.001852,0.005379,0.001518,  47.085
   386.0,0.002363,0.001852,0.005367,0.001555,  47.088
   386.2,0.002363,0.001852,0.005353,0.001591,  47.089
   386.4,0.002360,0.001852,0.005327,0.001541,  47.080
   386.6,0.002355,0.001852,0.005302,0.001541,  47.091
   386.8,0.002355,0.001854,0.005282,0.001591,  47.106
   387.0,0.002355,0.001856,0.005255,0.001555,  47.103
   387.2,0.002361,0.001858,0.005250,0.001555,  47.103
   387.4,0.002361,0.001857,0.005246,0.001591,  47.100
   387.6,0.002361,0.001855,0.005259,0.001568,  47.101
   387.8,0.002367,0.001852,0.005269,0.001568,  47.102
   388.0,0.002367,0.001852,0.005289,0.001604,  47.101
   388.2,0.002370,0.001853,0.005310,0.001581,  47.099
   388.4,0.002370,0.001858,0.005366,0.001594,  47.100
   388.6,0.002370,0.001856,0.005453,0.001594,  47.098
   388.8,0.002370,0.001858,0.005566,0.001558,  47.097
   389.0,0.002365,0.001856,0.005540,0.001594,  47.094
   389.2,0.002365,0.001861,0.005447,0.001594,  47.093
   389.4,0.002365,0.001856,0.005306,0.001558,  47.093
   389.6,0.002362,0.001861,0.005260,0.001594,  47.095
   389.8,0.002359,0.001854,0.005228,0.001594,  47.094
   390.0,0.002359,0.001854,0.005221,0.001558,  47.093
   390.2,0.002359,0.001856,0.005182,0.001594,  47.095
   390.4,0.002357,0.001860,0.005131,0.001581,  47.087
   390.6,0.002354,0.001856,0.005078,0.001545,  47.093
   390.8,0.002354,0.001858,0.005033,0.001594,  47.090
   391.0,0.002357,0.001855,0.004981,0.001594,  47.092
   391.2,0.002354,0.001851,0.004928,0.001594,  47.090
   391.4,0.002354,0.001855,0.004949,0.001558,  47.090
   391.6,0.002354,0.001857,0.004990,0.001608,  47.091
   391.8,0.002348,0.001856,0.005069,0.001594,  47.092
   392.0,0.002357,0.001856,0.005104,0.001594,  47.091
   392.2,0.002354,0.001854,0.005124,0.001594,  47.092
   392.4,0.002348,0.001851,0.005146,0.001594,  47.091
   392.6,0.002354,0.001851,0.005153,0.001558,  47.092
   392.8,0.002354,0.001849,0.005154,0.001608,  47.092
   393.0,0.002358,0.001848,0.005143,0.001608,  47.089
   393.2,0.002360,0.001845,0.005130,0.001571,  47.088
   393.4,0.002359,0.001853,0.004742,0.001585,  47.091
   393.6,0.002359,0.001853,0.004175,0.001571,  47.089
   393.8,0.002362,0.001849,0.003412,0.001548,  47.086
   394.0,0.002354,0.001854,0.003366,0.001548,  47.090
   394.2,0.002351,0.001851,0.003578,0.001585,  47.093
   394.4,0.002351,0.001851,0.004058,0.001562,  47.090
   394.6,0.002345,0.001850,0.004090,0.001548,  47.093
   394.8,0.002345,0.001848,0.004005,0.001585,  47.089
   395.0,0.002342,0.001846,0.003827,0.001562,  47.097
   395.2,0.002337,0.001842,0.003906,0.001548,  47.092
   395.4,0.002330,0.001839,0.004059,0.001585,  47.092
   395.6,0.002322,0.001839,0.004284,0.001562,  47.096
   395.8,0.002324,0.001842,0.004365,0.001548,  47.093
   396.0,0.002321,0.001839,0.004418,0.001585,  47.095
   396.2,0.002312,0.001837,0.004437,0.001548,  47.093
   396.4,0.002324,0.001840,0.004466,0.001548,  47.096
   396.6,0.002327,0.001835,0.004494,0.001571,  47.095
   396.8,0.002315,0.001835,0.004521,0.001548,  47.097
   397.0,0.002319,0.001838,0.004575,0.001548,  47.098
   397.2,0.002322,0.001840,0.004630,0.001585,  47.094
   397.4,0.002313,0.001834,0.004697,0.001562,  47.097
   397.6,0.002319,0.001836,0.004691,0.001562,  47.102
   397.8,0.002319,0.001837,0.004644,0.001598,  47.097
   398.0,0.002313,0.001837,0.004576,0.001575,  47.104
   398.2,0.002316,0.001835,0.004583,0.001575,  47.099
   398.4,0.002316,0.001829,0.004604,0.001598,  47.100
   398.6,0.002310,0.001826,0.004650,0.001575,  47.102
   398.8,0.002314,0.001829,0.004672,0.001575,  47.102
   399.0,0.002314,0.001827,0.004693,0.001611,  47.099
   399.2,0.002314,0.001826,0.004707,0.001588,  47.103
   399.4,0.002317,0.001823,0.004707,0.001598,  47.099
   399.6,0.002317,0.001823,0.004688,0.001621,  47.105
   399.8,0.002320,0.001818,0.004662,0.001585,  47.100
   400.0,0.002317,0.001825,0.004491,0.001621,  47.103
   400.2,0.002321,0.001829,0.004259,0.001608,  47.098
   400.4,0.002321,0.001823,0.003950,0.001608,  47.101
   400.6,0.002318,0.001826,0.003911,0.001585,  47.103
   400.8,0.002322,0.001825,0.003984,0.001621,  47.101
   401.0,0.002319,0.001825,0.004156,0.001621,  47.105
   401.2,0.002313,0.001822,0.004116,0.001634,  47.104
   401.4,0.002313,0.001826,0.004031,0.001598,  47.102
   401.6,0.002313,0.001829,0.003881,0.001598,  47.103
   401.8,0.002307,0.001827,0.003678,0.001575,  47.104
   402.0,0.002313,0.001829,0.003745,0.001575,  47.103
   402.2,0.002310,0.001831,0.003878,0.001611,  47.102
   402.4,0.002310,0.001832,0.004094,0.001588,  47.103
   402.6,0.002310,0.001827,0.004167,0.001575,  47.105
   402.8,0.002310,0.001827,0.004200,0.001575,  47.107
   403.0,0.002308,0.001826,0.004200,0.001588,  47.102
   403.2,0.002302,0.001828,0.004246,0.001588,  47.105
   403.4,0.002302,0.001826,0.004293,0.001588,  47.105
   403.6,0.002300,0.001819,0.004334,0.001602,  47.106
   403.8,0.002297,0.001820,0.004238,0.001602,  47.106
   404.0,0.002297,0.001819,0.004085,0.001588,  47.101
   404.2,0.002297,0.001819,0.003867,0.001602,  47.104
   404.4,0.002297,0.001818,0.003882,0.001602,  47.103
   404.6,0.002297,0.001814,0.003995,0.001588,  47.103
   404.8,0.002297,0.001814,0.004200,0.001602,  47.101
   405.0,0.002297,0.001813,0.004280,0.001602,  47.110
   405.2,0.002297,0.001810,0.004340,0.001588,  47.113
   405.4,0.002300,0.001812,0.004375,0.001602,  47.109
   405.6,0.002300,0.001818,0.004395,0.001588,  47.108
   405.8,0.002294,0.001820,0.004381,0.001575,  47.105
   406.0,0.002296,0.001820,0.004342,0.001588,  47.106
   406.2,0.002296,0.001825,0.004351,0.001588,  47.107
   406.4,0.002290,0.001830,0.004383,0.001602,  47.111
   406.6,0.002290,0.001825,0.004424,0.001602,  47.110
   406.8,0.002296,0.001825,0.004418,0.001588,  47.110
   407.0,0.002296,0.001825,0.004399,0.001611,  47.107
   407.2,0.002296,0.001825,0.004365,0.001588,  47.109
   407.4,0.002296,0.001827,0.004378,0.001588,  47.109
   407.6,0.002296,0.001831,0.004400,0.001638,  47.112
   407.8,0.002296,0.001828,0.004445,0.001602,  47.112
   408.0,0.002294,0.001826,0.004460,0.001602,  47.116
   408.2,0.002300,0.001826,0.004485,0.001638,  47.113
   408.4,0.002305,0.001826,0.004497,0.001638,  47.114
   408.6,0.002305,0.001824,0.004452,0.001638,  47.114
   408.8,0.002311,0.001829,0.004379,0.001651,  47.117
   409.0,0.002314,0.001827,0.004279,0.001638,  47.115
   409.2,0.002305,0.001824,0.004265,0.001651,  47.118
   409.4,0.002305,0.001824,0.004279,0.001651,  47.117
   409.6,0.002308,0.001823,0.004320,0.001651,  47.119
   409.8,0.002299,0.001823,0.004387,0.001628,  47.116
   410.0,0.002305,0.001820,0.004415,0.001641,  47.114
   410.2,0.002308,0.001822,0.004442,0.001628,  47.117
   410.4,0.002305,0.001826,0.004475,0.001628,  47.118
   410.6,0.002311,0.001824,0.004159,0.001641,  47.119
   410.8,0.002305,0.001822,0.003666,0.001641,  47.115
   411.0,0.002311,0.001824,0.003013,0.001641,  47.116
   411.2,0.002312,0.001826,0.002962,0.001641,  47.121
   411.4,0.002306,0.001826,0.003138,0.001641,  47.119
   411.6,0.002309,0.001822,0.003526,0.001641,  47.115
   411.8,0.002306,0.001825,0.003646,0.001641,  47.121
   412.0,0.002300,0.001821,0.003756,0.001628,  47.121
   412.2,0.002300,0.001826,0.003823,0.001628,  47.120
   412.4,0.002303,0.001823,0.003884,0.001641,  47.122
   412.6,0.002297,0.001820,0.003942,0.001641,  47.121
   412.8,0.002300,0.001821,0.003976,0.001641,  47.120
   413.0,0.002306,0.001827,0.003976,0.001641,  47.123
   413.2,0.002300,0.001822,0.003956,0.001641,  47.123
   413.4,0.002302,0.001825,0.003916,0.001641,  47.123
   413.6,0.002309,0.001828,0.003962,0.001655,  47.120
   413.8,0.002305,0.001827,0.004029,0.001655,  47.126
   414.0,0.002305,0.001829,0.004135,0.001655,  47.121
   414.2,0.002314,0.001837,0.004189,0.001668,  47.119
   414.4,0.002310,0.001836,0.004228,0.001655,  47.125
   414.6,0.002308,0.001836,0.004261,0.001668,  47.122
   414.8,0.002314,0.001832,0.004235,0.001668,  47.120
   415.0,0.002310,0.001834,0.004169,0.001668,  47.121
   415.2,0.002310,0.001836,0.004063,0.001681,  47.122
   415.4,0.002317,0.001838,0.004071,0.001681,  47.124
   415.6,0.002313,0.001838,0.004112,0.001681,  47.122
   415.8,0.002319,0.001840,0.004179,0.001695,  47.124
   416.0,0.002323,0.001840,0.004147,0.001681,  47.120
   416.2,0.002319,0.001836,0.004082,0.001668,  47.121
   416.4,0.002326,0.001834,0.003982,0.001681,  47.120
   416.6,0.002332,0.001834,0.003989,0.001668,  47.121
   416.8,0.002328,0.001837,0.004030,0.001668,  47.124
   417.0,0.002326,0.001840,0.004115,0.001668,  47.122
   417.2,0.002332,0.001845,0.004115,0.001681,  47.119
   417.4,0.002328,0.001845,0.004083,0.001632,  47.122
   417.6,0.002328,0.001845,0.004035,0.001681,  47.122
   417.8,0.002328,0.001844,0.004042,0.001681,  47.126
   418.0,0.002328,0.001845,0.004063,0.001681,  47.119
   418.2,0.002322,0.001840,0.004097,0.001681,  47.120
   418.4,0.002328,0.001838,0.004097,0.001695,  47.121
   418.6,0.002328,0.001837,0.004078,0.001695,  47.120
   418.8,0.002326,0.001834,0.004051,0.001681,  47.117
   419.0,0.002323,0.001836,0.004006,0.001695,  47.112
   419.2,0.002323,0.001840,0.004026,0.001695,  47.117
   419.4,0.002317,0.001842,0.004060,0.001681,  47.117
   419.6,0.002323,0.001840,0.004107,0.001695,  47.114
   419.8,0.002324,0.001841,0.004096,0.001695,  47.114
   420.0,0.002318,0.001837,0.004075,0.001681,  47.117
   420.2,0.002320,0.001841,0.004016,0.001695,  47.114
   420.4,0.002324,0.001843,0.003984,0.001695,  47.113
   420.6,0.002318,0.001839,0.003958,0.001695,  47.112
   420.8,0.002320,0.001839,0.003931,0.001708,  47.112
   421.0,0.002324,0.001834,0.003918,0.001695,  47.110
   421.2,0.002318,0.001829,0.003918,0.001695,  47.114
   421.4,0.002320,0.001830,0.003931,0.001708,  47.110
   421.6,0.002324,0.001836,0.003953,0.001695,  47.109
   421.8,0.002320,0.001837,0.004001,0.001695,  47.113
   422.0,0.002320,0.001839,0.004073,0.001708,  47.108
   422.2,0.002326,0.001838,0.004089,0.001695,  47.109
   422.4,0.002323,0.001840,0.004096,0.001695,  47.109
   422.6,0.002320,0.001842,0.004101,0.001708,  47.105
   422.8,0.002326,0.001840,0.004074,0.001708,  47.107
   423.0,0.002323,0.001838,0.004015,0.001708,  47.102
   423.2,0.002323,0.001841,0.003936,0.001721,  47.104
   423.4,0.002329,0.001843,0.003929,0.001721,  47.102
   423.6,0.002326,0.001843,0.003943,0.001708,  47.105
   423.8,0.002323,0.001841,0.003982,0.001721,  47.104
   424.0,0.002320,0.001845,0.004003,0.001721,  47.106
   424.2,0.002317,0.001845,0.004035,0.001708,  47.102
   424.4,0.002323,0.001844,0.004068,0.001721,  47.103
   424.6,0.002326,0.001849,0.004043,0.001708,  47.106
   424.8,0.002322,0.001849,0.003998,0.001695,  47.107
   425.0,0.002326,0.001841,0.003931,0.001672,  47.105
   425.2,0.002332,0.001843,0.003951,0.001672,  47.107
   425.4,0.002326,0.001845,0.003997,0.001672,  47.107
   425.6,0.002329,0.001847,0.004074,0.001672,  47.108
   425.8,0.002330,0.001845,0.004114,0.001685,  47.110
   426.0,0.002324,0.001846,0.004141,0.001658,  47.108
   426.2,0.002333,0.001851,0.004155,0.001681,  47.106
   426.4,0.002330,0.001853,0.004135,0.001681,  47.110
   426.6,0.002330,0.001847,0.004102,0.001695,  47.111
   426.8,0.002326,0.001841,0.004042,0.001695,  47.107
   427.0,0.002330,0.001845,0.004036,0.001672,  47.109
   427.2,0.002330,0.001848,0.004044,0.001672,  47.109
   427.4,0.002326,0.001845,0.004076,0.001685,  47.108
   427.6,0.002324,0.001847,0.004118,0.001662,  47.109
   427.8,0.002324,0.001853,0.004105,0.001662,  47.112
   428.0,0.002320,0.001849,0.004085,0.001698,  47.110
   428.2,0.002323,0.001852,0.004052,0.001712,  47.106
   428.4,0.002329,0.001848,0.004027,0.001712,  47.107
   428.6,0.002326,0.001846,0.003996,0.001698,  47.111
   428.8,0.002329,0.001848,0.003982,0.001698,  47.111
   429.0,0.002333,0.001854,0.003976,0.001712,  47.114
   429.2,0.002335,0.001853,0.003977,0.001712,  47.115
   429.4,0.002333,0.001853,0.003991,0.001712,  47.118
   429.6,0.002339,0.001853,0.004006,0.001725,  47.115
   429.8,0.002342,0.001851,0.004039,0.001712,  47.115
   430.0,0.002333,0.001852,0.004080,0.001712,  47.112
   430.2,0.002339,0.001850,0.004074,0.001725,  47.108
   430.4,0.002342,0.001848,0.004055,0.001712,  47.113
   430.6,0.002333,0.001851,0.004020,0.001712,  47.113
   430.8,0.002339,0.001850,0.003704,0.001725,  47.115
   431.0,0.002342,0.001850,0.003230,0.001712,  47.115
   431.2,0.002333,0.001851,0.002619,0.001712,  47.114
   431.4,0.002339,0.001852,0.002461,0.001725,  47.116
   431.6,0.002342,0.001853,0.002442,0.001712,  47.116
   431.8,0.002339,0.001855,0.002579,0.001712,  47.113
   432.0,0.002345,0.001854,0.002703,0.001725,  47.114
   432.2,0.002349,0.001854,0.002883,0.001712,  47.113
   432.4,0.002350,0.001854,0.003145,0.001698,  47.115
   432.6,0.002354,0.001851,0.003270,0.001698,  47.116
   432.8,0.002351,0.001852,0.003355,0.001685,  47.117
   433.0,0.002347,0.001856,0.003413,0.001685,  47.118
   433.2,0.002344,0.001857,0.003507,0.001698,  47.120
   433.4,0.002340,0.001856,0.003601,0.001712,  47.120
   433.6,0.002336,0.001852,0.003701,0.001725,  47.117
   433.8,0.002346,0.001852,0.003761,0.001725,  47.121
   434.0,0.002349,0.001853,0.003807,0.001698,  47.118
   434.2,0.002343,0.001856,0.003827,0.001698,  47.117
   434.4,0.002345,0.001854,0.003828,0.001712,  47.119
   434.6,0.002345,0.001852,0.003813,0.001712,  47.117
   434.8,0.002345,0.001850,0.003767,0.001725,  47.117
   435.0,0.002343,0.001845,0.003761,0.001689,  47.118
   435.2,0.002343,0.001843,0.003749,0.001689,  47.117
   435.4,0.002343,0.001840,0.003737,0.001689,  47.117
   435.6,0.002334,0.001838,0.003731,0.001666,  47.121
   435.8,0.002337,0.001844,0.003725,0.001715,  47.119
   436.0,0.002334,0.001849,0.003720,0.001715,  47.120
   436.2,0.002331,0.001849,0.003719,0.001729,  47.122
   436.4,0.002337,0.001846,0.003587,0.001679,  47.121
   436.6,0.002337,0.001849,0.003400,0.001715,  47.118
   436.8,0.002340,0.001848,0.003164,0.001715,  47.117
   437.0,0.002337,0.001847,0.003158,0.001666,  47.117
   437.2,0.002335,0.001842,0.003224,0.001689,  47.114
   437.4,0.002326,0.001842,0.003385,0.001689,  47.114
   437.6,0.002321,0.001841,0.003466,0.001652,  47.114
   437.8,0.002321,0.001839,0.003531,0.001689,  47.114
   438.0,0.002312,0.001841,0.003607,0.001689,  47.116
   438.2,0.002321,0.001837,0.003652,0.001652,  47.111
   438.4,0.002323,0.001835,0.003683,0.001689,  47.111
   438.6,0.002314,0.001837,0.003701,0.001689,  47.109
   438.8,0.002321,0.001832,0.003708,0.001652,  47.107
   439.0,0.002323,0.001834,0.003719,0.001689,  47.100
   439.2,0.002314,0.001832,0.003723,0.001689,  47.100
   439.4,0.002321,0.001830,0.003736,0.001652,  47.103
   439.6,0.002323,0.001834,0.003743,0.001689,  47.097
   439.8,0.002317,0.001836,0.003755,0.001689,  47.099
   440.0,0.002323,0.001838,0.003689,0.001652,  47.099
   440.2,0.002326,0.001840,0.003583,0.001689,  47.097
   440.4,0.002320,0.001840,0.003447,0.001689,  47.091
   440.6,0.002326,0.001841,0.003421,0.001666,  47.092
   440.8,0.002328,0.001841,0.003436,0.001702,  47.089
   441.0,0.002325,0.001843,0.003495,0.001715,  47.085
   441.2,0.002331,0.001843,0.003529,0.001679,  47.087
   441.4,0.002334,0.001849,0.003575,0.001715,  47.088
   441.6,0.002330,0.001847,0.003610,0.001729,  47.082
   441.8,0.002331,0.001851,0.003625,0.001679,  47.085
   442.0,0.002331,0.001849,0.003637,0.001715,  47.082
   442.2,0.002327,0.001841,0.003636,0.001715,  47.080
   442.4,0.002331,0.001839,0.003652,0.001702,  47.080
   442.6,0.002331,0.001843,0.003677,0.001712,  47.077
   442.8,0.002327,0.001839,0.003717,0.001725,  47.079
   443.0,0.002331,0.001842,0.003758,0.001702,  47.074
   443.2,0.002331,0.001850,0.003811,0.001715,  47.074
   443.4,0.002327,0.001855,0.003870,0.001715,  47.080
   443.6,0.002334,0.001851,0.003884,0.001692,  47.082
   443.8,0.002334,0.001849,0.003883,0.001692,  47.076
   444.0,0.002334,0.001850,0.003856,0.001715,  47.075
   444.2,0.002336,0.001847,0.003817,0.001692,  47.069
   444.4,0.002334,0.001846,0.003758,0.001729,  47.068
   444.6,0.002330,0.001850,0.003691,0.001715,  47.072
   444.8,0.002336,0.001848,0.003598,0.001729,  47.066
   445.0,0.002336,0.001849,0.003598,0.001692,  47.070
   445.2,0.002336,0.001846,0.003625,0.001729,  47.067
   445.4,0.002339,0.001852,0.003678,0.001742,  47.069
   445.6,0.002343,0.001863,0.003693,0.001706,  47.068
   445.8,0.002343,0.001861,0.003706,0.001742,  47.063
   446.0,0.002343,0.001861,0.003719,0.001755,  47.070
   446.2,0.002340,0.001861,0.003740,0.001706,  47.064
   446.4,0.002340,0.001856,0.003773,0.001742,  47.063
   446.6,0.002340,0.001863,0.003801,0.001755,  47.066
   446.8,0.002346,0.001864,0.003789,0.001706,  47.062
   447.0,0.002349,0.001863,0.003762,0.001729,  47.069
   447.2,0.002343,0.001863,0.003708,0.001742,  47.069
   447.4,0.002351,0.001860,0.003722,0.001706,  47.061
   447.6,0.002354,0.001856,0.003756,0.001742,  47.064
   447.8,0.002348,0.001860,0.003816,0.001755,  47.068
   448.0,0.002354,0.001865,0.003803,0.001729,  47.065
   448.2,0.002357,0.001863,0.003763,0.001751,  47.066
   448.4,0.002351,0.001862,0.003696,0.001765,  47.063
   448.6,0.002357,0.001870,0.003676,0.001715,  47.066
   448.8,0.002359,0.001870,0.003662,0.001715,  47.064
   449.0,0.002353,0.001868,0.003654,0.001729,  47.066
   449.2,0.002362,0.001870,0.003648,0.001692,  47.067
   449.4,0.002362,0.001870,0.003642,0.001729,  47.070
   449.6,0.002356,0.001868,0.003635,0.001742,  47.074
   449.8,0.002356,0.001868,0.003326,0.001719,  47.071
   450.0,0.002356,0.001870,0.002867,0.001755,  47.075
   450.2,0.002356,0.001872,0.002257,0.001768,  47.074
   450.4,0.002356,0.001874,0.002224,0.001732,  47.076
   450.6,0.002356,0.001873,0.002401,0.001755,  47.073
   450.8,0.002356,0.001872,0.002799,0.001768,  47.080
   451.0,0.002356,0.001872,0.002968,0.001732,  47.073
   451.2,0.002358,0.001875,0.003108,0.001755,  47.074
   451.4,0.002361,0.001878,0.003240,0.001768,  47.075
   451.6,0.002361,0.001878,0.003365,0.001732,  47.075
   451.8,0.002364,0.001877,0.003477,0.001768,  47.076
   452.0,0.002366,0.001881,0.003577,0.001782,  47.082
   452.2,0.002361,0.001883,0.003623,0.001745,  47.080
   452.4,0.002361,0.001880,0.003631,0.001745,  47.077
   452.6,0.002364,0.001882,0.003629,0.001768,  47.078
   452.8,0.002364,0.001878,0.003642,0.001732,  47.076
   453.0,0.002364,0.001876,0.003663,0.001782,  47.081
   453.2,0.002366,0.001874,0.003670,0.001782,  47.079
   453.4,0.002357,0.001878,0.003689,0.001795,  47.081
   453.6,0.002364,0.001882,0.003696,0.001759,  47.078
   453.8,0.002357,0.001883,0.003689,0.001782,  47.082
   454.0,0.002361,0.001882,0.003683,0.001782,  47.087
   454.2,0.002367,0.001880,0.003689,0.001745,  47.089
   454.4,0.002367,0.001877,0.003683,0.001745,  47.088
   454.6,0.002361,0.001870,0.003683,0.001745,  47.089
   454.8,0.002365,0.001869,0.003704,0.001759,  47.089
   455.0,0.002365,0.001865,0.003737,0.001759,  47.086
   455.2,0.002367,0.001863,0.003777,0.001759,  47.090
   455.4,0.002374,0.001872,0.003805,0.001759,  47.090
   455.6,0.002374,0.001874,0.003832,0.001782,  47.092
   455.8,0.002376,0.001870,0.003858,0.001782,  47.090
   456.0,0.002376,0.001874,0.003839,0.001745,  47.092
   456.2,0.002379,0.001881,0.003794,0.001782,  47.095
   456.4,0.002379,0.001882,0.003726,0.001782,  47.096
   456.6,0.002381,0.001889,0.003740,0.001759,  47.097
   456.8,0.002384,0.001893,0.003774,0.001759,  47.095
   457.0,0.002384,0.001894,0.003833,0.001759,  47.098
   457.2,0.002384,0.001894,0.003834,0.001772,  47.103
   457.4,0.002387,0.001889,0.003827,0.001772,  47.103
   457.6,0.002387,0.001889,0.003793,0.001772,  47.103
   457.8,0.002387,0.001892,0.003832,0.001772,  47.104
   458.0,0.002389,0.001885,0.003887,0.001772,  47.100
   458.2,0.002387,0.001889,0.003966,0.001772,  47.102
   458.4,0.002387,0.001895,0.003900,0.001772,  47.103
   458.6,0.002389,0.001897,0.003767,0.001772,  47.102
   458.8,0.002387,0.001894,0.003567,0.001772,  47.108
   459.0,0.002387,0.001896,0.003547,0.001772,  47.105
   459.2,0.002389,0.001894,0.003581,0.001772,  47.111
   459.4,0.002389,0.001899,0.003667,0.001772,  47.109
   459.6,0.002392,0.001899,0.003681,0.001772,  47.110
   459.8,0.002392,0.001904,0.003681,0.001772,  47.109
   460.0,0.002392,0.001905,0.003680,0.001772,  47.112
   460.2,0.002392,0.001910,0.003706,0.001785,  47.113
   460.4,0.002392,0.001905,0.003726,0.001785,  47.116
   460.6,0.002392,0.001900,0.003754,0.001785,  47.121
   460.8,0.002392,0.001902,0.003780,0.001799,  47.115
   461.0,0.002392,0.001902,0.003788,0.001799,  47.117
   461.2,0.002392,0.001903,0.003789,0.001799,  47.119
   461.4,0.002389,0.001904,0.003771,0.001799,  47.117
   461.6,0.002389,0.001903,0.003731,0.001785,  47.118
   461.8,0.002389,0.001905,0.003683,0.001785,  47.119
   462.0,0.002386,0.001906,0.003662,0.001785,  47.122
   462.2,0.002389,0.001900,0.003649,0.001799,  47.121
   462.4,0.002392,0.001898,0.003635,0.001785,  47.121
   462.6,0.002386,0.001906,0.003629,0.001799,  47.120
   462.8,0.002389,0.001910,0.003629,0.001799,  47.120
   463.0,0.002393,0.001906,0.003628,0.001799,  47.125
   463.2,0.002391,0.001909,0.003629,0.001812,  47.126
   463.4,0.002393,0.001907,0.003516,0.001799,  47.127
   463.6,0.002396,0.001905,0.003321,0.001799,  47.128
   463.8,0.002399,0.001910,0.003077,0.001812,  47.128
   464.0,0.002400,0.001913,0.003064,0.001799,  47.123
   464.2,0.002399,0.001910,0.003143,0.001799,  47.125
   464.4,0.002402,0.001909,0.003295,0.001812,  47.128
   464.6,0.002405,0.001909,0.003355,0.001799,  47.125
   464.8,0.002401,0.001906,0.003415,0.001799,  47.126
   465.0,0.002404,0.001913,0.003473,0.001812,  47.125
   465.2,0.002404,0.001913,0.003525,0.001799,  47.123
   465.4,0.002406,0.001911,0.003567,0.001799,  47.122
   465.6,0.002411,0.001915,0.003612,0.001812,  47.121
   465.8,0.002409,0.001914,0.003619,0.001812,  47.121
   466.0,0.002411,0.001909,0.003601,0.001812,  47.116
   466.2,0.002414,0.001913,0.003567,0.001825,  47.113
   466.4,0.002414,0.001915,0.003568,0.001839,  47.114
   466.6,0.002417,0.001918,0.003569,0.001839,  47.117
   466.8,0.002417,0.001915,0.003576,0.001852,  47.115
   467.0,0.002414,0.001915,0.003570,0.001839,  47.114
   467.2,0.002417,0.001913,0.003576,0.001825,  47.116
   467.4,0.002417,0.001915,0.003569,0.001839,  47.115
   467.6,0.002414,0.001918,0.003597,0.001825,  47.115
   467.8,0.002417,0.001918,0.003644,0.001825,  47.117
   468.0,0.002417,0.001915,0.003716,0.001839,  47.114
   468.2,0.002417,0.001920,0.003743,0.001825,  47.114
   468.4,0.002419,0.001920,0.003750,0.001812,  47.114
   468.6,0.002417,0.001915,0.003743,0.001825,  47.115
   468.8,0.002423,0.001916,0.003572,0.001789,  47.115
   469.0,0.002417,0.001920,0.003315,0.001789,  47.120
   469.2,0.002414,0.001916,0.002960,0.001802,  47.117
   469.4,0.002415,0.001915,0.002920,0.001766,  47.116
   469.6,0.002409,0.001919,0.002999,0.001802,  47.118
   469.8,0.002415,0.001917,0.003188,0.001789,  47.115
   470.0,0.002419,0.001919,0.003242,0.001802,  47.115
   470.2,0.002419,0.001920,0.003295,0.001753,  47.116
   470.4,0.002419,0.001918,0.003346,0.001789,  47.113
   470.6,0.002419,0.001922,0.003352,0.001802,  47.115
   470.8,0.002419,0.001920,0.003340,0.001739,  47.114
   471.0,0.002412,0.001918,0.003306,0.001762,  47.115
   471.2,0.002419,0.001918,0.003246,0.001776,  47.117
   471.4,0.002419,0.001920,0.003301,0.001739,  47.114
   471.6,0.002412,0.001913,0.003399,0.001776,  47.114
   471.8,0.002419,0.001914,0.003513,0.001789,  47.115
   472.0,0.002419,0.001912,0.003541,0.001753,  47.109
   472.2,0.002415,0.001908,0.003541,0.001789,  47.112
   472.4,0.002421,0.001912,0.003514,0.001802,  47.111
   472.6,0.002424,0.001917,0.003548,0.001766,  47.113
   472.8,0.002420,0.001918,0.003595,0.001802,  47.112
   473.0,0.002424,0.001918,0.003660,0.001816,  47.112
   473.2,0.002424,0.001922,0.003661,0.001779,  47.112
   473.4,0.002420,0.001918,0.003641,0.001816,  47.110
   473.6,0.002429,0.001924,0.003613,0.001816,  47.113
   473.8,0.002434,0.001926,0.003600,0.001779,  47.117
   474.0,0.002431,0.001928,0.003589,0.001816,  47.116
   474.2,0.002440,0.001931,0.003594,0.001816,  47.114
   474.4,0.002446,0.001934,0.003614,0.001779,  47.116
   474.6,0.002442,0.001936,0.003635,0.001816,  47.116
   474.8,0.002445,0.001938,0.003675,0.001829,  47.115
   475.0,0.002446,0.001933,0.003675,0.001793,  47.116
   475.2,0.002440,0.001933,0.003642,0.001829,  47.120
   475.4,0.002442,0.001937,0.003590,0.001842,  47.121
   475.6,0.002440,0.001940,0.003598,0.001819,  47.118
   475.8,0.002433,0.001940,0.003626,0.001842,  47.117
   476.0,0.002442,0.001942,0.003685,0.001829,  47.121
   476.2,0.002442,0.001942,0.003678,0.001793,  47.122
   476.4,0.002436,0.001944,0.003645,0.001816,  47.122
   476.6,0.002442,0.001940,0.003604,0.001802,  47.126
   476.8,0.002440,0.001942,0.003584,0.001766,  47.123
   477.0,0.002433,0.001940,0.003558,0.001816,  47.126
   477.2,0.002442,0.001935,0.003544,0.001829,  47.128
   477.4,0.002440,0.001944,0.003545,0.001793,  47.129
   477.6,0.002433,0.001945,0.003559,0.001829,  47.131
   477.8,0.002442,0.001940,0.003585,0.001829,  47.130
   478.0,0.002440,0.001942,0.003559,0.001842,  47.133
   478.2,0.002433,0.001940,0.003514,0.001806,  47.132
   478.4,0.002442,0.001938,0.003448,0.001806,  47.131
   478.6,0.002440,0.001936,0.003441,0.001783,  47.131
   478.8,0.002440,0.001942,0.003461,0.001806,  47.135
   479.0,0.002440,0.001939,0.003489,0.001806,  47.132
   479.2,0.002440,0.001936,0.003536,0.001770,  47.134
   479.4,0.002437,0.001938,0.003550,0.001819,  47.136
   479.6,0.002431,0.001935,0.003556,0.001806,  47.137
   479.8,0.002432,0.001939,0.003544,0.001770,  47.133
   480.0,0.002429,0.001938,0.003426,0.001819,  47.132
   480.2,0.002423,0.001934,0.003248,0.001806,  47.136
   480.4,0.002427,0.001933,0.003015,0.001770,  47.135
   480.6,0.002429,0.001932,0.002997,0.001819,  47.136
   480.8,0.002426,0.001928,0.003057,0.001819,  47.142
   481.0,0.002429,0.001933,0.003201,0.001783,  47.137
   481.2,0.002427,0.001933,0.003097,0.001819,  47.139
   481.4,0.002420,0.001931,0.002906,0.001819,  47.138
   481.6,0.002427,0.001933,0.002637,0.001783,  47.136
   481.8,0.002421,0.001932,0.002545,0.001819,  47.138
   482.0,0.002415,0.001927,0.002487,0.001819,  47.135
   482.2,0.002424,0.001933,0.002480,0.001783,  47.138
   482.4,0.002421,0.001933,0.002565,0.001819,  47.134
   482.6,0.002418,0.001931,0.002723,0.001819,  47.134
   482.8,0.002424,0.001933,0.002940,0.001783,  47.132
   483.0,0.002424,0.001935,0.003065,0.001832,  47.131
   483.2,0.002420,0.001935,0.003159,0.001832,  47.133
   483.4,0.002427,0.001933,0.003244,0.001796,  47.132
   483.6,0.002433,0.001939,0.003185,0.001846,  47.135
   483.8,0.002429,0.001941,0.003047,0.001832,  47.133
   484.0,0.002432,0.001936,0.002823,0.001796,  47.129
   484.2,0.002441,0.001940,0.002856,0.001846,  47.130
   484.4,0.002437,0.001937,0.002974,0.001832,  47.131
   484.6,0.002440,0.001939,0.003183,0.001796,  47.134
   484.8,0.002446,0.001938,0.003243,0.001832,  47.133
   485.0,0.002442,0.001940,0.003270,0.001819,  47.134
   485.2,0.002445,0.001942,0.003282,0.001783,  47.133
   485.4,0.002449,0.001939,0.003316,0.001832,  47.136
   485.6,0.002442,0.001946,0.003344,0.001832,  47.133
   485.8,0.002442,0.001943,0.003377,0.001832,  47.130
   486.0,0.002449,0.001943,0.003305,0.001832,  47.135
   486.2,0.002442,0.001943,0.003193,0.001855,  47.135
   486.4,0.002442,0.001943,0.003021,0.001855,  47.131
   486.6,0.002449,0.001943,0.003015,0.001819,  47.132
   486.8,0.002442,0.001947,0.003074,0.001855,  47.133
   487.0,0.002442,0.001945,0.003198,0.001855,  47.121
   487.2,0.002449,0.001946,0.003236,0.001855,  47.128
   487.4,0.002442,0.001951,0.003251,0.001869,  47.128
   487.6,0.002442,0.001945,0.003251,0.001869,  47.129
   487.8,0.002449,0.001940,0.003171,0.001846,  47.125
   488.0,0.002446,0.001942,0.003027,0.001846,  47.125
   488.2,0.002440,0.001940,0.002825,0.001846,  47.129
   488.4,0.002437,0.001940,0.002812,0.001810,  47.131
   488.6,0.002441,0.001946,0.002871,0.001846,  47.128
   488.8,0.002434,0.001942,0.002990,0.001832,  47.128
   489.0,0.002434,0.001946,0.003169,0.001796,  47.128
   489.2,0.002434,0.001949,0.003236,0.001846,  47.129
   489.4,0.002431,0.001946,0.003302,0.001832,  47.127
   489.6,0.002437,0.001948,0.003362,0.001796,  47.128
   489.8,0.002437,0.001946,0.003402,0.001846,  47.129
   490.0,0.002433,0.001946,0.003428,0.001832,  47.124
   490.2,0.002445,0.001949,0.003440,0.001810,  47.120
   490.4,0.002445,0.001957,0.003441,0.001846,  47.123
   490.6,0.002441,0.001956,0.003429,0.001846,  47.125
   490.8,0.002448,0.001957,0.003414,0.001823,  47.126
   491.0,0.002454,0.001961,0.003428,0.001846,  47.127
   491.2,0.002450,0.001958,0.003455,0.001846,  47.128
   491.4,0.002448,0.001962,0.003489,0.001823,  47.122
   491.6,0.002454,0.001958,0.003490,0.001846,  47.126
   491.8,0.002450,0.001954,0.003488,0.001846,  47.131
   492.0,0.002448,0.001954,0.003462,0.001823,  47.126
   492.2,0.002454,0.001953,0.003464,0.001846,  47.130
   492.4,0.002450,0.001951,0.003477,0.001846,  47.127
   492.6,0.002448,0.001950,0.003504,0.001823,  47.128
   492.8,0.002454,0.001949,0.003492,0.001846,  47.132
   493.0,0.002450,0.001951,0.003471,0.001846,  47.130
   493.2,0.002450,0.001953,0.003431,0.001810,  47.131
   493.4,0.002457,0.001953,0.003424,0.001846,  47.134
   493.6,0.002453,0.001949,0.003429,0.001832,  47.135
   493.8,0.002453,0.001955,0.003423,0.001810,  47.129
   494.0,0.002457,0.001958,0.003442,0.001846,  47.133
   494.2,0.002453,0.001958,0.003457,0.001846,  47.130
   494.4,0.002453,0.001957,0.003484,0.001823,  47.137
   494.6,0.002459,0.001955,0.003504,0.001859,  47.138
   494.8,0.002456,0.001954,0.003510,0.001859,  47.137
   495.0,0.002459,0.001958,0.003510,0.001836,  47.136
   495.2,0.002465,0.001955,0.003511,0.001872,  47.134
   495.4,0.002462,0.001960,0.003506,0.001859,  47.139
   495.6,0.002468,0.001962,0.003500,0.001836,  47.137
   495.8,0.002468,0.001962,0.003486,0.001859,  47.134
   496.0,0.002464,0.001957,0.003473,0.001846,  47.136
   496.2,0.002471,0.001956,0.003447,0.001823,  47.135
   496.4,0.002468,0.001958,0.003486,0.001859,  47.137
   496.6,0.002464,0.001960,0.003541,0.001859,  47.137
   496.8,0.002462,0.001958,0.003628,0.001859,  47.139
   497.0,0.002457,0.001957,0.003648,0.001872,  47.139
   497.2,0.002454,0.001956,0.003637,0.001859,  47.136
   497.4,0.002450,0.001953,0.003615,0.001872,  47.134
   497.6,0.002450,0.001958,0.003536,0.001836,  47.133
   497.8,0.002457,0.001967,0.003412,0.001886,  47.135
   498.0,0.002456,0.001964,0.003252,0.001886,  47.135
   498.2,0.002458,0.001964,0.003049,0.001863,  47.131
   498.4,0.002458,0.001964,0.003076,0.001899,  47.134
   498.6,0.002452,0.001964,0.003168,0.001886,  47.134
   498.8,0.002458,0.001959,0.003327,0.001863,  47.135
   499.0,0.002458,0.001964,0.003058,0.001899,  47.134
   499.2,0.002455,0.001966,0.002604,0.001886,  47.133
   499.4,0.002463,0.001966,0.001967,0.001863,  47.132
   499.6,0.002463,0.001968,0.001968,0.001899,  47.134
   499.8,0.002460,0.001968,0.002210,0.001886,  47.135
   500.0,0.002462,0.001971,0.002670,0.001863,  47.135
   500.2,0.002460,0.001971,0.002834,0.001899,  47.131
   500.4,0.002454,0.001973,0.002964,0.001899,  47.133
   500.6,0.002460,0.001977,0.003050,0.001863,  47.133
   500.8,0.002466,0.001971,0.003102,0.001863,  47.132
   501.0,0.002462,0.001973,0.003128,0.001863,  47.130
   501.2,0.002469,0.001974,0.003114,0.001826,  47.129
   501.4,0.002471,0.001974,0.003134,0.001826,  47.131
   501.6,0.002468,0.001973,0.003168,0.001863,  47.129
   501.8,0.002471,0.001973,0.003205,0.001826,  47.129
   502.0,0.002471,0.001978,0.003258,0.001813,  47.127
   502.2,0.002468,0.001977,0.003317,0.001836,  47.128
   502.4,0.002474,0.001981,0.003388,0.001813,  47.128
   502.6,0.002474,0.001980,0.003383,0.001813,  47.128
   502.8,0.002470,0.001978,0.003351,0.001849,  47.123
   503.0,0.002477,0.001980,0.003291,0.001826,  47.126
   503.2,0.002474,0.001976,0.003292,0.001826,  47.131
   503.4,0.002470,0.001976,0.003312,0.001863,  47.127
   503.6,0.002474,0.001976,0.003352,0.001840,  47.130
   503.8,0.002471,0.001976,0.003378,0.001840,  47.126
   504.0,0.002468,0.001978,0.003411,0.001876,  47.132
   504.2,0.002471,0.001980,0.003444,0.001853,  47.131
   504.4,0.002478,0.001983,0.003477,0.001853,  47.131
   504.6,0.002474,0.001978,0.003510,0.001876,  47.127
   504.8,0.002471,0.001977,0.003530,0.001840,  47.131
   505.0,0.002478,0.001977,0.003524,0.001840,  47.127
   505.2,0.002471,0.001979,0.003504,0.001876,  47.129
   505.4,0.002471,0.001977,0.003458,0.001876,  47.129
   505.6,0.002475,0.001974,0.003439,0.001889,  47.128
   505.8,0.002469,0.001978,0.003420,0.001840,  47.128
   506.0,0.002478,0.001975,0.003418,0.001876,  47.129
   506.2,0.002481,0.001980,0.003430,0.001853,  47.129
   506.4,0.002481,0.001980,0.003452,0.001840,  47.128
   506.6,0.002478,0.001978,0.003484,0.001889,  47.129
   506.8,0.002484,0.001986,0.003530,0.001853,  47.127
   507.0,0.002484,0.001988,0.003537,0.001866,  47.129
   507.2,0.002486,0.001986,0.003517,0.001903,  47.124
   507.4,0.002489,0.001992,0.003495,0.001866,  47.131
   507.6,0.002489,0.001994,0.003470,0.001866,  47.132
   507.8,0.002492,0.001992,0.003462,0.001903,  47.125
   508.0,0.002492,0.001997,0.003448,0.001866,  47.130
   508.2,0.002501,0.001999,0.003462,0.001866,  47.133
   508.4,0.002503,0.001998,0.003497,0.001903,  47.128
   508.6,0.002500,0.002001,0.003564,0.001866,  47.133
   508.8,0.002506,0.001998,0.003564,0.001866,  47.131
   509.0,0.002509,0.001998,0.003538,0.001903,  47.130
   509.2,0.002505,0.001996,0.003490,0.001866,  47.131
   509.4,0.002506,0.001995,0.003484,0.001889,  47.132
   509.6,0.002506,0.001992,0.003490,0.001912,  47.133
   509.8,0.002502,0.001996,0.003496,0.001876,  47.134
   510.0,0.002509,0.002002,0.003491,0.001912,  47.137
   510.2,0.002509,0.002004,0.003497,0.001912,  47.134
   510.4,0.002502,0.002004,0.003497,0.001876,  47.133
   510.6,0.002506,0.002005,0.003413,0.001912,  47.136
   510.8,0.002506,0.002005,0.003300,0.001912,  47.132
   511.0,0.002502,0.002005,0.003135,0.001876,  47.133
   511.2,0.002506,0.002007,0.003117,0.001912,  47.133
   511.4,0.002506,0.002005,0.003150,0.001912,  47.138
   511.6,0.002509,0.002006,0.003236,0.001876,  47.137
   511.8,0.002512,0.002006,0.003269,0.001889,  47.135
   512.0,0.002512,0.002008,0.003295,0.001889,  47.138
   512.2,0.002509,0.002008,0.003322,0.001853,  47.139
   512.4,0.002506,0.002006,0.003045,0.001866,  47.139
   512.6,0.002506,0.002008,0.002606,0.001903,  47.137
   512.8,0.002509,0.002008,0.002003,0.001866,  47.140
   513.0,0.002512,0.002013,0.001912,0.001866,  47.140
   513.2,0.002510,0.002006,0.002004,0.001903,  47.142
   513.4,0.002510,0.002004,0.002271,0.001866,  47.137
   513.6,0.002504,0.002004,0.002410,0.001866,  47.141
   513.8,0.002504,0.002002,0.002581,0.001903,  47.142
   514.0,0.002504,0.001995,0.002778,0.001866,  47.140
   514.2,0.002504,0.001991,0.002904,0.001866,  47.140
   514.4,0.002507,0.001990,0.003015,0.001889,  47.140
   514.6,0.002507,0.001985,0.003101,0.001853,  47.146
   514.8,0.002507,0.001990,0.003037,0.001866,  47.140
   515.0,0.002510,0.001996,0.002892,0.001903,  47.141
   515.2,0.002510,0.001996,0.002673,0.001916,  47.144
   515.4,0.002510,0.002001,0.002707,0.001916,  47.142
   515.6,0.002510,0.002003,0.002820,0.001880,  47.144
   515.8,0.002512,0.001999,0.003023,0.001916,  47.144
   516.0,0.002516,0.001998,0.003096,0.001880,  47.145
   516.2,0.002516,0.001998,0.003142,0.001893,  47.146
   516.4,0.002512,0.001997,0.003179,0.001916,  47.146
   516.6,0.002516,0.001999,0.003185,0.001880,  47.148
   516.8,0.002516,0.002002,0.003213,0.001893,  47.144
   517.0,0.002516,0.001999,0.003239,0.001916,  47.143
   517.2,0.002510,0.002001,0.003266,0.001893,  47.146
   517.4,0.002516,0.002003,0.003035,0.001893,  47.145
   517.6,0.002516,0.002001,0.002654,0.001929,  47.144
   517.8,0.002510,0.002000,0.002136,0.001906,  47.146
   518.0,0.002510,0.002001,0.002156,0.001906,  47.148
   518.2,0.002510,0.002001,0.002360,0.001943,  47.147
   518.4,0.002512,0.002004,0.002761,0.001920,  47.148
   518.6,0.002512,0.002007,0.002906,0.001906,  47.144
   518.8,0.002512,0.002009,0.003030,0.001929,  47.145
   519.0,0.002517,0.002006,0.003121,0.001906,  47.145
   519.2,0.002517,0.002005,0.003202,0.001893,  47.145
   519.4,0.002517,0.002000,0.003274,0.001893,  47.149
   519.6,0.002520,0.002004,0.003333,0.001870,  47.146
   519.8,0.002517,0.002012,0.003354,0.001893,  47.147
   520.0,0.002520,0.002010,0.003365,0.001893,  47.147
   520.2,0.002520,0.002013,0.003340,0.001870,  47.147
   520.4,0.002520,0.002016,0.003374,0.001906,  47.146
   520.6,0.002523,0.002015,0.003426,0.001906,  47.147
   520.8,0.002523,0.002017,0.003487,0.001883,  47.145
   521.0,0.002523,0.002016,0.003502,0.001920,  47.146
   521.2,0.002525,0.002015,0.003514,0.001920,  47.145
   521.4,0.002525,0.002017,0.003501,0.001897,  47.144
   521.6,0.002529,0.002013,0.003509,0.001920,  47.145
   521.8,0.002532,0.002010,0.003529,0.001920,  47.145
   522.0,0.002525,0.002008,0.003562,0.001897,  47.145
   522.2,0.002529,0.002014,0.003576,0.001920,  47.143
   522.4,0.002532,0.002014,0.003597,0.001920,  47.146
   522.6,0.002525,0.002014,0.003622,0.001897,  47.146
   522.8,0.002529,0.002012,0.003636,0.001920,  47.141
   523.0,0.002532,0.002013,0.003648,0.001920,  47.144
   523.2,0.002534,0.002010,0.003648,0.001897,  47.142
   523.4,0.002543,0.002013,0.003657,0.001920,  47.141
   523.6,0.002546,0.002013,0.003677,0.001920,  47.142
   523.8,0.002546,0.002010,0.003697,0.001920,  47.144
   524.0,0.002546,0.002015,0.003671,0.001897,  47.141
   524.2,0.002548,0.002017,0.003631,0.001920,  47.143
   524.4,0.002548,0.002017,0.003570,0.001920,  47.141
   524.6,0.002546,0.002015,0.003483,0.001897,  47.140
   524.8,0.002546,0.002019,0.003352,0.001933,  47.141
   525.0,0.002546,0.002019,0.003214,0.001933,  47.139
   525.2,0.002548,0.002019,0.003042,0.001910,  47.141
   525.4,0.002546,0.002023,0.003042,0.001946,  47.141
   525.6,0.002546,0.002021,0.003089,0.001933,  47.139
   525.8,0.002546,0.002022,0.003187,0.001910,  47.135
   526.0,0.002546,0.002023,0.003247,0.001946,  47.139
   526.2,0.002552,0.002023,0.003320,0.001933,  47.137
   526.4,0.002555,0.002024,0.003394,0.001910,  47.139
   526.6,0.002555,0.002030,0.003427,0.001946,  47.132
   526.8,0.002561,0.002032,0.003439,0.001933,  47.135
   527.0,0.002564,0.002030,0.003426,0.001910,  47.131
   527.2,0.002555,0.002035,0.003434,0.001946,  47.130
   527.4,0.002555,0.002035,0.003460,0.001933,  47.129
   527.6,0.002557,0.002032,0.003480,0.001910,  47.131
   527.8,0.002555,0.002031,0.003454,0.001946,  47.129
   528.0,0.002555,0.002030,0.003407,0.001933,  47.124
   528.2,0.002557,0.002028,0.003340,0.001910,  47.123
   528.4,0.002555,0.002032,0.003334,0.001946,  47.122
   528.6,0.002548,0.002032,0.003347,0.001933,  47.124
   528.8,0.002551,0.002028,0.003375,0.001910,  47.121
   529.0,0.002548,0.002032,0.003277,0.001946,  47.119
   529.2,0.002548,0.002033,0.003131,0.001933,  47.117
   529.4,0.002548,0.002033,0.002921,0.001910,  47.116
   529.6,0.002552,0.002037,0.002802,0.001933,  47.113
   529.8,0.002558,0.002039,0.002697,0.001906,  47.112
   530.0,0.002558,0.002043,0.002599,0.001883,  47.110
   530.2,0.002552,0.002035,0.002605,0.001920,  47.109
   530.4,0.002546,0.002033,0.002670,0.001906,  47.109
   530.6,0.002548,0.002024,0.002776,0.001883,  47.109
   530.8,0.002548,0.002026,0.002882,0.001920,  47.106
   531.0,0.002542,0.002028,0.003021,0.001920,  47.103
   531.2,0.002542,0.002026,0.003175,0.001897,  47.103
   531.4,0.002546,0.002022,0.003209,0.001920,  47.105
   531.6,0.002552,0.002019,0.003201,0.001920,  47.105
   531.8,0.002552,0.002017,0.003140,0.001920,  47.103
   532.0,0.002552,0.002020,0.003187,0.001897,  47.101
   532.2,0.002558,0.002020,0.003260,0.001933,  47.099
   532.4,0.002558,0.002024,0.003359,0.001946,  47.103
   532.6,0.002552,0.002019,0.003380,0.001910,  47.098
   532.8,0.002552,0.002019,0.003380,0.001946,  47.101
   533.0,0.002546,0.002021,0.003353,0.001946,  47.094
   533.2,0.002555,0.002020,0.003339,0.001910,  47.093
   533.4,0.002552,0.002024,0.003326,0.001946,  47.095
   533.6,0.002552,0.002022,0.003299,0.001946,  47.097
   533.8,0.002555,0.002023,0.003266,0.001910,  47.091
   534.0,0.002555,0.002026,0.003287,0.001946,  47.102
   534.2,0.002555,0.002027,0.003332,0.001946,  47.094
   534.4,0.002557,0.002025,0.003387,0.001923,  47.096
   534.6,0.002555,0.002030,0.003394,0.001960,  47.096
   534.8,0.002555,0.002033,0.003381,0.001960,  47.097
   535.0,0.002557,0.002033,0.003353,0.001937,  47.098
   535.2,0.002557,0.002037,0.003380,0.001986,  47.097
   535.4,0.002557,0.002039,0.003421,0.001973,  47.099
   535.6,0.002560,0.002040,0.003481,0.001923,  47.097
   535.8,0.002560,0.002046,0.003486,0.001960,  47.096
   536.0,0.002563,0.002048,0.003454,0.001982,  47.094
   536.2,0.002565,0.002048,0.003399,0.001946,  47.093
   536.4,0.002565,0.002046,0.003373,0.001946,  47.094
   536.6,0.002568,0.002043,0.003342,0.001960,  47.092
   536.8,0.002568,0.002046,0.003323,0.001923,  47.093
   537.0,0.002568,0.002043,0.003343,0.001960,  47.099
   537.2,0.002570,0.002040,0.003378,0.001946,  47.100
   537.4,0.002570,0.002042,0.003444,0.001910,  47.095
   537.6,0.002570,0.002045,0.003437,0.001946,  47.100
   537.8,0.002573,0.002045,0.003398,0.001960,  47.097
   538.0,0.002573,0.002044,0.003331,0.001937,  47.095
   538.2,0.002570,0.002045,0.003317,0.001973,  47.096
   538.4,0.002573,0.002046,0.003311,0.001960,  47.094
   538.6,0.002570,0.002046,0.003311,0.001923,  47.092
   538.8,0.002571,0.002046,0.003154,0.001973,  47.095
   539.0,0.002568,0.002048,0.002923,0.001973,  47.099
   539.2,0.002568,0.002049,0.002602,0.001937,  47.093
   539.4,0.002571,0.002048,0.002616,0.001986,  47.096
   539.6,0.002565,0.002048,0.002760,0.001973,  47.097
   539.8,0.002565,0.002045,0.003017,0.001923,  47.094
   540.0,0.002566,0.002041,0.003097,0.001960,  47.096
   540.2,0.002563,0.002037,0.003149,0.001946,  47.096
   540.4,0.002563,0.002044,0.003163,0.001946,  47.099
   540.6,0.002569,0.002043,0.003223,0.001910,  47.098
   540.8,0.002565,0.002044,0.003288,0.001923,  47.094
   541.0,0.002563,0.002040,0.003348,0.001937,  47.095
   541.2,0.002569,0.002036,0.003375,0.001914,  47.093
   541.4,0.002569,0.002043,0.003382,0.001914,  47.093
   541.6,0.002571,0.002043,0.003375,0.001937,  47.094
   541.8,0.002574,0.002043,0.003388,0.001900,  47.096
   542.0,0.002574,0.002051,0.003408,0.001927,  47.095
   542.2,0.002570,0.002055,0.003428,0.001963,  47.096
   542.4,0.002577,0.002053,0.003447,0.001927,  47.094
   542.6,0.002577,0.002053,0.003435,0.001940,  47.095
   542.8,0.002573,0.002053,0.003414,0.001963,  47.096
   543.0,0.002570,0.002053,0.003387,0.001927,  47.093
   543.2,0.002571,0.002052,0.003401,0.001940,  47.092
   543.4,0.002568,0.002050,0.003421,0.001963,  47.092
   543.6,0.002570,0.002050,0.003461,0.001927,  47.094
   543.8,0.002579,0.002046,0.003454,0.001927,  47.094
   544.0,0.002573,0.002048,0.003434,0.001950,  47.093
   544.2,0.002573,0.002045,0.003395,0.001914,  47.093
   544.4,0.002573,0.002047,0.003409,0.001914,  47.092
   544.6,0.002576,0.002049,0.003448,0.001950,  47.092
   544.8,0.002576,0.002049,0.003507,0.001914,  47.094
   545.0,0.002582,0.002047,0.003494,0.001914,  47.096
   545.2,0.002578,0.002049,0.003454,0.001950,  47.097
   545.4,0.002581,0.002052,0.003381,0.001914,  47.096
   545.6,0.002587,0.002055,0.003197,0.001927,  47.101
   545.8,0.002581,0.002054,0.002934,0.001963,  47.103
   546.0,0.002581,0.002056,0.002600,0.001940,  47.097
   546.2,0.002587,0.002061,0.002579,0.001940,  47.097
   546.4,0.002581,0.002059,0.002664,0.001976,  47.096
   546.6,0.002581,0.002057,0.002867,0.001954,  47.095
   546.8,0.002587,0.002060,0.002966,0.001940,  47.093
   547.0,0.002581,0.002060,0.003052,0.001976,  47.088
   547.2,0.002581,0.002059,0.003145,0.001954,  47.088
   547.4,0.002587,0.002055,0.003200,0.001954,  47.087
   547.6,0.002581,0.002056,0.003245,0.001990,  47.089
   547.8,0.002578,0.002057,0.003277,0.001967,  47.090
   548.0,0.002582,0.002052,0.003305,0.001967,  47.093
   548.2,0.002576,0.002054,0.003351,0.001990,  47.088
   548.4,0.002576,0.002050,0.003396,0.001967,  47.094
   548.6,0.002576,0.002056,0.003398,0.001954,  47.094
   548.8,0.002576,0.002056,0.003391,0.001976,  47.092
   549.0,0.002576,0.002054,0.003371,0.001976,  47.089
   549.2,0.002582,0.002055,0.003346,0.001954,  47.091
   549.4,0.002576,0.002056,0.003304,0.001954,  47.088
   549.6,0.002582,0.002058,0.003251,0.001990,  47.089
   549.8,0.002588,0.002057,0.003263,0.001954,  47.090
   550.0,0.002588,0.002054,0.003286,0.001954,  47.087
   550.2,0.002591,0.002058,0.003351,0.001990,  47.091
   550.4,0.002582,0.002062,0.003426,0.001967,  47.090
   550.6,0.002591,0.002064,0.003447,0.001967,  47.090
   550.8,0.002587,0.002064,0.003460,0.001990,  47.090
   551.0,0.002587,0.002068,0.003466,0.001967,  47.091
   551.2,0.002593,0.002070,0.003465,0.001967,  47.092
   551.4,0.002587,0.002068,0.003440,0.001990,  47.090
   551.6,0.002593,0.002066,0.003406,0.001967,  47.089
   551.8,0.002593,0.002068,0.003195,0.001967,  47.090
   552.0,0.002587,0.002068,0.002866,0.001990,  47.089
   552.2,0.002596,0.002072,0.002439,0.001967,  47.090
   552.4,0.002596,0.002073,0.002400,0.001967,  47.092
   552.6,0.002593,0.002071,0.002506,0.001990,  47.092
   552.8,0.002599,0.002072,0.002761,0.001967,  47.096
   553.0,0.002599,0.002073,0.002887,0.001967,  47.090
   553.2,0.002595,0.002072,0.003038,0.001990,  47.091
   553.4,0.002599,0.002069,0.003209,0.001967,  47.093
   553.6,0.002599,0.002068,0.003296,0.001967,  47.094
   553.8,0.002595,0.002070,0.003361,0.001967,  47.094
   554.0,0.002601,0.002072,0.003399,0.001980,  47.093
   554.2,0.002601,0.002072,0.003413,0.001980,  47.097
   554.4,0.002598,0.002072,0.003393,0.001980,  47.097
   554.6,0.002607,0.002073,0.003352,0.001993,  47.094
   554.8,0.002609,0.002079,0.003202,0.001993,  47.093
   555.0,0.002606,0.002081,0.002997,0.001980,  47.097
   555.2,0.002612,0.002080,0.002727,0.001993,  47.092
   555.4,0.002612,0.002079,0.002741,0.001993,  47.095
   555.6,0.002608,0.002080,0.002861,0.001980,  47.092
   555.8,0.002615,0.002077,0.003098,0.001993,  47.098
   556.0,0.002612,0.002081,0.003145,0.001980,  47.097
   556.2,0.002603,0.002079,0.003151,0.001967,  47.097
   556.4,0.002609,0.002077,0.003128,0.001980,  47.098
   556.6,0.002609,0.002079,0.003049,0.001980,  47.099
   556.8,0.002600,0.002075,0.002930,0.001980,  47.102
   557.0,0.002607,0.002073,0.002760,0.001993,  47.097
   557.2,0.002609,0.002075,0.002800,0.001993,  47.096
   557.4,0.002606,0.002072,0.002919,0.001980,  47.096
   557.6,0.002612,0.002074,0.003104,0.001993,  47.096
   557.8,0.002612,0.002074,0.003184,0.001993,  47.096
   558.0,0.002608,0.002074,0.003231,0.001993,  47.099
   558.2,0.002617,0.002077,0.003270,0.001993,  47.101
   558.4,0.002617,0.002079,0.003218,0.002007,  47.095
   558.6,0.002614,0.002080,0.003119,0.001993,  47.101
   558.8,0.002620,0.002077,0.002955,0.001993,  47.101
   559.0,0.002622,0.002079,0.002878,0.001993,  47.104
   559.2,0.002625,0.002083,0.002830,0.001993,  47.104
   559.4,0.002625,0.002083,0.002779,0.001980,  47.104
   559.6,0.002622,0.002089,0.002812,0.001993,  47.104
   559.8,0.002619,0.002089,0.002885,0.001993,  47.103
   560.0,0.002613,0.002085,0.003010,0.001993,  47.105
   560.2,0.002619,0.002085,0.003169,0.001993,  47.109
   560.4,0.002619,0.002081,0.003221,0.001993,  47.104
   560.6,0.002615,0.002077,0.003253,0.001993,  47.106
   560.8,0.002615,0.002086,0.003259,0.001993,  47.109
   561.0,0.002622,0.002090,0.003273,0.001993,  47.108
   561.2,0.002618,0.002086,0.003278,0.001993,  47.106
   561.4,0.002615,0.002090,0.003265,0.001993,  47.114
   561.6,0.002622,0.002092,0.003285,0.001993,  47.107
   561.8,0.002618,0.002089,0.003305,0.001993,  47.110
   562.0,0.002615,0.002088,0.003331,0.002007,  47.109
   562.2,0.002619,0.002092,0.003333,0.002007,  47.111
   562.4,0.002615,0.002087,0.003333,0.002007,  47.111
   562.6,0.002615,0.002089,0.003320,0.002020,  47.115
   562.8,0.002619,0.002092,0.003335,0.002020,  47.118
   563.0,0.002615,0.002092,0.003369,0.002007,  47.114
   563.2,0.002615,0.002087,0.003422,0.001993,  47.112
   563.4,0.002619,0.002090,0.003475,0.001993,  47.111
   563.6,0.002615,0.002090,0.003523,0.001993,  47.112
   563.8,0.002615,0.002088,0.003588,0.001980,  47.116
   564.0,0.002619,0.002086,0.003608,0.001980,  47.107
   564.2,0.002613,0.002084,0.003602,0.001993,  47.105
   564.4,0.002616,0.002084,0.003575,0.002007,  47.110
   564.6,0.002617,0.002087,0.003549,0.002007,  47.113
   564.8,0.002611,0.002085,0.003511,0.002007,  47.110
   565.0,0.002617,0.002085,0.003464,0.002020,  47.112
   565.2,0.002617,0.002081,0.003425,0.002020,  47.112
   565.4,0.002611,0.002083,0.003386,0.002007,  47.110
   565.6,0.002617,0.002079,0.003352,0.002007,  47.113
   565.8,0.002617,0.002083,0.003353,0.002007,  47.113
   566.0,0.002614,0.002086,0.003372,0.002007,  47.114
   566.2,0.002620,0.002088,0.003412,0.002007,  47.113
   566.4,0.002622,0.002088,0.003419,0.002020,  47.113
   566.6,0.002619,0.002081,0.003419,0.002020,  47.113
   566.8,0.002622,0.002081,0.003424,0.002020,  47.113
   567.0,0.002622,0.002080,0.003404,0.002033,  47.114
   567.2,0.002619,0.002087,0.003371,0.002020,  47.114
   567.4,0.002625,0.002088,0.003325,0.002007,  47.118
   567.6,0.002625,0.002088,0.003319,0.002020,  47.114
   567.8,0.002622,0.002085,0.003321,0.002007,  47.113
   568.0,0.002628,0.002083,0.003346,0.002007,  47.116
   568.2,0.002625,0.002089,0.003380,0.002007,  47.117
   568.4,0.002625,0.002089,0.003342,0.002007,  47.117
   568.6,0.002628,0.002085,0.003295,0.002007,  47.115
   568.8,0.002619,0.002088,0.003233,0.002007,  47.116
   569.0,0.002628,0.002089,0.003226,0.002007,  47.116
   569.2,0.002622,0.002089,0.003227,0.002007,  47.120
   569.4,0.002624,0.002089,0.003253,0.002007,  47.119
   569.6,0.002633,0.002092,0.003253,0.002007,  47.120
   569.8,0.002627,0.002094,0.003247,0.002007,  47.121
   570.0,0.002633,0.002092,0.003234,0.002007,  47.120
   570.2,0.002633,0.002094,0.003036,0.002007,  47.119
   570.4,0.002629,0.002096,0.002742,0.002007,  47.119
   570.6,0.002636,0.002091,0.002354,0.002007,  47.120
   570.8,0.002636,0.002092,0.002230,0.002007,  47.119
   571.0,0.002632,0.002090,0.002190,0.002007,  47.125
   571.2,0.002638,0.002093,0.002229,0.002007,  47.126
   571.4,0.002636,0.002095,0.002315,0.002020,  47.123
   571.6,0.002629,0.002092,0.002460,0.002020,  47.122
   571.8,0.002636,0.002094,0.002677,0.002020,  47.126
   572.0,0.002636,0.002097,0.002794,0.002033,  47.125
   572.2,0.002629,0.002096,0.002887,0.002020,  47.127
   572.4,0.002636,0.002096,0.002960,0.002020,  47.126
   572.6,0.002636,0.002105,0.002987,0.002033,  47.124
   572.8,0.002627,0.002107,0.002985,0.002020,  47.127
   573.0,0.002630,0.002100,0.002943,0.002020,  47.130
   573.2,0.002634,0.002099,0.002956,0.002033,  47.132
   573.4,0.002628,0.002097,0.002968,0.002020,  47.132
   573.6,0.002625,0.002099,0.002987,0.002020,  47.128
   573.8,0.002628,0.002092,0.003033,0.002033,  47.131
   574.0,0.002624,0.002099,0.003093,0.002033,  47.133
   574.2,0.002630,0.002094,0.003155,0.002033,  47.132
   574.4,0.002630,0.002095,0.003215,0.002047,  47.135
   574.6,0.002627,0.002095,0.003262,0.002047,  47.134
   574.8,0.002633,0.002095,0.003303,0.002047,  47.136
   575.0,0.002633,0.002095,0.003343,0.002060,  47.139
   575.2,0.002629,0.002097,0.003370,0.002047,  47.140
   575.4,0.002638,0.002101,0.003390,0.002047,  47.135
   575.6,0.002638,0.002103,0.003425,0.002047,  47.136
   575.8,0.002635,0.002105,0.003465,0.002060,  47.136
   576.0,0.002644,0.002109,0.003511,0.002060,  47.141
   576.2,0.002641,0.002108,0.003499,0.002073,  47.139
   576.4,0.002644,0.002106,0.003472,0.002060,  47.140
   576.6,0.002644,0.002108,0.003405,0.002060,  47.140
   576.8,0.002640,0.002106,0.003324,0.002073,  47.141
   577.0,0.002646,0.002106,0.003338,0.002060,  47.141
   577.2,0.002643,0.002108,0.003365,0.002060,  47.145
   577.4,0.002643,0.002108,0.003412,0.002073,  47.143
   577.6,0.002649,0.002110,0.003425,0.002060,  47.145
   577.8,0.002645,0.002114,0.003431,0.002060,  47.146
   578.0,0.002651,0.002117,0.003417,0.002073,  47.142
   578.2,0.002651,0.002118,0.003402,0.002060,  47.144
   578.4,0.002648,0.002124,0.003374,0.002060,  47.144
   578.6,0.002651,0.002124,0.003328,0.002060,  47.143
   578.8,0.002658,0.002122,0.003335,0.002060,  47.145
   579.0,0.002654,0.002118,0.003367,0.002047,  47.142
   579.2,0.002651,0.002120,0.003420,0.002010,  47.141
   579.4,0.002658,0.002121,0.003435,0.002024,  47.146
   579.6,0.002654,0.002116,0.003461,0.002010,  47.144
   579.8,0.002651,0.002121,0.003468,0.001974,  47.144
   580.0,0.002658,0.002123,0.003469,0.001987,  47.140
   580.2,0.002654,0.002120,0.003464,0.002010,  47.138
   580.4,0.002651,0.002122,0.003457,0.002024,  47.142
   580.6,0.002658,0.002123,0.003470,0.002024,  47.138
   580.8,0.002654,0.002125,0.003478,0.002024,  47.136
   581.0,0.002654,0.002124,0.003499,0.002037,  47.137
   581.2,0.002660,0.002128,0.003486,0.002024,  47.137
   581.4,0.002657,0.002130,0.003451,0.002024,  47.131
   581.6,0.002660,0.002124,0.003399,0.002037,  47.135
   581.8,0.002664,0.002128,0.003392,0.002037,  47.134
   582.0,0.002660,0.002128,0.003406,0.002037,  47.130
   582.2,0.002664,0.002126,0.003426,0.002050,  47.125
   582.4,0.002661,0.002124,0.003402,0.002050,  47.128
   582.6,0.002658,0.002125,0.003368,0.002037,  47.131
   582.8,0.002658,0.002118,0.003316,0.002050,  47.125
   583.0,0.002658,0.002121,0.003224,0.002050,  47.123
   583.2,0.002654,0.002119,0.003097,0.002037,  47.123
   583.4,0.002658,0.002121,0.002933,0.002037,  47.120
   583.6,0.002664,0.002124,0.002921,0.002037,  47.121
   583.8,0.002660,0.002129,0.002967,0.002010,  47.121
   584.0,0.002667,0.002130,0.003078,0.002024,  47.118
   584.2,0.002667,0.002133,0.002992,0.002037,  47.112
   584.4,0.002663,0.002129,0.002822,0.002037,  47.114
   584.6,0.002663,0.002128,0.002590,0.002050,  47.114
   584.8,0.002663,0.002132,0.002630,0.002050,  47.114
   585.0,0.002663,0.002131,0.002762,0.002050,  47.114
   585.2,0.002663,0.002133,0.002992,0.002037,  47.115
   585.4,0.002663,0.002135,0.003059,0.002037,  47.113
   585.6,0.002663,0.002131,0.003111,0.002037,  47.111
   585.8,0.002663,0.002129,0.003118,0.002037,  47.111
   586.0,0.002663,0.002129,0.003092,0.002050,  47.106
   586.2,0.002669,0.002129,0.003124,0.002050,  47.109
   586.4,0.002663,0.002126,0.003144,0.002037,  47.107
   586.6,0.002669,0.002124,0.003164,0.002050,  47.107
   586.8,0.002669,0.002129,0.003184,0.002050,  47.102
   587.0,0.002666,0.002133,0.003209,0.002037,  47.104
   587.2,0.002675,0.002129,0.003229,0.002050,  47.103
   587.4,0.002675,0.002130,0.003242,0.002050,  47.101
   587.6,0.002671,0.002128,0.003243,0.002050,  47.098
   587.8,0.002671,0.002133,0.003249,0.002064,  47.100
   588.0,0.002666,0.002134,0.003288,0.002050,  47.099
   588.2,0.002659,0.002133,0.003329,0.002050,  47.103
   588.4,0.002662,0.002132,0.003389,0.002064,  47.102
   588.6,0.002671,0.002133,0.003402,0.002037,  47.098
   588.8,0.002665,0.002135,0.003401,0.002024,  47.095
   589.0,0.002665,0.002132,0.003361,0.002037,  47.097
   589.2,0.002671,0.002131,0.003110,0.002014,  47.092
   589.4,0.002665,0.002130,0.002729,0.002027,  47.090
   589.6,0.002665,0.002128,0.002218,0.002041,  47.090
   589.8,0.002671,0.002137,0.002232,0.002004,  47.090
   590.0,0.002665,0.002137,0.002450,0.002041,  47.090
   590.2,0.002665,0.002135,0.002858,0.002041,  47.090
   590.4,0.002671,0.002140,0.002977,0.002004,  47.088
   590.6,0.002668,0.002138,0.003056,0.002041,  47.089
   590.8,0.002666,0.002136,0.003086,0.002054,  47.089
   591.0,0.002676,0.002136,0.003152,0.002018,  47.085
   591.2,0.002669,0.002139,0.003217,0.002054,  47.082
   591.4,0.002672,0.002141,0.003276,0.002067,  47.081
   591.6,0.002677,0.002143,0.003310,0.002031,  47.081
   591.8,0.002676,0.002146,0.003336,0.002054,  47.082
   592.0,0.002685,0.002146,0.003350,0.002041,  47.082
   592.2,0.002685,0.002148,0.003343,0.001991,  47.086
   592.4,0.002681,0.002152,0.003316,0.002014,  47.078
   592.6,0.002688,0.002149,0.003274,0.002014,  47.078
   592.8,0.002688,0.002149,0.003241,0.002027,  47.081
   593.0,0.002687,0.002152,0.003214,0.002014,  47.081
   593.2,0.002693,0.002149,0.003174,0.002027,  47.081
   593.4,0.002696,0.002151,0.003069,0.002041,  47.080
   593.6,0.002698,0.002153,0.002923,0.002041,  47.079
   593.8,0.002698,0.002153,0.002739,0.002041,  47.075
   594.0,0.002692,0.002156,0.002719,0.002041,  47.078
   594.2,0.002696,0.002154,0.002752,0.002004,  47.076
   594.4,0.002692,0.002147,0.002845,0.002041,  47.077
   594.6,0.002692,0.002153,0.002995,0.002054,  47.075
   594.8,0.002698,0.002154,0.003070,0.002018,  47.078
   595.0,0.002696,0.002154,0.003149,0.002054,  47.076
   595.2,0.002702,0.002151,0.003229,0.002067,  47.077
   595.4,0.002705,0.002151,0.003268,0.002044,  47.080
   595.6,0.002705,0.002154,0.003287,0.002067,  47.076
   595.8,0.002702,0.002154,0.003285,0.002067,  47.079
   596.0,0.002704,0.002155,0.003331,0.002044,  47.080
   596.2,0.002703,0.002152,0.003378,0.002067,  47.078
   596.4,0.002706,0.002150,0.003439,0.002067,  47.081
   596.6,0.002706,0.002156,0.003466,0.002044,  47.082
   596.8,0.002703,0.002152,0.003492,0.002081,  47.087
   597.0,0.002703,0.002150,0.003493,0.002081,  47.085
   597.2,0.002705,0.002152,0.003501,0.002044,  47.079
   597.4,0.002702,0.002149,0.003520,0.002081,  47.085
   597.6,0.002702,0.002149,0.003527,0.002081,  47.083
   597.8,0.002708,0.002156,0.003514,0.002044,  47.084
   598.0,0.002704,0.002158,0.003495,0.002081,  47.088
   598.2,0.002708,0.002160,0.003473,0.002081,  47.086
   598.4,0.002711,0.002161,0.003479,0.002044,  47.090
   598.6,0.002708,0.002166,0.003499,0.002081,  47.089
   598.8,0.002709,0.002168,0.003526,0.002081,  47.089
   599.0,0.002706,0.002171,0.003479,0.002058,  47.092
   599.2,0.002703,0.002171,0.003399,0.002094,  47.092
   599.4,0.002706,0.002173,0.003273,0.002094,  47.090
   599.6,0.002706,0.002169,0.003286,0.002071,  47.090
   599.8,0.002709,0.002166,0.003341,0.002094,  47.093
   600.0,0.002706,0.002164,0.003459,0.002094,  47.095
   600.2,0.002712,0.002168,0.003485,0.002071,  47.094
   600.4,0.002715,0.002167,0.003473,0.002094,  47.091
   600.6,0.002709,0.002171,0.003459,0.002094,  47.090
   600.8,0.002715,0.002169,0.003460,0.002071,  47.093
   601.0,0.002711,0.002169,0.003460,0.002094,  47.095
   601.2,0.002714,0.002169,0.003460,0.002094,  47.096
   601.4,0.002714,0.002169,0.003447,0.002094,  47.095
   601.6,0.002713,0.002171,0.003439,0.002094,  47.097
   601.8,0.002719,0.002171,0.003412,0.002094,  47.096
   602.0,0.002719,0.002178,0.003419,0.002107,  47.099
   602.2,0.002719,0.002180,0.003440,0.002094,  47.098
   602.4,0.002719,0.002184,0.003480,0.002094,  47.097
   602.6,0.002728,0.002179,0.003527,0.002094,  47.100
   602.8,0.002732,0.002178,0.003514,0.002071,  47.100
   603.0,0.002726,0.002178,0.003487,0.002094,  47.101
   603.2,0.002728,0.002176,0.003446,0.002094,  47.101
   603.4,0.002734,0.002182,0.003433,0.002071,  47.104
   603.6,0.002734,0.002182,0.003426,0.002094,  47.104
   603.8,0.002737,0.002177,0.003438,0.002094,  47.105
   604.0,0.002734,0.002185,0.003437,0.002071,  47.107
   604.2,0.002734,0.002187,0.003437,0.002094,  47.105
   604.4,0.002737,0.002185,0.003449,0.002094,  47.106
   604.6,0.002734,0.002187,0.003461,0.002071,  47.111
   604.8,0.002734,0.002191,0.003462,0.002094,  47.110
   605.0,0.002740,0.002195,0.003469,0.002094,  47.115
   605.2,0.002740,0.002197,0.003477,0.002071,  47.117
   605.4,0.002740,0.002199,0.003491,0.002094,  47.115
   605.6,0.002740,0.002197,0.003503,0.002094,  47.113
   605.8,0.002737,0.002193,0.003518,0.002071,  47.116
   606.0,0.002740,0.002193,0.003544,0.002094,  47.112
   606.2,0.002740,0.002191,0.003558,0.002094,  47.112
   606.4,0.002742,0.002187,0.003472,0.002071,  47.115
   606.6,0.002745,0.002189,0.003321,0.002094,  47.117
   606.8,0.002736,0.002189,0.003122,0.002107,  47.114
   607.0,0.002736,0.002195,0.003109,0.002071,  47.116
   607.2,0.002736,0.002200,0.003142,0.002107,  47.117
   607.4,0.002727,0.002198,0.003241,0.002121,  47.119
   607.6,0.002731,0.002198,0.003260,0.002071,  47.120
   607.8,0.002731,0.002203,0.003254,0.002107,  47.119
   608.0,0.002731,0.002207,0.003233,0.002121,  47.120
   608.2,0.002737,0.002205,0.003253,0.002071,  47.123
   608.4,0.002737,0.002215,0.003280,0.002107,  47.124
   608.6,0.002740,0.002210,0.003313,0.002121,  47.124
   608.8,0.002740,0.002212,0.003333,0.002084,  47.127
   609.0,0.002740,0.002205,0.003359,0.002121,  47.124
   609.2,0.002740,0.002201,0.003384,0.002134,  47.124
   609.4,0.002743,0.002203,0.003412,0.002098,  47.128
   609.6,0.002743,0.002198,0.003457,0.002121,  47.122
   609.8,0.002740,0.002196,0.003497,0.002121,  47.129
   610.0,0.002746,0.002193,0.003538,0.002121,  47.129
   610.2,0.002749,0.002195,0.003591,0.002121,  47.128
   610.4,0.002745,0.002193,0.003644,0.002121,  47.128
   610.6,0.002751,0.002191,0.003651,0.002121,  47.129
   610.8,0.002751,0.002200,0.003644,0.002134,  47.132
   611.0,0.002751,0.002202,0.003616,0.002134,  47.129
   611.2,0.002754,0.002197,0.003569,0.002147,  47.131
   611.4,0.002754,0.002197,0.003556,0.002098,  47.130
   611.6,0.002757,0.002200,0.003550,0.002134,  47.132
   611.8,0.002757,0.002200,0.003555,0.002147,  47.134
   612.0,0.002757,0.002202,0.003570,0.002098,  47.133
   612.2,0.002763,0.002204,0.003595,0.002134,  47.140
   612.4,0.002764,0.002211,0.003629,0.002147,  47.135
   612.6,0.002768,0.002212,0.003616,0.002098,  47.138
   612.8,0.002774,0.002215,0.003595,0.002134,  47.136
   613.0,0.002782,0.002216,0.003547,0.002147,  47.141
   613.2,0.002783,0.002219,0.003548,0.002098,  47.138
   613.4,0.002782,0.002218,0.003580,0.002134,  47.138
   613.6,0.002785,0.002225,0.003620,0.002147,  47.138
   613.8,0.002785,0.002225,0.003535,0.002111,  47.145
   614.0,0.002781,0.002223,0.003398,0.002147,  47.146
   614.2,0.002784,0.002231,0.003219,0.002161,  47.144
   614.4,0.002789,0.002235,0.003205,0.002124,  47.143
   614.6,0.002786,0.002233,0.003238,0.002147,  47.146
   614.8,0.002788,0.002235,0.003336,0.002161,  47.141
   615.0,0.002794,0.002235,0.003363,0.002124,  47.145
   615.2,0.002797,0.002237,0.003377,0.002147,  47.148
   615.4,0.002800,0.002239,0.003391,0.002161,  47.150
   615.6,0.002794,0.002240,0.003438,0.002124,  47.150
   615.8,0.002792,0.002240,0.003498,0.002147,  47.152
   616.0,0.002789,0.002236,0.003572,0.002161,  47.152
   616.2,0.002784,0.002230,0.003594,0.002124,  47.152
   616.4,0.002784,0.002228,0.003606,0.002147,  47.153
   616.6,0.002781,0.002220,0.003599,0.002161,  47.153
   616.8,0.002784,0.002224,0.003594,0.002111,  47.155
   617.0,0.002786,0.002222,0.003599,0.002134,  47.158
   617.2,0.002786,0.002218,0.003599,0.002147,  47.155
   617.4,0.002789,0.002216,0.003613,0.002111,  47.158
   617.6,0.002789,0.002220,0.003639,0.002147,  47.158
   617.8,0.002789,0.002222,0.003665,0.002161,  47.158
   618.0,0.002789,0.002222,0.003678,0.002111,  47.156
   618.2,0.002789,0.002222,0.003678,0.002121,  47.160
   618.4,0.002789,0.002220,0.003666,0.002134,  47.174
   618.6,0.002789,0.002222,0.003528,0.002098,  47.176
   618.8,0.002789,0.002224,0.003329,0.002134,  47.178
   619.0,0.002789,0.002226,0.003058,0.002134,  47.175
   619.2,0.002789,0.002224,0.002960,0.002134,  47.179
   619.4,0.002789,0.002226,0.002914,0.002147,  47.179
   619.6,0.002789,0.002228,0.002921,0.002134,  47.180
   619.8,0.002789,0.002224,0.002940,0.002134,  47.178
   620.0,0.002789,0.002221,0.002987,0.002147,  47.181
   620.2,0.002792,0.002221,0.003066,0.002134,  47.176
   620.4,0.002788,0.002221,0.003177,0.002147,  47.182
   620.6,0.002797,0.002228,0.003245,0.002111,  47.180
   620.8,0.002800,0.002235,0.003318,0.002147,  47.184
   621.0,0.002800,0.002233,0.003396,0.002161,  47.179
   621.2,0.002797,0.002226,0.003319,0.002124,  47.181
   621.4,0.002797,0.002228,0.003180,0.002147,  47.182
   621.6,0.002797,0.002228,0.002967,0.002161,  47.181
   621.8,0.002797,0.002228,0.002968,0.002124,  47.185
   622.0,0.002797,0.002226,0.003053,0.002147,  47.182
   622.2,0.002797,0.002229,0.003204,0.002161,  47.181
   622.4,0.002797,0.002228,0.003297,0.002124,  47.184
   622.6,0.002797,0.002228,0.003391,0.002161,  47.186
   622.8,0.002797,0.002230,0.003497,0.002174,  47.183
   623.0,0.002797,0.002231,0.003536,0.002138,  47.182
   623.2,0.002797,0.002231,0.003530,0.002174,  47.180
   623.4,0.002791,0.002237,0.003496,0.002187,  47.180
   623.6,0.002791,0.002237,0.003534,0.002151,  47.179
   623.8,0.002791,0.002235,0.003568,0.002174,  47.182
   624.0,0.002785,0.002235,0.003616,0.002174,  47.179
   624.2,0.002788,0.002231,0.003622,0.002138,  47.180
   624.4,0.002786,0.002227,0.003601,0.002174,  47.177
   624.6,0.002779,0.002229,0.003549,0.002174,  47.176
   624.8,0.002783,0.002227,0.003558,0.002138,  47.176
   625.0,0.002783,0.002223,0.003604,0.002174,  47.175
   625.2,0.002779,0.002229,0.003664,0.002174,  47.178
   625.4,0.002788,0.002229,0.003679,0.002138,  47.174
   625.6,0.002791,0.002231,0.003692,0.002174,  47.173
   625.8,0.002787,0.002231,0.003698,0.002174,  47.170
   626.0,0.002791,0.002231,0.003686,0.002138,  47.171
   626.2,0.002791,0.002235,0.003659,0.002174,  47.170
   626.4,0.002785,0.002235,0.003618,0.002174,  47.169
   626.6,0.002791,0.002230,0.003619,0.002138,  47.169
   626.8,0.002791,0.002228,0.003633,0.002174,  47.171
   627.0,0.002785,0.002225,0.003660,0.002174,  47.165
   627.2,0.002788,0.002225,0.003667,0.002151,  47.170
   627.4,0.002788,0.002228,0.003679,0.002187,  47.165
   627.6,0.002791,0.002232,0.003673,0.002201,  47.165
   627.8,0.002794,0.002232,0.003569,0.002201,  47.167
   628.0,0.002794,0.002232,0.003416,0.002201,  47.163
   628.2,0.002797,0.002235,0.003217,0.002187,  47.165
   628.4,0.002794,0.002234,0.003198,0.002187,  47.161
   628.6,0.002794,0.002233,0.003250,0.002187,  47.164
   628.8,0.002794,0.002232,0.003374,0.002187,  47.162
   629.0,0.002791,0.002229,0.003406,0.002187,  47.162
   629.2,0.002797,0.002232,0.003427,0.002164,  47.168
   629.4,0.002800,0.002234,0.003438,0.002187,  47.166
   629.6,0.002800,0.002237,0.003438,0.002187,  47.161
   629.8,0.002797,0.002235,0.003538,0.002164,  47.163
   630.0,0.002806,0.002231,0.003670,0.002151,  47.164
   630.2,0.002806,0.002233,0.003825,0.002151,  47.165
   630.4,0.002809,0.002233,0.003753,0.002164,  47.166
   630.6,0.002817,0.002233,0.003575,0.002164,  47.162
   630.8,0.002815,0.002235,0.003296,0.002164,  47.164
   631.0,0.002809,0.002237,0.003263,0.002151,  47.164
   631.2,0.002811,0.002234,0.003284,0.002138,  47.160
   631.4,0.002809,0.002236,0.003376,0.002138,  47.163
   631.6,0.002809,0.002239,0.003423,0.002151,  47.160
   631.8,0.002805,0.002231,0.003470,0.002164,  47.159
   632.0,0.002805,0.002233,0.003524,0.002164,  47.155
   632.2,0.002805,0.002237,0.003518,0.002164,  47.159
   632.4,0.002805,0.002237,0.003479,0.002151,  47.160
   632.6,0.002802,0.002237,0.003417,0.002151,  47.157
   632.8,0.002803,0.002248,0.003410,0.002164,  47.158
   633.0,0.002810,0.002244,0.003399,0.002151,  47.156
   633.2,0.002807,0.002244,0.003411,0.002151,  47.159
   633.4,0.002804,0.002236,0.003391,0.002164,  47.156
   633.6,0.002798,0.002232,0.003359,0.002164,  47.155
   633.8,0.002798,0.002232,0.003319,0.002164,  47.157
   634.0,0.002804,0.002236,0.003314,0.002164,  47.157
   634.2,0.002795,0.002233,0.003332,0.002164,  47.159
   634.4,0.002795,0.002233,0.003352,0.002164,  47.156
   634.6,0.002802,0.002238,0.003366,0.002178,  47.159
   634.8,0.002795,0.002238,0.003387,0.002178,  47.156
   635.0,0.002798,0.002240,0.003413,0.002178,  47.158
   635.2,0.002810,0.002238,0.003433,0.002191,  47.159
   635.4,0.002806,0.002238,0.003434,0.002178,  47.159
   635.6,0.002809,0.002242,0.003441,0.002178,  47.161
   635.8,0.002812,0.002246,0.003474,0.002191,  47.156
   636.0,0.002809,0.002245,0.003508,0.002178,  47.158
   636.2,0.002809,0.002244,0.003555,0.002191,  47.158
   636.4,0.002815,0.002251,0.003583,0.002191,  47.156
   636.6,0.002811,0.002251,0.003616,0.002191,  47.159
   636.8,0.002811,0.002246,0.003648,0.002191,  47.156
   637.0,0.002811,0.002251,0.003641,0.002168,  47.156
   637.2,0.002814,0.002247,0.003615,0.002155,  47.155
   637.4,0.002814,0.002240,0.003568,0.002155,  47.156
   637.6,0.002811,0.002248,0.003556,0.002155,  47.158
   637.8,0.002814,0.002248,0.003556,0.002155,  47.154
   638.0,0.002820,0.002246,0.003574,0.002168,  47.156
   638.2,0.002814,0.002243,0.003594,0.002181,  47.154
   638.4,0.002820,0.002244,0.003587,0.002145,  47.155
   638.6,0.002816,0.002242,0.003567,0.002168,  47.153
   638.8,0.002823,0.002244,0.003546,0.002181,  47.151
   639.0,0.002820,0.002243,0.003474,0.002145,  47.152
   639.2,0.002816,0.002241,0.003381,0.002168,  47.152
   639.4,0.002816,0.002244,0.003267,0.002181,  47.153
   639.6,0.002823,0.002249,0.003137,0.002145,  47.153
   639.8,0.002822,0.002248,0.002998,0.002168,  47.151
   640.0,0.002822,0.002245,0.002834,0.002181,  47.155
   640.2,0.002828,0.002250,0.002853,0.002145,  47.156
   640.4,0.002824,0.002250,0.002953,0.002168,  47.154
   640.6,0.002824,0.002250,0.003130,0.002181,  47.156
   640.8,0.002828,0.002253,0.003196,0.002145,  47.155
   641.0,0.002819,0.002253,0.003242,0.002168,  47.151
   641.2,0.002819,0.002254,0.003257,0.002181,  47.150
   641.4,0.002823,0.002256,0.003298,0.002132,  47.153
   641.6,0.002816,0.002256,0.003337,0.002155,  47.153
   641.8,0.002816,0.002254,0.003370,0.002168,  47.151
   642.0,0.002816,0.002248,0.003411,0.002132,  47.152
   642.2,0.002819,0.002244,0.003464,0.002168,  47.154
   642.4,0.002819,0.002248,0.003523,0.002168,  47.151
   642.6,0.002816,0.002254,0.003524,0.002132,  47.156
   642.8,0.002822,0.002252,0.003504,0.002141,  47.155
   643.0,0.002822,0.002251,0.003469,0.002155,  47.158
   643.2,0.002822,0.002251,0.003462,0.002132,  47.159
   643.4,0.002824,0.002253,0.003462,0.002168,  47.162
   643.6,0.002827,0.002253,0.003474,0.002181,  47.162
   643.8,0.002824,0.002259,0.003507,0.002145,  47.163
   644.0,0.002824,0.002257,0.003549,0.002168,  47.155
   644.2,0.002827,0.002257,0.003622,0.002181,  47.160
   644.4,0.002833,0.002257,0.003649,0.002145,  47.161
   644.6,0.002830,0.002260,0.003657,0.002181,  47.155
   644.8,0.002830,0.002262,0.003663,0.002195,  47.159
   645.0,0.002839,0.002264,0.003677,0.002145,  47.160
   645.2,0.002835,0.002266,0.003689,0.002181,  47.160
   645.4,0.002835,0.002264,0.003694,0.002181,  47.162
   645.6,0.002841,0.002264,0.003683,0.002158,  47.162
   645.8,0.002838,0.002271,0.003668,0.002181,  47.163
   646.0,0.002838,0.002271,0.003648,0.002181,  47.163
   646.2,0.002844,0.002268,0.003654,0.002195,  47.162
   646.4,0.002844,0.002272,0.003662,0.002195,  47.161
   646.6,0.002840,0.002267,0.003700,0.002208,  47.161
   646.8,0.002840,0.002266,0.003727,0.002208,  47.164
   647.0,0.002846,0.002268,0.003721,0.002172,  47.166
   647.2,0.002843,0.002268,0.003703,0.002195,  47.166
   647.4,0.002843,0.002266,0.003676,0.002208,  47.169
   647.6,0.002840,0.002270,0.003380,0.002172,  47.169
   647.8,0.002843,0.002272,0.002952,0.002208,  47.171
   648.0,0.002843,0.002275,0.002398,0.002208,  47.172
   648.2,0.002843,0.002275,0.002261,0.002172,  47.167
   648.4,0.002845,0.002272,0.002262,0.002208,  47.170
   648.6,0.002845,0.002270,0.002425,0.002208,  47.169
   648.8,0.002845,0.002275,0.002545,0.002172,  47.172
   649.0,0.002848,0.002277,0.002723,0.002208,  47.172
   649.2,0.002848,0.002275,0.002958,0.002208,  47.174
   649.4,0.002852,0.002275,0.003070,0.002172,  47.170
   649.6,0.002843,0.002277,0.003148,0.002195,  47.171
   649.8,0.002843,0.002274,0.003187,0.002208,  47.179
   650.0,0.002849,0.002271,0.003267,0.002172,  47.178
   650.2,0.002840,0.002269,0.003352,0.002208,  47.174
   650.4,0.002840,0.002269,0.003445,0.002208,  47.177
   650.6,0.002846,0.002263,0.003465,0.002172,  47.178
   650.8,0.002843,0.002258,0.003453,0.002208,  47.178
   651.0,0.002849,0.002264,0.003412,0.002208,  47.178
   651.2,0.002853,0.002267,0.003412,0.002172,  47.176
   651.4,0.002849,0.002264,0.003412,0.002208,  47.182
   651.6,0.002846,0.002266,0.003412,0.002208,  47.178
   651.8,0.002844,0.002269,0.003446,0.002172,  47.180
   652.0,0.002840,0.002271,0.003487,0.002208,  47.182
   652.2,0.002840,0.002262,0.003547,0.002221,  47.185
   652.4,0.002846,0.002268,0.003574,0.002185,  47.185
   652.6,0.002843,0.002264,0.003593,0.002221,  47.187
   652.8,0.002849,0.002262,0.003600,0.002221,  47.186
   653.0,0.002853,0.002264,0.003600,0.002185,  47.188
   653.2,0.002849,0.002270,0.003592,0.002208,  47.189
   653.4,0.002853,0.002274,0.003565,0.002195,  47.191
   653.6,0.002850,0.002276,0.003572,0.002158,  47.192
   653.8,0.002846,0.002270,0.003585,0.002208,  47.189
   654.0,0.002853,0.002268,0.003606,0.002208,  47.190
   654.2,0.002853,0.002270,0.003494,0.002185,  47.192
   654.4,0.002852,0.002271,0.003321,0.002208,  47.195
   654.6,0.002858,0.002266,0.003083,0.002221,  47.192
   654.8,0.002858,0.002271,0.003057,0.002221,  47.193
   655.0,0.002858,0.002276,0.003108,0.002234,  47.192
   655.2,0.002852,0.002276,0.003220,0.002221,  47.188
   655.4,0.002861,0.002275,0.003411,0.002221,  47.193
   655.6,0.002858,0.002277,0.003460,0.002185,  47.192
   655.8,0.002861,0.002277,0.003506,0.002221,  47.194
   656.0,0.002863,0.002279,0.003532,0.002221,  47.197
   656.2,0.002863,0.002286,0.003546,0.002185,  47.195
   656.4,0.002857,0.002281,0.003547,0.002221,  47.195
   656.6,0.002863,0.002277,0.003539,0.002221,  47.196
   656.8,0.002867,0.002279,0.003513,0.002185,  47.197
   657.0,0.002861,0.002276,0.003480,0.002221,  47.199
   657.2,0.002863,0.002277,0.003433,0.002221,  47.194
   657.4,0.002869,0.002281,0.003447,0.002198,  47.198
   657.6,0.002863,0.002283,0.003473,0.002234,  47.202
   657.8,0.002863,0.002281,0.003521,0.002234,  47.201
   658.0,0.002869,0.002282,0.003542,0.002198,  47.196
   658.2,0.002863,0.002280,0.003561,0.002221,  47.199
   658.4,0.002861,0.002283,0.003568,0.002221,  47.198
   658.6,0.002864,0.002285,0.003541,0.002185,  47.200
   658.8,0.002858,0.002281,0.003494,0.002221,  47.204
   659.0,0.002858,0.002282,0.003432,0.002221,  47.203
   659.2,0.002858,0.002283,0.003392,0.002198,  47.205
   659.4,0.002852,0.002282,0.003340,0.002234,  47.203
   659.6,0.002861,0.002279,0.003305,0.002198,  47.201
   659.8,0.002863,0.002280,0.003311,0.002212,  47.200
   660.0,0.002857,0.002279,0.003326,0.002198,  47.198
   660.2,0.002866,0.002282,0.003360,0.002162,  47.200
   660.4,0.002866,0.002289,0.003366,0.002212,  47.198
   660.6,0.002862,0.002296,0.003366,0.002198,  47.204
   660.8,0.002869,0.002297,0.003347,0.002162,  47.205
   661.0,0.002875,0.002302,0.003354,0.002212,  47.203
   661.2,0.002871,0.002296,0.003362,0.002212,  47.201
   661.4,0.002871,0.002295,0.003380,0.002175,  47.203
   661.6,0.002877,0.002295,0.003407,0.002212,  47.206
   661.8,0.002874,0.002293,0.003435,0.002212,  47.202
   662.0,0.002874,0.002293,0.003474,0.002212,  47.204
   662.2,0.002880,0.002291,0.003481,0.002175,  47.202
   662.4,0.002876,0.002289,0.003473,0.002189,  47.202
   662.6,0.002874,0.002289,0.003447,0.002212,  47.199
   662.8,0.002880,0.002287,0.003460,0.002189,  47.204
   663.0,0.002880,0.002290,0.003469,0.002225,  47.203
   663.2,0.002876,0.002283,0.003513,0.002212,  47.205
   663.4,0.002885,0.002288,0.003541,0.002175,  47.205
   663.6,0.002885,0.002294,0.003581,0.002212,  47.206
   663.8,0.002885,0.002292,0.003626,0.002198,  47.204
   664.0,0.002885,0.002292,0.003660,0.002162,  47.204
   664.2,0.002885,0.002299,0.003646,0.002212,  47.202
   664.4,0.002879,0.002297,0.003595,0.002198,  47.205
   664.6,0.002879,0.002296,0.003522,0.002162,  47.203
   664.8,0.002885,0.002297,0.003338,0.002225,  47.201
   665.0,0.002879,0.002297,0.003081,0.002225,  47.204
   665.2,0.002879,0.002297,0.002752,0.002189,  47.198
   665.4,0.002885,0.002294,0.002748,0.002238,  47.201
   665.6,0.002879,0.002292,0.002885,0.002225,  47.202
   665.8,0.002879,0.002297,0.003150,0.002189,  47.198
   666.0,0.002883,0.002297,0.003224,0.002238,  47.196
   666.2,0.002879,0.002297,0.003283,0.002225,  47.194
   666.4,0.002874,0.002294,0.003315,0.002189,  47.194
   666.6,0.002875,0.002298,0.003363,0.002238,  47.194
   666.8,0.002869,0.002295,0.003409,0.002225,  47.195
   667.0,0.002866,0.002293,0.003442,0.002189,  47.194
   667.2,0.002867,0.002290,0.003455,0.002225,  47.191
   667.4,0.002861,0.002290,0.003448,0.002212,  47.189
   667.6,0.002863,0.002290,0.003421,0.002175,  47.190
   667.8,0.002867,0.002290,0.003415,0.002212,  47.187
   668.0,0.002863,0.002285,0.003402,0.002212,  47.189
   668.2,0.002866,0.002292,0.003389,0.002175,  47.186
   668.4,0.002875,0.002295,0.003402,0.002225,  47.188
   668.6,0.002877,0.002300,0.003429,0.002225,  47.187
   668.8,0.002875,0.002293,0.003462,0.002189,  47.187
   669.0,0.002887,0.002297,0.003449,0.002238,  47.185
   669.2,0.002884,0.002296,0.003421,0.002225,  47.186
   669.4,0.002884,0.002301,0.003367,0.002189,  47.188
   669.6,0.002884,0.002295,0.003383,0.002238,  47.184
   669.8,0.002880,0.002298,0.003435,0.002225,  47.188
   670.0,0.002886,0.002299,0.003515,0.002202,  47.183
   670.2,0.002886,0.002299,0.003536,0.002238,  47.173
   670.4,0.002883,0.002304,0.003530,0.002238,  47.179
   670.6,0.002886,0.002304,0.003511,0.002238,  47.174
   670.8,0.002886,0.002303,0.003518,0.002215,  47.173
   671.0,0.002883,0.002297,0.003524,0.002215,  47.173
   671.2,0.002886,0.002297,0.003531,0.002238,  47.174
   671.4,0.002886,0.002295,0.003524,0.002215,  47.171
   671.6,0.002883,0.002300,0.003504,0.002252,  47.171
   671.8,0.002886,0.002299,0.003470,0.002238,  47.169
   672.0,0.002886,0.002301,0.003369,0.002215,  47.170
   672.2,0.002886,0.002305,0.003224,0.002238,  47.168
   672.4,0.002889,0.002304,0.003044,0.002238,  47.169
   672.6,0.002889,0.002308,0.002814,0.002215,  47.163
   672.8,0.002889,0.002313,0.002841,0.002238,  47.165
   673.0,0.002889,0.002312,0.002940,0.002238,  47.166
   673.2,0.002893,0.002308,0.003113,0.002215,  47.164
   673.4,0.002893,0.002308,0.003186,0.002238,  47.166
   673.6,0.002895,0.002303,0.003252,0.002238,  47.166
   673.8,0.002889,0.002306,0.003305,0.002215,  47.162
   674.0,0.002898,0.002306,0.003345,0.002252,  47.160
   674.2,0.002898,0.002304,0.003372,0.002252,  47.157
   674.4,0.002892,0.002308,0.003397,0.002229,  47.159
   674.6,0.002898,0.002312,0.003418,0.002265,  47.157
   674.8,0.002894,0.002308,0.003437,0.002265,  47.154
   675.0,0.002894,0.002315,0.003456,0.002242,  47.155
   675.2,0.002894,0.002313,0.003450,0.002265,  47.155
   675.4,0.002888,0.002307,0.003435,0.002252,  47.152
   675.6,0.002892,0.002307,0.003401,0.002229,  47.154
   675.8,0.002886,0.002305,0.003416,0.002252,  47.153
   676.0,0.002880,0.002300,0.003437,0.002238,  47.149
   676.2,0.002886,0.002300,0.003484,0.002202,  47.149
   676.4,0.002889,0.002303,0.003411,0.002225,  47.147
   676.6,0.002885,0.002300,0.003280,0.002212,  47.148
   676.8,0.002892,0.002300,0.003095,0.002189,  47.145
   677.0,0.002892,0.002307,0.003095,0.002225,  47.149
   677.2,0.002895,0.002306,0.003161,0.002238,  47.147
   677.4,0.002902,0.002315,0.003292,0.002215,  47.147
   677.6,0.002911,0.002308,0.003306,0.002238,  47.148
   677.8,0.002907,0.002312,0.003292,0.002238,  47.148
   678.0,0.002912,0.002314,0.003257,0.002215,  47.148
   678.2,0.002911,0.002316,0.003291,0.002252,  47.145
   678.4,0.002910,0.002316,0.003351,0.002252,  47.146
   678.6,0.002907,0.002311,0.003437,0.002229,  47.137
   678.8,0.002916,0.002316,0.003452,0.002265,  47.143
   679.0,0.002918,0.002318,0.003445,0.002252,  47.141
   679.2,0.002917,0.002316,0.003418,0.002229,  47.142
   679.4,0.002915,0.002320,0.003431,0.002265,  47.137
   679.6,0.002917,0.002320,0.003445,0.002265,  47.139
   679.8,0.002914,0.002317,0.003464,0.002278,  47.137
   680.0,0.002914,0.002320,0.003470,0.002242,  47.139
   680.2,0.002910,0.002320,0.003470,0.002242,  47.140
   680.4,0.002913,0.002316,0.003456,0.002265,  47.137
   680.6,0.002913,0.002323,0.003462,0.002215,  47.139
   680.8,0.002919,0.002325,0.003475,0.002252,  47.135
   681.0,0.002922,0.002323,0.003494,0.002252,  47.138
   681.2,0.002922,0.002326,0.003519,0.002229,  47.136
   681.4,0.002919,0.002331,0.003354,0.002265,  47.135
   681.6,0.002922,0.002328,0.003092,0.002265,  47.137
   681.8,0.002913,0.002323,0.002758,0.002242,  47.139
   682.0,0.002916,0.002323,0.002444,0.002278,  47.144
   682.2,0.002919,0.002325,0.002104,0.002278,  47.138
   682.4,0.002910,0.002329,0.001730,0.002255,  47.132
   682.6,0.002916,0.002334,0.001803,0.002291,  47.133
   682.8,0.002919,0.002332,0.002090,0.002278,  47.128
   683.0,0.002913,0.002332,0.002576,0.002255,  47.127
   683.2,0.002919,0.002329,0.002766,0.002255,  47.126
   683.4,0.002915,0.002328,0.002904,0.002255,  47.108
   683.6,0.002913,0.002330,0.002988,0.002219,  47.107
   683.8,0.002910,0.002334,0.003075,0.002255,  47.110
   684.0,0.002906,0.002330,0.003140,0.002278,  47.109
   684.2,0.002910,0.002330,0.003186,0.002255,  47.108
   684.4,0.002910,0.002330,0.003259,0.002255,  47.109
   684.6,0.002906,0.002328,0.003339,0.002255,  47.109
   684.8,0.002913,0.002325,0.003430,0.002219,  47.109
   685.0,0.002915,0.002330,0.003457,0.002219,  47.105
   685.2,0.002912,0.002332,0.003462,0.002242,  47.105
   685.4,0.002921,0.002327,0.003448,0.002232,  47.104
   685.6,0.002921,0.002334,0.003356,0.002232,  47.107
   685.8,0.002917,0.002333,0.003211,0.002269,  47.107
   686.0,0.002926,0.002328,0.003020,0.002246,  47.109
   686.2,0.002923,0.002325,0.003048,0.002246,  47.106
   686.4,0.002921,0.002322,0.003180,0.002269,  47.110
   686.6,0.002924,0.002322,0.003385,0.002219,  47.108
   686.8,0.002934,0.002324,0.003427,0.002255,  47.110
   687.0,0.002934,0.002331,0.003438,0.002291,  47.108
   687.2,0.002930,0.002331,0.003410,0.002242,  47.109
   687.4,0.002933,0.002336,0.003417,0.002278,  47.110
   687.6,0.002938,0.002336,0.003410,0.002291,  47.113
   687.8,0.002941,0.002335,0.003403,0.002255,  47.111
   688.0,0.002941,0.002341,0.003418,0.002278,  47.109
   688.2,0.002944,0.002341,0.003445,0.002265,  47.110
   688.4,0.002944,0.002340,0.003491,0.002265,  47.109
   688.6,0.002944,0.002342,0.003531,0.002229,  47.106
   688.8,0.002946,0.002342,0.003573,0.002242,  47.111
   689.0,0.002940,0.002340,0.003631,0.002278,  47.112
   689.2,0.002940,0.002341,0.003631,0.002242,  47.110
   689.4,0.002943,0.002346,0.003605,0.002278,  47.116
   689.6,0.002934,0.002346,0.003564,0.002278,  47.116
   689.8,0.002940,0.002352,0.003545,0.002255,  47.113
   690.0,0.002940,0.002350,0.003532,0.002291,  47.115
   690.2,0.002940,0.002348,0.003532,0.002278,  47.118
   690.4,0.002943,0.002353,0.003539,0.002269,  47.120
   690.6,0.002943,0.002352,0.003354,0.002305,  47.124
   690.8,0.002943,0.002347,0.003104,0.002305,  47.122
   691.0,0.002943,0.002345,0.002787,0.002282,  47.118
   691.2,0.002940,0.002342,0.002774,0.002318,  47.117
   691.4,0.002943,0.002337,0.002892,0.002305,  47.118
   691.6,0.002934,0.002337,0.003123,0.002269,  47.117
   691.8,0.002940,0.002334,0.003208,0.002305,  47.119
   692.0,0.002940,0.002332,0.003269,0.002305,  47.123
   692.2,0.002928,0.002329,0.003328,0.002255,  47.120
   692.4,0.002929,0.002334,0.003388,0.002278,  47.123
   692.6,0.002929,0.002336,0.003423,0.002265,  47.121
   692.8,0.002923,0.002334,0.003468,0.002242,  47.125
   693.0,0.002929,0.002337,0.003489,0.002242,  47.125
