Run Name,R+L .27
Run Date,02:07:56 PM   02-29-16
Method Name,27% isocratic
Export Format Version, 1.00
Method ID, 3015
Points/Second, 1.00
Number of Records,   1547
Offset from Run Start Time,00:00:00
Run End Time,00:25:47
Time,Second
QuadTec 1, (280.0 nm), AU
QuadTec 2, (260.0 nm), AU
Gradient Pump,<Not Selected>
QuadTec 3, (214.0 nm), AU
QuadTec 4, (405.0 nm), AU
Conductivity,mS/cm
Trace 6,<Not Available>
GP Pressure,<Not Selected>
Volume,<Not Selected>
Fraction,<Not Available>
Time,QuadTec 1,QuadTec 2,QuadTec 3,QuadTec 4,Conductivity
     0.0,-0.001618,-0.000884,0.006698,-0.000053,  88.688
     1.0,-0.001626,-0.000887,0.006787,-0.000028,  88.692
     2.0,0.000000,0.000000,0.000000,-0.000017,  88.646
     3.0,0.000000,0.000000,0.000000,0.000000,  88.492
     4.0,0.000000,0.000000,0.000000,0.000000,  88.370
     5.0,-0.000016,-0.000039,0.000039,0.000000,  88.238
     6.0,-0.000027,-0.000074,-0.000175,0.000000,  88.057
     7.0,-0.000043,-0.000074,-0.000339,-0.000050,  87.918
     8.0,-0.000055,-0.000079,-0.000551,-0.000053,  87.776
     9.0,-0.000055,-0.000079,-0.000724,-0.000053,  87.636
    10.0,-0.000052,-0.000065,-0.000927,-0.000039,  87.620
    11.0,-0.000052,-0.000055,-0.000975,-0.000039,  87.638
    12.0,-0.000023,-0.000029,-0.001090,-0.000064,  87.671
    13.0,0.000003,-0.000015,-0.001197,-0.000061,  87.707
    14.0,-0.000001,-0.000018,-0.001178,-0.000061,  87.769
    15.0,0.000038,0.000008,-0.001216,-0.000033,  87.891
    16.0,0.000025,0.000003,-0.001158,-0.000022,  87.983
    17.0,0.000032,-0.000002,-0.001177,-0.000047,  88.078
    18.0,0.000050,0.000004,-0.001313,-0.000008,  88.178
    19.0,0.000050,0.000034,-0.001381,-0.000008,  88.312
    20.0,0.000087,0.000076,-0.001042,0.000020,  88.403
    21.0,0.000101,0.000091,-0.001333,0.000045,  88.464
    22.0,0.000083,0.000063,-0.001342,-0.000002,  88.499
    23.0,0.000081,0.000053,-0.001506,0.000023,  88.528
    24.0,0.000039,0.000029,-0.001419,-0.000005,  88.537
    25.0,0.000027,0.000030,-0.001293,-0.000019,  88.536
    26.0,0.000022,0.000031,-0.001332,-0.000019,  88.530
    27.0,0.000031,0.000011,-0.003478,-0.000033,  88.517
    28.0,0.000038,0.000033,-0.001997,-0.000019,  88.489
    29.0,0.000058,0.000052,-0.001718,0.000020,  88.468
    30.0,0.000058,0.000047,-0.001389,0.000017,  88.434
    31.0,0.000065,0.000059,-0.001351,-0.000008,  88.388
    32.0,0.000070,0.000073,-0.001312,0.000017,  88.367
    33.0,0.000077,0.000084,-0.001322,-0.000019,  88.326
    34.0,0.000081,0.000081,-0.001312,0.000048,  88.315
    35.0,0.000077,0.000076,-0.001244,0.000020,  88.298
    36.0,0.000082,0.000082,-0.001370,0.000034,  88.288
    37.0,0.000065,0.000069,-0.001302,0.000073,  88.276
    38.0,0.000072,0.000070,-0.001389,0.000070,  88.269
    39.0,0.000099,0.000084,-0.001360,0.000020,  88.277
    40.0,0.000095,0.000093,-0.001360,0.000020,  88.286
    41.0,0.000099,0.000095,-0.001303,-0.000019,  88.285
    42.0,0.000099,0.000102,-0.001168,0.000062,  88.283
    43.0,0.000092,0.000077,-0.001274,-0.000002,  88.265
    44.0,0.000112,0.000072,-0.001574,-0.000005,  88.257
    45.0,0.000100,0.000085,-0.001351,0.000048,  88.237
    46.0,0.000098,0.000073,-0.001351,0.000034,  88.217
    47.0,0.000096,0.000083,-0.001399,0.000037,  88.219
    48.0,0.000084,0.000090,-0.002344,0.000037,  88.216
    49.0,0.000105,0.000083,-0.002142,0.000023,  88.204
    50.0,0.000095,0.000100,-0.001669,0.000023,  88.163
    51.0,0.000088,0.000098,-0.001534,0.000048,  88.084
    52.0,0.000101,0.000099,-0.001766,0.000009,  88.052
    53.0,0.000098,0.000098,-0.001814,0.000048,  88.024
    54.0,0.000086,0.000097,-0.001514,0.000087,  88.006
    55.0,0.000081,0.000083,-0.001553,0.000136,  87.996
    56.0,0.000086,0.000092,-0.001543,0.000098,  87.988
    57.0,0.000101,0.000111,-0.001688,0.000073,  87.956
    58.0,0.000109,0.000126,-0.001592,0.000101,  87.908
    59.0,0.000112,0.000113,-0.001428,0.000076,  87.828
    60.0,0.000132,0.000134,-0.001400,0.000062,  87.703
    61.0,0.000156,0.000153,-0.001207,0.000062,  87.607
    62.0,0.000178,0.000200,-0.000715,0.000073,  87.475
    63.0,0.000223,0.000258,-0.000300,0.000125,  87.288
    64.0,0.000267,0.000310,0.000221,0.000125,  87.165
    65.0,0.000323,0.000376,0.000763,0.000090,  86.995
    66.0,0.000389,0.000490,0.001265,0.000101,  86.779
    67.0,0.000481,0.000584,0.001943,0.000167,  86.506
    68.0,0.000596,0.000699,0.003129,0.000159,  86.148
    69.0,0.000723,0.000822,0.003808,0.000240,  85.758
    70.0,0.000871,0.001002,0.005038,0.000321,  85.295
    71.0,0.000961,0.001141,0.006114,0.000288,  84.805
    72.0,0.001103,0.001313,0.007371,0.000316,  84.185
    73.0,0.001217,0.001473,0.008383,0.000466,  83.479
    74.0,0.001326,0.001657,0.009231,0.000469,  82.704
    75.0,0.001528,0.001841,0.009928,0.000592,  81.816
    76.0,0.001665,0.001992,0.010841,0.000732,  80.923
    77.0,0.001660,0.002034,0.011535,0.000799,  79.945
    78.0,0.001847,0.002206,0.010482,0.000844,  78.850
    79.0,0.001927,0.002322,0.010677,0.000861,  77.734
    80.0,0.001959,0.002292,0.010835,0.000969,  76.467
    81.0,0.002004,0.002353,0.012194,0.001022,  75.170
    82.0,0.001985,0.002359,0.012244,0.000969,  73.824
    83.0,0.001983,0.002360,0.012586,0.000944,  72.453
    84.0,0.002040,0.002380,0.012636,0.000997,  71.091
    85.0,0.001954,0.002311,0.012288,0.001011,  69.725
    86.0,0.001941,0.002257,0.012002,0.001008,  68.354
    87.0,0.001916,0.002247,0.011765,0.000958,  66.984
    88.0,0.001868,0.002183,0.011298,0.000983,  65.607
    89.0,0.001799,0.002059,0.010493,0.000983,  64.293
    90.0,0.001747,0.002047,0.010059,0.000899,  63.028
    91.0,0.001738,0.002033,0.009475,0.000938,  61.757
    92.0,0.001698,0.001950,0.009012,0.000910,  60.545
    93.0,0.001627,0.001876,0.008729,0.000830,  59.387
    94.0,0.001634,0.001835,0.008108,0.000854,  58.256
    95.0,0.001606,0.001788,0.007675,0.000805,  57.142
    96.0,0.001572,0.001746,0.006996,0.000788,  56.104
    97.0,0.001496,0.001666,0.006338,0.000854,  55.056
    98.0,0.001437,0.001631,0.005997,0.000862,  54.076
    99.0,0.001470,0.001605,0.005488,0.000795,  53.138
   100.0,0.001438,0.001573,0.005019,0.000785,  52.207
   101.0,0.001357,0.001531,0.004717,0.000743,  51.315
   102.0,0.001395,0.001529,0.004160,0.000754,  50.452
   103.0,0.001370,0.001478,0.003888,0.000718,  49.592
   104.0,0.001335,0.001417,0.003509,0.000732,  48.784
   105.0,0.001302,0.001391,0.002905,0.000743,  48.029
   106.0,0.001267,0.001367,0.002507,0.000729,  47.288
   107.0,0.001260,0.001338,0.001816,0.000676,  46.602
   108.0,0.001256,0.001330,0.001692,0.000676,  45.957
   109.0,0.001234,0.001291,0.001266,0.000715,  45.345
   110.0,0.001217,0.001260,0.001141,0.000687,  44.791
   111.0,0.001188,0.001273,0.000783,0.000726,  44.269
   112.0,0.001179,0.001250,0.000212,0.000687,  43.743
   113.0,0.001146,0.001188,-0.000193,0.000687,  43.241
   114.0,0.001151,0.001179,-0.000589,0.000687,  42.766
   115.0,0.001154,0.001178,-0.000927,0.000673,  42.295
   116.0,0.001159,0.001175,-0.001052,0.000673,  41.860
   117.0,0.001159,0.001148,-0.001640,0.000659,  41.444
   118.0,0.001162,0.001137,-0.001929,0.000659,  41.045
   119.0,0.001140,0.001149,-0.002082,0.000634,  40.673
   120.0,0.001152,0.001148,-0.002361,0.000634,  40.292
   121.0,0.001126,0.001111,-0.002611,0.000609,  39.914
   122.0,0.001108,0.001110,-0.002821,0.000609,  39.579
   123.0,0.001114,0.001107,-0.003051,0.000648,  39.249
   124.0,0.001115,0.001096,-0.003243,0.000673,  38.932
   125.0,0.001107,0.001071,-0.003473,0.000687,  38.630
   126.0,0.001104,0.001068,-0.003790,0.000698,  38.354
   127.0,0.001088,0.001061,-0.004221,0.000609,  38.081
   128.0,0.001094,0.001057,-0.004373,0.000712,  37.817
   129.0,0.001098,0.001030,-0.004392,0.000698,  37.553
   130.0,0.001093,0.001055,-0.004545,0.000698,  37.296
   131.0,0.001077,0.001057,-0.004669,0.000698,  37.040
   132.0,0.001078,0.001055,-0.004879,0.000659,  36.783
   133.0,0.001067,0.001032,-0.005041,0.000645,  36.538
   134.0,0.001045,0.000992,-0.005175,0.000645,  36.318
   135.0,0.001023,0.000991,-0.005814,0.000620,  36.115
   136.0,0.001015,0.000980,-0.006157,0.000620,  35.932
   137.0,0.001009,0.000946,-0.006290,0.000620,  35.748
   138.0,0.001012,0.000954,-0.006394,0.000581,  35.592
   139.0,0.001007,0.000962,-0.006661,0.000684,  35.428
   140.0,0.001016,0.000952,-0.006794,0.000695,  35.288
   141.0,0.001016,0.000966,-0.007117,0.000631,  35.152
   142.0,0.000995,0.000965,-0.007126,0.000631,  35.022
   143.0,0.000981,0.000955,-0.007221,0.000631,  34.906
   144.0,0.000983,0.000945,-0.007449,0.000631,  34.795
   145.0,0.000982,0.000942,-0.007430,0.000656,  34.676
   146.0,0.000989,0.000938,-0.007686,0.000670,  34.566
   147.0,0.001004,0.000942,-0.007933,0.000642,  34.461
   148.0,0.001000,0.000948,-0.007857,0.000656,  34.359
   149.0,0.001020,0.000940,-0.007762,0.000606,  34.267
   150.0,0.001034,0.000980,-0.007772,0.000645,  34.172
   151.0,0.001047,0.000972,-0.007810,0.000631,  34.062
   152.0,0.001044,0.000984,-0.008018,0.000659,  33.958
   153.0,0.001032,0.000978,-0.007943,0.000606,  33.851
   154.0,0.001039,0.000958,-0.008236,0.000595,  33.744
   155.0,0.001022,0.000961,-0.007961,0.000645,  33.653
   156.0,0.001020,0.000957,-0.007924,0.000645,  33.565
   157.0,0.001012,0.000947,-0.008312,0.000659,  33.472
   158.0,0.000984,0.000935,-0.008426,0.000659,  33.372
   159.0,0.000982,0.000911,-0.008303,0.000645,  33.273
   160.0,0.000982,0.000908,-0.008331,0.000684,  33.163
   161.0,0.000979,0.000913,-0.008672,0.000670,  33.069
   162.0,0.000979,0.000908,-0.008719,0.000631,  32.972
   163.0,0.000967,0.000910,-0.008937,0.000684,  32.890
   164.0,0.000976,0.000912,-0.008804,0.000670,  32.836
   165.0,0.000978,0.000905,-0.008880,0.000670,  32.780
   166.0,0.000983,0.000922,-0.008937,0.000670,  32.711
   167.0,0.000980,0.000912,-0.009126,0.000670,  32.670
   168.0,0.000979,0.000912,-0.009192,0.000670,  32.647
   169.0,0.000980,0.000888,-0.009088,0.000659,  32.617
   170.0,0.000980,0.000884,-0.009249,0.000656,  32.595
   171.0,0.000976,0.000889,-0.009031,0.000617,  32.569
   172.0,0.000976,0.000885,-0.009306,0.000709,  32.563
   173.0,0.000967,0.000892,-0.009343,0.000670,  32.531
   174.0,0.000967,0.000898,-0.009532,0.000656,  32.479
   175.0,0.000955,0.000889,-0.009476,0.000681,  32.446
   176.0,0.000948,0.000892,-0.009409,0.000628,  32.426
   177.0,0.000952,0.000884,-0.009494,0.000656,  32.399
   178.0,0.000952,0.000901,-0.009655,0.000656,  32.370
   179.0,0.000949,0.000901,-0.009579,0.000606,  32.334
   180.0,0.000952,0.000890,-0.009561,0.000709,  32.309
   181.0,0.000956,0.000889,-0.009646,0.000698,  32.281
   182.0,0.000971,0.000892,-0.009636,0.000670,  32.264
   183.0,0.000968,0.000881,-0.009806,0.000695,  32.238
   184.0,0.000968,0.000894,-0.009683,0.000670,  32.230
   185.0,0.000968,0.000889,-0.009702,0.000656,  32.231
   186.0,0.000973,0.000880,-0.009589,0.000670,  32.228
   187.0,0.000966,0.000882,-0.009863,0.000670,  32.231
   188.0,0.000954,0.000877,-0.009910,0.000695,  32.242
   189.0,0.000950,0.000879,-0.009872,0.000670,  32.240
   190.0,0.000952,0.000881,-0.009872,0.000681,  32.231
   191.0,0.000977,0.000884,-0.009882,0.000719,  32.231
   192.0,0.000977,0.000898,-0.009891,0.000642,  32.230
   193.0,0.000973,0.000892,-0.009797,0.000656,  32.228
   194.0,0.000973,0.000888,-0.010033,0.000709,  32.216
   195.0,0.000980,0.000902,-0.009938,0.000670,  32.211
   196.0,0.000980,0.000899,-0.009900,0.000737,  32.206
   197.0,0.000973,0.000898,-0.009759,0.000670,  32.202
   198.0,0.000984,0.000908,-0.009806,0.000670,  32.189
   199.0,0.000993,0.000917,-0.009702,0.000684,  32.185
   200.0,0.000984,0.000911,-0.009787,0.000684,  32.180
   201.0,0.000984,0.000913,-0.010136,0.000684,  32.177
   202.0,0.000988,0.000914,-0.009834,0.000709,  32.170
   203.0,0.001004,0.000912,-0.009674,0.000747,  32.164
   204.0,0.001000,0.000908,-0.009976,0.000695,  32.170
   205.0,0.000988,0.000905,-0.009731,0.000723,  32.178
   206.0,0.000991,0.000914,-0.009778,0.000747,  32.183
   207.0,0.001011,0.000916,-0.009561,0.000733,  32.191
   208.0,0.000996,0.000923,-0.009523,0.000747,  32.204
   209.0,0.001000,0.000914,-0.009664,0.000695,  32.217
   210.0,0.000996,0.000918,-0.011237,0.000723,  32.244
   211.0,0.001000,0.000922,-0.011021,0.000670,  32.257
   212.0,0.001004,0.000930,-0.010042,0.000670,  32.260
   213.0,0.000996,0.000913,-0.009778,0.000747,  32.258
   214.0,0.000966,0.000907,-0.009636,0.000723,  32.252
   215.0,0.000995,0.000916,-0.009485,0.000709,  32.238
   216.0,0.000987,0.000906,-0.009532,0.000747,  32.231
   217.0,0.000982,0.000894,-0.009542,0.000709,  32.219
   218.0,0.000990,0.000903,-0.009428,0.000723,  32.213
   219.0,0.000987,0.000903,-0.009485,0.000723,  32.201
   220.0,0.000978,0.000907,-0.009457,0.000670,  32.188
   221.0,0.000983,0.000903,-0.009391,0.000684,  32.185
   222.0,0.000978,0.000904,-0.009494,0.000684,  32.184
   223.0,0.000990,0.000911,-0.009561,0.000670,  32.182
   224.0,0.000990,0.000905,-0.009391,0.000670,  32.190
   225.0,0.000982,0.000908,-0.009438,0.000670,  32.201
   226.0,0.000994,0.000915,-0.009428,0.000684,  32.211
   227.0,0.000999,0.000917,-0.009579,0.000670,  32.219
   228.0,0.000999,0.000921,-0.009428,0.000684,  32.229
   229.0,0.001004,0.000933,-0.009353,0.000670,  32.235
   230.0,0.000990,0.000925,-0.009627,0.000670,  32.246
   231.0,0.000999,0.000924,-0.009447,0.000698,  32.257
   232.0,0.000988,0.000925,-0.009579,0.000645,  32.266
   233.0,0.000991,0.000916,-0.009428,0.000684,  32.274
   234.0,0.000999,0.000923,-0.009343,0.000709,  32.284
   235.0,0.001004,0.000912,-0.009391,0.000747,  32.285
   236.0,0.001007,0.000919,-0.009353,0.000698,  32.293
   237.0,0.001004,0.000922,-0.009306,0.000698,  32.293
   238.0,0.001007,0.000922,-0.009287,0.000673,  32.295
   239.0,0.000991,0.000906,-0.009258,0.000648,  32.290
   240.0,0.000999,0.000914,-0.011011,0.000648,  32.292
   241.0,0.000999,0.000907,-0.009976,0.000698,  32.289
   242.0,0.001002,0.000914,-0.009589,0.000698,  32.283
   243.0,0.000988,0.000902,-0.009523,0.000698,  32.281
   244.0,0.000971,0.000893,-0.009617,0.000684,  32.273
   245.0,0.000980,0.000899,-0.011321,0.000719,  32.264
   246.0,0.000968,0.000899,-0.011002,0.000670,  32.267
   247.0,0.000965,0.000898,-0.010164,0.000684,  32.255
   248.0,0.000965,0.000877,-0.009900,0.000709,  32.246
   249.0,0.000949,0.000875,-0.010070,0.000670,  32.222
   250.0,0.000950,0.000872,-0.010014,0.000709,  32.212
   251.0,0.000954,0.000870,-0.010042,0.000670,  32.207
   252.0,0.000949,0.000873,-0.010061,0.000733,  32.197
   253.0,0.000954,0.000877,-0.010051,0.000747,  32.197
   254.0,0.000961,0.000889,-0.010004,0.000747,  32.190
   255.0,0.000957,0.000887,-0.010070,0.000695,  32.187
   256.0,0.000966,0.000893,-0.010117,0.000733,  32.179
   257.0,0.000958,0.000893,-0.010174,0.000645,  32.177
   258.0,0.000979,0.000891,-0.010061,0.000709,  32.177
   259.0,0.000974,0.000892,-0.010042,0.000698,  32.178
   260.0,0.000982,0.000895,-0.010136,0.000684,  32.176
   261.0,0.000989,0.000899,-0.010023,0.000673,  32.176
   262.0,0.001004,0.000907,-0.009910,0.000673,  32.165
   263.0,0.000983,0.000913,-0.009815,0.000709,  32.134
   264.0,0.000991,0.000925,-0.009768,0.000684,  32.083
   265.0,0.000987,0.000911,-0.009702,0.000698,  32.022
   266.0,0.000961,0.000895,-0.009778,0.000723,  31.977
   267.0,0.000955,0.000881,-0.009834,0.000723,  31.972
   268.0,0.000934,0.000878,-0.010127,0.000684,  31.962
   269.0,0.000932,0.000864,-0.010117,0.000695,  31.952
   270.0,0.000932,0.000854,-0.010183,0.000670,  31.948
   271.0,0.000940,0.000856,-0.010315,0.000642,  31.931
   272.0,0.000944,0.000861,-0.010447,0.000681,  31.923
   273.0,0.000939,0.000865,-0.010410,0.000642,  31.912
   274.0,0.000944,0.000867,-0.010457,0.000656,  31.915
   275.0,0.000947,0.000871,-0.010579,0.000617,  31.906
   276.0,0.000951,0.000872,-0.013914,0.000656,  31.890
   277.0,0.000935,0.000873,-0.011782,0.000670,  31.876
   278.0,0.000939,0.000885,-0.011078,0.000656,  31.868
   279.0,0.000943,0.000886,-0.010692,0.000681,  31.845
   280.0,0.000960,0.000866,-0.010598,0.000719,  31.824
   281.0,0.000975,0.000882,-0.010523,0.000670,  31.815
   282.0,0.000963,0.000879,-0.010334,0.000684,  31.805
   283.0,0.000964,0.000880,-0.010589,0.000656,  31.804
   284.0,0.000960,0.000900,-0.010720,0.000667,  31.807
   285.0,0.000955,0.000896,-0.010457,0.000667,  31.807
   286.0,0.000958,0.000889,-0.010476,0.000681,  31.826
   287.0,0.000951,0.000897,-0.010429,0.000656,  31.824
   288.0,0.000947,0.000898,-0.010447,0.000695,  31.813
   289.0,0.000951,0.000908,-0.010457,0.000628,  31.809
   290.0,0.000963,0.000892,-0.010692,0.000642,  31.807
   291.0,0.000960,0.000895,-0.010532,0.000719,  31.814
   292.0,0.000963,0.000896,-0.010523,0.000719,  31.816
   293.0,0.000971,0.000898,-0.010589,0.000709,  31.820
   294.0,0.000990,0.000925,-0.010542,0.000684,  31.830
   295.0,0.000982,0.000930,-0.010476,0.000670,  31.835
   296.0,0.000982,0.000919,-0.010363,0.000695,  31.842
   297.0,0.000972,0.000900,-0.010334,0.000670,  31.858
   298.0,0.000963,0.000913,-0.010419,0.000642,  31.862
   299.0,0.000974,0.000929,-0.010391,0.000695,  31.869
   300.0,0.000982,0.000930,-0.010476,0.000698,  31.879
   301.0,0.000986,0.000910,-0.010372,0.000656,  31.924
   302.0,0.000963,0.000924,-0.010381,0.000631,  31.923
   303.0,0.000967,0.000934,-0.009976,0.000670,  31.930
   304.0,0.000923,0.000908,-0.010023,0.000719,  31.933
   305.0,0.000902,0.000874,-0.009919,0.000614,  31.939
   306.0,0.000875,0.000849,-0.010240,0.000614,  31.923
   307.0,0.000880,0.000837,-0.010042,0.000600,  31.924
   308.0,0.000864,0.000842,-0.009919,0.000572,  31.920
   309.0,0.000869,0.000853,-0.009929,0.000558,  31.919
   310.0,0.000893,0.000853,-0.009976,0.000611,  31.916
   311.0,0.000889,0.000853,-0.009919,0.000597,  31.913
   312.0,0.000892,0.000849,-0.009853,0.000622,  31.909
   313.0,0.000890,0.000844,-0.009816,0.000597,  31.908
   314.0,0.000878,0.000828,-0.009872,0.000611,  31.897
   315.0,0.000881,0.000828,-0.009749,0.000597,  31.889
   316.0,0.000869,0.000821,-0.009816,0.000544,  31.887
   317.0,0.000857,0.000800,-0.009834,0.000544,  31.882
   318.0,0.000870,0.000813,-0.009891,0.000583,  31.872
   319.0,0.000859,0.000819,-0.009863,0.000558,  31.867
   320.0,0.000854,0.000807,-0.009948,0.000583,  31.865
   321.0,0.000875,0.000810,-0.009749,0.000583,  31.867
   322.0,0.000867,0.000817,-0.009816,0.000583,  31.848
   323.0,0.000862,0.000829,-0.009900,0.000597,  31.847
   324.0,0.000878,0.000819,-0.009844,0.000597,  31.844
   325.0,0.000869,0.000836,-0.009712,0.000597,  31.837
   326.0,0.000878,0.000819,-0.009787,0.000636,  31.835
   327.0,0.000881,0.000819,-0.009702,0.000636,  31.834
   328.0,0.000873,0.000822,-0.009683,0.000583,  31.829
   329.0,0.000874,0.000819,-0.009655,0.000558,  31.834
   330.0,0.000878,0.000811,-0.009806,0.000558,  31.833
   331.0,0.000865,0.000820,-0.009938,0.000597,  31.831
   332.0,0.000870,0.000829,-0.012175,0.000572,  31.828
   333.0,0.000879,0.000824,-0.010428,0.000558,  31.836
   334.0,0.000882,0.000827,-0.010240,0.000622,  31.835
   335.0,0.000874,0.000812,-0.009938,0.000611,  31.845
   336.0,0.000874,0.000797,-0.010032,0.000611,  31.849
   337.0,0.000870,0.000805,-0.009882,0.000597,  31.862
   338.0,0.000870,0.000820,-0.009919,0.000597,  31.872
   339.0,0.000873,0.000815,-0.009985,0.000622,  31.885
   340.0,0.000878,0.000819,-0.009834,0.000597,  31.898
   341.0,0.000869,0.000823,-0.009872,0.000583,  31.912
   342.0,0.000870,0.000809,-0.009834,0.000622,  31.929
   343.0,0.000843,0.000798,-0.009882,0.000622,  31.946
   344.0,0.000839,0.000778,-0.010004,0.000622,  31.949
   345.0,0.000843,0.000791,-0.009598,0.000583,  31.952
   346.0,0.000835,0.000792,-0.009759,0.000569,  31.949
   347.0,0.000831,0.000796,-0.009882,0.000583,  31.950
   348.0,0.000835,0.000801,-0.009919,0.000544,  31.942
   349.0,0.000835,0.000797,-0.009976,0.000544,  31.940
   350.0,0.000840,0.000796,-0.009825,0.000608,  31.934
   351.0,0.000835,0.000789,-0.010014,0.000583,  31.926
   352.0,0.000842,0.000788,-0.010117,0.000544,  31.917
   353.0,0.000842,0.000782,-0.010080,0.000533,  31.907
   354.0,0.000839,0.000783,-0.010146,0.000569,  31.898
   355.0,0.000831,0.000789,-0.010004,0.000636,  31.884
   356.0,0.000831,0.000808,-0.009957,0.000650,  31.871
   357.0,0.000842,0.000795,-0.010014,0.000583,  31.857
   358.0,0.000851,0.000794,-0.009985,0.000594,  31.851
   359.0,0.000854,0.000793,-0.010249,0.000583,  31.843
   360.0,0.000839,0.000806,-0.009957,0.000555,  31.838
   361.0,0.000000,0.000807,0.000000,0.000583,  31.830
   362.0,0.000000,0.000000,0.000000,0.000583,  31.829
   363.0,0.000000,0.000000,0.000000,0.000000,  31.833
   364.0,0.000000,0.000000,0.000000,0.000000,  31.834
   365.0,-0.000002,0.000001,-0.000245,0.000000,  31.838
   366.0,-0.000013,-0.000002,-0.000085,-0.000039,  31.847
   367.0,-0.000002,0.000004,-0.000038,-0.000064,  31.854
   368.0,-0.000007,0.000012,0.000151,-0.000050,  31.863
   369.0,-0.000007,0.000009,0.000028,-0.000011,  31.876
   370.0,-0.000008,-0.000005,0.000132,-0.000036,  31.890
   371.0,0.000020,0.000009,0.000293,-0.000036,  31.910
   372.0,0.000023,0.000019,0.000330,0.000003,  31.924
   373.0,0.000011,0.000015,0.000349,-0.000022,  31.940
   374.0,0.000015,0.000014,0.000340,0.000028,  31.955
   375.0,0.000015,0.000016,0.000028,0.000003,  31.967
   376.0,0.000008,0.000008,0.000227,-0.000022,  31.993
   377.0,0.000011,0.000001,0.000312,-0.000036,  32.006
   378.0,0.000008,0.000002,0.000444,-0.000022,  32.021
   379.0,-0.000005,-0.000006,0.000463,-0.000036,  32.041
   380.0,-0.000008,0.000004,0.000396,-0.000008,  32.046
   381.0,-0.000017,-0.000002,0.000444,-0.000047,  32.057
   382.0,-0.000001,-0.000014,0.000378,-0.000008,  32.066
   383.0,-0.000013,-0.000020,0.000368,-0.000008,  32.067
   384.0,-0.000009,-0.000032,0.000311,-0.000022,  32.067
   385.0,-0.000018,-0.000047,-0.000019,-0.000036,  32.068
   386.0,-0.000030,-0.000046,0.000160,-0.000036,  32.062
   387.0,-0.000042,-0.000066,0.000283,-0.000050,  32.061
   388.0,-0.000050,-0.000063,0.000283,-0.000025,  32.054
   389.0,-0.000067,-0.000058,0.000255,-0.000102,  32.052
   390.0,-0.000071,-0.000059,0.000104,-0.000050,  32.049
   391.0,-0.000063,-0.000058,0.000236,-0.000036,  32.050
   392.0,-0.000068,-0.000047,0.000236,-0.000022,  32.046
   393.0,-0.000064,-0.000040,0.000245,-0.000085,  32.040
   394.0,-0.000047,-0.000041,0.000387,-0.000061,  32.039
   395.0,-0.000030,-0.000030,0.000453,-0.000072,  32.038
   396.0,-0.000056,-0.000033,0.000500,-0.000036,  32.040
   397.0,-0.000048,-0.000035,0.000500,-0.000036,  32.043
   398.0,-0.000045,-0.000026,0.000491,-0.000050,  32.046
   399.0,-0.000043,-0.000035,0.000425,-0.000064,  32.041
   400.0,-0.000043,-0.000041,0.000415,-0.000050,  32.046
   401.0,-0.000048,-0.000042,0.000727,-0.000036,  32.048
   402.0,-0.000047,-0.000045,0.000595,-0.000036,  32.051
   403.0,-0.000032,-0.000059,0.000878,-0.000085,  32.060
   404.0,-0.000031,-0.000050,0.000945,-0.000075,  32.056
   405.0,-0.000029,-0.000039,0.001493,-0.000050,  32.058
   406.0,-0.000015,-0.000032,0.001730,-0.000050,  32.066
   407.0,0.000019,-0.000014,0.002384,-0.000075,  32.064
   408.0,0.000052,0.000006,0.003220,-0.000089,  32.071
   409.0,0.000091,0.000035,0.004181,-0.000113,  32.075
   410.0,0.000144,0.000077,0.005001,-0.000152,  32.082
   411.0,0.000195,0.000118,0.006214,-0.000127,  32.089
   412.0,0.000257,0.000166,0.007816,-0.000099,  32.095
   413.0,0.000344,0.000215,0.009481,-0.000124,  32.101
   414.0,0.000439,0.000276,0.011317,-0.000085,  32.106
   415.0,0.000572,0.000358,0.012927,-0.000022,  32.106
   416.0,0.000724,0.000468,0.015482,-0.000047,  32.114
   417.0,0.000888,0.000575,0.018307,-0.000075,  32.115
   418.0,0.001098,0.000686,0.021518,-0.000061,  32.119
   419.0,0.001327,0.000835,0.025010,-0.000061,  32.121
   420.0,0.001568,0.001007,0.029016,-0.000075,  32.123
   421.0,0.001812,0.001204,0.033487,-0.000061,  32.124
   422.0,0.002106,0.001406,0.038564,-0.000047,  32.119
   423.0,0.002450,0.001647,0.043959,-0.000061,  32.123
   424.0,0.002815,0.001917,0.048833,-0.000061,  32.118
   425.0,0.003224,0.002208,0.055236,-0.000075,  32.114
   426.0,0.003681,0.002509,0.062096,-0.000099,  32.109
   427.0,0.004161,0.002790,0.069717,-0.000072,  32.105
   428.0,0.004672,0.003161,0.077700,-0.000061,  32.090
   429.0,0.005221,0.003565,0.086395,-0.000047,  32.083
   430.0,0.005674,0.003985,0.095436,-0.000047,  32.071
   431.0,0.006280,0.004430,0.105116,-0.000072,  32.056
   432.0,0.006910,0.004898,0.114608,-0.000110,  32.040
   433.0,0.007576,0.005403,0.122915,-0.000061,  32.025
   434.0,0.008257,0.005910,0.133855,-0.000075,  31.998
   435.0,0.008944,0.006354,0.145042,-0.000047,  31.976
   436.0,0.009647,0.006931,0.156398,-0.000061,  31.948
   437.0,0.010369,0.007497,0.167940,-0.000047,  31.920
   438.0,0.011050,0.008084,0.179425,0.000006,  31.893
   439.0,0.011690,0.008691,0.190996,-0.000019,  31.868
   440.0,0.012409,0.009300,0.202803,0.000020,  31.848
   441.0,0.013164,0.009928,0.213183,0.000006,  31.816
   442.0,0.013902,0.010562,0.224303,-0.000047,  31.795
   443.0,0.014649,0.011203,0.235991,-0.000019,  31.766
   444.0,0.015377,0.011696,0.247663,0.000006,  31.727
   445.0,0.016108,0.012332,0.258718,0.000020,  31.709
   446.0,0.016741,0.012924,0.270063,-0.000016,  31.686
   447.0,0.017308,0.013521,0.281256,-0.000005,  31.650
   448.0,0.017949,0.014118,0.291815,-0.000005,  31.626
   449.0,0.018599,0.014705,0.300662,0.000009,  31.597
   450.0,0.019194,0.015243,0.310457,0.000023,  31.567
   451.0,0.019771,0.015766,0.319517,0.000037,  31.532
   452.0,0.020302,0.016151,0.328226,0.000037,  31.501
   453.0,0.020786,0.016630,0.337065,0.000051,  31.449
   454.0,0.021251,0.017053,0.345228,0.000065,  31.405
   455.0,0.021619,0.017465,0.353080,0.000051,  31.355
   456.0,0.022029,0.017829,0.360422,0.000079,  31.294
   457.0,0.022407,0.018185,0.367336,0.000118,  31.237
   458.0,0.022752,0.018490,0.372915,0.000079,  31.169
   459.0,0.023046,0.018725,0.379395,0.000054,  31.089
   460.0,0.023304,0.018931,0.385587,0.000093,  31.012
   461.0,0.023556,0.019096,0.391552,0.000057,  30.923
   462.0,0.023745,0.019237,0.397045,0.000068,  30.831
   463.0,0.023951,0.019354,0.402750,0.000054,  30.725
   464.0,0.024102,0.019437,0.408358,0.000054,  30.615
   465.0,0.024280,0.019498,0.413363,0.000093,  30.490
   466.0,0.024467,0.019531,0.418340,0.000051,  30.359
   467.0,0.024656,0.019550,0.418401,0.000023,  30.215
   468.0,0.024858,0.019549,0.427206,0.000009,  30.078
   469.0,0.025122,0.019554,0.434832,-0.000019,  29.927
   470.0,0.025421,0.019584,0.442391,-0.000068,  29.768
   471.0,0.025779,0.019625,0.450621,-0.000072,  29.601
   472.0,0.026145,0.019692,0.459828,-0.000085,  29.437
   473.0,0.026600,0.019804,0.470790,-0.000033,  29.260
   474.0,0.027155,0.019952,0.483145,-0.000072,  29.098
   475.0,0.027802,0.020128,0.494308,-0.000061,  28.934
   476.0,0.028549,0.020345,0.510000,-0.000075,  28.784
   477.0,0.029361,0.020611,0.527282,-0.000047,  28.645
   478.0,0.030237,0.020870,0.546310,-0.000005,  28.534
   479.0,0.031158,0.021177,0.566608,0.000048,  28.457
   480.0,0.031990,0.021530,0.587732,0.000076,  28.405
   481.0,0.032922,0.021892,0.610309,0.000118,  28.391
   482.0,0.033944,0.022269,0.631817,0.000104,  28.408
   483.0,0.035000,0.022705,0.654554,0.000068,  28.458
   484.0,0.036063,0.023116,0.674313,0.000149,  28.545
   485.0,0.037129,0.023533,0.698376,0.000149,  28.667
   486.0,0.038137,0.023878,0.720764,0.000199,  28.808
   487.0,0.039177,0.024242,0.743649,0.000174,  28.981
   488.0,0.040161,0.024622,0.765662,0.000188,  29.178
   489.0,0.041087,0.025019,0.787729,0.000096,  29.387
   490.0,0.041915,0.025397,0.808669,0.000138,  29.617
   491.0,0.042844,0.025754,0.828936,0.000085,  29.851
   492.0,0.043748,0.026118,0.845702,0.000149,  30.092
   493.0,0.044645,0.026456,0.863259,0.000135,  30.331
   494.0,0.045491,0.026814,0.881679,0.000121,  30.575
   495.0,0.046315,0.027079,0.899173,0.000135,  30.803
   496.0,0.047111,0.027404,0.916251,0.000071,  31.032
   497.0,0.047863,0.027697,0.932411,0.000110,  31.258
   498.0,0.048543,0.027978,0.947669,0.000121,  31.467
   499.0,0.049155,0.028276,0.962318,0.000135,  31.654
   500.0,0.049841,0.028558,0.975850,0.000188,  31.837
   501.0,0.050492,0.028794,0.987987,0.000149,  32.003
   502.0,0.051082,0.029024,0.998352,0.000085,  32.165
   503.0,0.051631,0.029248,1.009405,0.000163,  32.303
   504.0,0.052115,0.029407,1.019748,0.000163,  32.439
   505.0,0.052578,0.029598,1.028929,0.000149,  32.559
   506.0,0.053021,0.029753,1.034832,0.000110,  32.676
   507.0,0.053344,0.029887,1.044185,0.000071,  32.770
   508.0,0.053672,0.030001,1.051724,0.000113,  32.865
   509.0,0.053992,0.030100,1.057755,0.000110,  32.948
   510.0,0.054262,0.030189,1.063348,0.000085,  33.020
   511.0,0.054511,0.030265,1.067258,0.000124,  33.080
   512.0,0.054740,0.030324,1.071290,0.000085,  33.134
   513.0,0.054936,0.030373,1.075106,0.000110,  33.182
   514.0,0.055111,0.030405,1.077815,0.000110,  33.220
   515.0,0.055253,0.030454,1.080277,0.000071,  33.238
   516.0,0.055327,0.030459,1.082753,0.000110,  33.259
   517.0,0.055415,0.030457,1.083925,0.000085,  33.276
   518.0,0.055477,0.030452,1.084851,0.000099,  33.279
   519.0,0.055502,0.030432,1.085521,0.000124,  33.271
   520.0,0.055515,0.030401,1.086173,0.000124,  33.256
   521.0,0.055532,0.030370,1.086413,0.000149,  33.224
   522.0,0.055511,0.030321,1.086403,0.000174,  33.201
   523.0,0.055473,0.030278,1.085282,0.000149,  33.182
   524.0,0.055415,0.030216,1.084345,0.000110,  33.159
   525.0,0.055365,0.030159,1.082991,0.000110,  33.148
   526.0,0.055298,0.030091,1.081186,0.000071,  33.140
   527.0,0.055198,0.030017,1.079219,0.000110,  33.119
   528.0,0.055106,0.029934,1.078267,0.000135,  33.116
   529.0,0.054981,0.029872,1.075751,0.000149,  33.110
   530.0,0.054852,0.029798,1.073277,0.000174,  33.106
   531.0,0.054727,0.029703,1.070401,0.000149,  33.100
   532.0,0.054573,0.029604,1.067709,0.000149,  33.101
   533.0,0.054449,0.029499,1.064413,0.000174,  33.095
   534.0,0.054274,0.029386,1.060736,0.000177,  33.099
   535.0,0.054095,0.029281,1.057267,0.000149,  33.094
   536.0,0.053908,0.029156,1.053641,0.000163,  33.080
   537.0,0.053709,0.029029,1.050045,0.000085,  33.074
   538.0,0.053498,0.028925,1.045793,0.000113,  33.071
   539.0,0.053278,0.028825,1.041648,0.000113,  33.057
   540.0,0.053050,0.028687,1.037298,0.000141,  33.048
   541.0,0.052826,0.028552,1.032410,0.000113,  33.035
   542.0,0.052603,0.028408,1.027337,0.000166,  33.018
   543.0,0.052375,0.028257,1.022692,0.000205,  32.995
   544.0,0.052102,0.028110,1.017385,0.000138,  32.974
   545.0,0.051854,0.027973,1.012900,0.000099,  32.951
   546.0,0.051582,0.027829,1.007673,0.000138,  32.927
   547.0,0.051301,0.027682,1.001948,0.000191,  32.909
   548.0,0.051000,0.027541,0.996149,0.000219,  32.877
   549.0,0.050686,0.027346,0.990361,0.000202,  32.850
   550.0,0.050369,0.027164,0.984121,0.000163,  32.829
   551.0,0.050085,0.026978,0.977639,0.000177,  32.806
   552.0,0.049796,0.026806,0.971912,0.000138,  32.782
   553.0,0.049467,0.026639,0.965067,0.000099,  32.763
   554.0,0.049134,0.026454,0.959053,0.000163,  32.742
   555.0,0.048806,0.026254,0.952905,0.000163,  32.725
   556.0,0.048466,0.026103,0.946027,0.000124,  32.708
   557.0,0.048101,0.025923,0.939046,0.000135,  32.696
   558.0,0.047769,0.025748,0.932487,0.000163,  32.675
   559.0,0.047429,0.025566,0.925137,0.000163,  32.658
   560.0,0.047152,0.025363,0.918066,0.000138,  32.644
   561.0,0.046787,0.025183,0.910610,0.000149,  32.623
   562.0,0.046457,0.024989,0.903307,0.000149,  32.611
   563.0,0.046090,0.024803,0.897084,0.000163,  32.587
   564.0,0.045723,0.024627,0.890067,0.000149,  32.570
   565.0,0.045349,0.024456,0.882370,0.000149,  32.551
   566.0,0.044966,0.024264,0.874665,0.000177,  32.523
   567.0,0.044571,0.024061,0.867095,0.000177,  32.502
   568.0,0.044210,0.023870,0.854292,0.000149,  32.480
   569.0,0.043885,0.023646,0.850213,0.000149,  32.448
   570.0,0.043503,0.023447,0.843375,0.000149,  32.421
   571.0,0.043123,0.023249,0.836252,0.000149,  32.392
   572.0,0.042738,0.023032,0.829139,0.000096,  32.362
   573.0,0.042346,0.022842,0.821268,0.000135,  32.351
   574.0,0.041975,0.022665,0.813008,0.000149,  32.334
   575.0,0.041587,0.022465,0.805087,0.000121,  32.311
   576.0,0.041207,0.022265,0.797544,0.000135,  32.302
   577.0,0.040856,0.022065,0.789450,0.000124,  32.297
   578.0,0.040498,0.021863,0.781486,0.000099,  32.290
   579.0,0.040103,0.021660,0.774000,0.000085,  32.292
   580.0,0.039725,0.021456,0.766496,0.000110,  32.287
   581.0,0.039348,0.021259,0.758485,0.000110,  32.283
   582.0,0.038963,0.021091,0.750462,0.000071,  32.276
   583.0,0.038590,0.020883,0.742434,0.000110,  32.274
   584.0,0.038210,0.020687,0.734570,0.000096,  32.275
   585.0,0.037809,0.020485,0.726452,0.000071,  32.274
   586.0,0.037509,0.020295,0.718473,0.000096,  32.273
   587.0,0.037121,0.020101,0.710260,0.000107,  32.266
   588.0,0.036758,0.019908,0.702599,0.000121,  32.271
   589.0,0.036391,0.019717,0.695661,0.000107,  32.260
   590.0,0.036017,0.019531,0.687755,0.000149,  32.261
   591.0,0.035638,0.019363,0.680071,0.000226,  32.251
   592.0,0.035284,0.019174,0.672281,0.000188,  32.253
   593.0,0.034906,0.018976,0.664280,0.000135,  32.249
   594.0,0.034637,0.018791,0.656814,0.000132,  32.248
   595.0,0.034288,0.018614,0.648921,0.000107,  32.240
   596.0,0.033923,0.018434,0.641032,0.000174,  32.231
   597.0,0.033562,0.018252,0.634150,0.000135,  32.228
   598.0,0.033226,0.018072,0.626812,0.000110,  32.222
   599.0,0.032873,0.017897,0.619405,0.000149,  32.224
   600.0,0.032545,0.017766,0.612286,0.000124,  32.222
   601.0,0.032201,0.017583,0.604065,0.000149,  32.211
   602.0,0.031857,0.017401,0.595555,0.000149,  32.212
   603.0,0.031593,0.017237,0.589252,0.000149,  32.206
   604.0,0.031262,0.017070,0.582646,0.000163,  32.198
   605.0,0.030935,0.016909,0.575283,0.000199,  32.195
   606.0,0.030608,0.016741,0.568570,0.000163,  32.188
   607.0,0.030289,0.016574,0.561901,0.000188,  32.170
   608.0,0.029971,0.016420,0.555241,0.000188,  32.167
   609.0,0.029653,0.016266,0.548249,0.000124,  32.163
   610.0,0.029350,0.016109,0.541359,0.000121,  32.154
   611.0,0.029044,0.015963,0.534410,0.000149,  32.147
   612.0,0.028773,0.015831,0.527400,0.000226,  32.125
   613.0,0.028511,0.015678,0.520473,0.000202,  32.108
   614.0,0.028205,0.015525,0.514111,0.000202,  32.092
   615.0,0.027923,0.015374,0.508893,0.000188,  32.079
   616.0,0.027645,0.015227,0.502291,0.000226,  32.060
   617.0,0.027368,0.015124,0.495951,0.000188,  32.047
   618.0,0.027102,0.014995,0.489789,0.000174,  32.037
   619.0,0.026846,0.014853,0.483529,0.000188,  32.020
   620.0,0.026585,0.014713,0.477338,0.000188,  32.007
   621.0,0.026386,0.014582,0.471133,0.000110,  32.005
   622.0,0.026125,0.014458,0.465143,0.000149,  31.997
   623.0,0.025876,0.014346,0.458831,0.000226,  31.990
   624.0,0.025623,0.014206,0.454287,0.000188,  31.980
   625.0,0.025374,0.014076,0.448511,0.000188,  31.971
   626.0,0.025129,0.013964,0.442348,0.000202,  31.958
   627.0,0.024896,0.013850,0.436816,0.000174,  31.954
   628.0,0.024663,0.013742,0.431177,0.000188,  31.946
   629.0,0.024441,0.013621,0.425328,0.000110,  31.926
   630.0,0.024251,0.013489,0.419996,0.000160,  31.923
   631.0,0.024029,0.013370,0.414600,0.000188,  31.921
   632.0,0.023816,0.013268,0.409181,0.000160,  31.917
   633.0,0.023591,0.013151,0.405018,0.000121,  31.913
   634.0,0.023381,0.013063,0.399708,0.000107,  31.911
   635.0,0.023188,0.012968,0.394697,0.000096,  31.909
   636.0,0.022995,0.012879,0.389668,0.000071,  31.913
   637.0,0.022785,0.012781,0.384543,0.000082,  31.921
   638.0,0.022596,0.012688,0.378391,0.000146,  31.923
   639.0,0.022437,0.012597,0.374073,0.000146,  31.927
   640.0,0.022276,0.012506,0.370058,0.000146,  31.937
   641.0,0.022110,0.012426,0.365608,0.000132,  31.941
   642.0,0.021943,0.012353,0.362119,0.000146,  31.956
   643.0,0.021769,0.012275,0.357623,0.000132,  31.969
   644.0,0.021619,0.012196,0.353283,0.000146,  31.969
   645.0,0.021465,0.012150,0.348887,0.000146,  31.964
   646.0,0.021335,0.012065,0.344781,0.000104,  31.942
   647.0,0.021181,0.011997,0.340173,0.000015,  31.916
   648.0,0.021042,0.011917,0.336384,0.000068,  31.883
   649.0,0.020915,0.011865,0.332358,0.000079,  31.859
   650.0,0.020772,0.011809,0.328453,0.000171,  31.834
   651.0,0.020666,0.011743,0.325088,0.000118,  31.812
   652.0,0.020539,0.011676,0.321582,0.000118,  31.794
   653.0,0.020411,0.011632,0.317661,0.000132,  31.779
   654.0,0.020300,0.011580,0.314018,0.000118,  31.763
   655.0,0.020188,0.011533,0.310464,0.000118,  31.747
   656.0,0.020089,0.011487,0.303185,0.000118,  31.736
   657.0,0.020013,0.011437,0.302239,0.000104,  31.733
   658.0,0.019903,0.011405,0.299984,0.000104,  31.746
   659.0,0.019816,0.011366,0.296926,0.000118,  31.751
   660.0,0.019728,0.011324,0.294428,0.000118,  31.756
   661.0,0.019652,0.011292,0.291252,0.000118,  31.766
   662.0,0.019567,0.011253,0.288227,0.000118,  31.762
   663.0,0.019470,0.011234,0.285241,0.000118,  31.764
   664.0,0.019381,0.011201,0.282608,0.000118,  31.775
   665.0,0.019312,0.011154,0.279520,0.000104,  31.779
   666.0,0.019266,0.011137,0.277100,0.000118,  31.797
   667.0,0.019208,0.011124,0.274190,0.000104,  31.803
   668.0,0.019155,0.011100,0.271687,0.000143,  31.811
   669.0,0.019109,0.011095,0.269473,0.000104,  31.817
   670.0,0.019059,0.011068,0.266959,0.000143,  31.825
   671.0,0.019010,0.011052,0.264789,0.000118,  31.818
   672.0,0.018952,0.011035,0.262280,0.000118,  31.816
   673.0,0.018906,0.011033,0.259692,0.000104,  31.817
   674.0,0.018867,0.011034,0.257427,0.000118,  31.821
   675.0,0.018836,0.011033,0.255380,0.000118,  31.828
   676.0,0.018818,0.011026,0.253346,0.000118,  31.832
   677.0,0.018791,0.011027,0.251422,0.000132,  31.841
   678.0,0.018784,0.011029,0.249675,0.000079,  31.845
   679.0,0.018761,0.011031,0.247304,0.000157,  31.855
   680.0,0.018730,0.011018,0.245641,0.000132,  31.862
   681.0,0.018715,0.011021,0.243680,0.000104,  31.867
   682.0,0.018712,0.011042,0.241358,0.000118,  31.875
   683.0,0.018704,0.011054,0.238773,0.000118,  31.873
   684.0,0.018716,0.011062,0.238132,0.000090,  31.884
   685.0,0.018720,0.011087,0.236892,0.000104,  31.890
   686.0,0.018719,0.011107,0.235670,0.000093,  31.901
   687.0,0.018719,0.011110,0.234493,0.000093,  31.911
   688.0,0.018707,0.011123,0.233075,0.000146,  31.922
   689.0,0.018711,0.011128,0.231657,0.000132,  31.929
   690.0,0.018731,0.011138,0.230230,0.000146,  31.936
   691.0,0.018734,0.011158,0.228898,0.000146,  31.956
   692.0,0.018754,0.011166,0.227532,0.000143,  31.966
   693.0,0.018772,0.011191,0.226462,0.000118,  31.979
   694.0,0.018779,0.011209,0.225170,0.000132,  31.983
   695.0,0.018803,0.011232,0.224050,0.000132,  31.999
   696.0,0.018814,0.011245,0.223027,0.000118,  32.005
   697.0,0.018862,0.011272,0.222012,0.000157,  32.014
   698.0,0.018889,0.011311,0.220887,0.000132,  32.028
   699.0,0.018923,0.011342,0.219800,0.000146,  32.032
   700.0,0.018954,0.011356,0.219108,0.000093,  32.041
   701.0,0.018964,0.011374,0.218097,0.000107,  32.049
   702.0,0.019010,0.011403,0.217258,0.000146,  32.047
   703.0,0.019060,0.011441,0.216261,0.000143,  32.058
   704.0,0.019086,0.011462,0.215464,0.000118,  32.063
   705.0,0.019133,0.011507,0.215002,0.000157,  32.064
   706.0,0.019188,0.011536,0.214262,0.000118,  32.063
   707.0,0.019230,0.011575,0.213376,0.000132,  32.059
   708.0,0.019277,0.011608,0.212636,0.000104,  32.055
   709.0,0.019326,0.011647,0.211885,0.000118,  32.053
   710.0,0.019383,0.011670,0.207956,0.000132,  32.055
   711.0,0.019422,0.011712,0.209674,0.000118,  32.047
   712.0,0.019456,0.011753,0.209805,0.000104,  32.050
   713.0,0.019518,0.011797,0.209523,0.000118,  32.049
   714.0,0.019583,0.011839,0.209362,0.000079,  32.048
   715.0,0.019636,0.011890,0.208810,0.000029,  32.050
   716.0,0.019705,0.011923,0.207406,0.000104,  32.053
   717.0,0.019767,0.011964,0.207111,0.000104,  32.054
   718.0,0.019840,0.012017,0.207302,0.000104,  32.057
   719.0,0.019890,0.012057,0.206946,0.000090,  32.064
   720.0,0.019940,0.012104,0.206703,0.000104,  32.064
   721.0,0.020017,0.012169,0.206521,0.000118,  32.067
   722.0,0.020094,0.012218,0.206411,0.000171,  32.069
   723.0,0.020162,0.012265,0.206229,0.000132,  32.072
   724.0,0.020241,0.012319,0.206163,0.000143,  32.070
   725.0,0.020301,0.012355,0.206144,0.000118,  32.069
   726.0,0.020381,0.012397,0.205808,0.000118,  32.067
   727.0,0.020455,0.012442,0.205850,0.000143,  32.060
   728.0,0.020516,0.012497,0.205555,0.000118,  32.058
   729.0,0.020605,0.012549,0.205617,0.000115,  32.060
   730.0,0.020686,0.012613,0.205534,0.000129,  32.055
   731.0,0.020762,0.012686,0.205290,0.000065,  32.046
   732.0,0.020855,0.012747,0.205434,0.000104,  32.040
   733.0,0.020928,0.012805,0.205280,0.000118,  32.036
   734.0,0.021016,0.012855,0.205380,0.000132,  32.035
   735.0,0.021102,0.012911,0.204126,0.000118,  32.028
   736.0,0.021171,0.012956,0.204513,0.000118,  32.022
   737.0,0.021224,0.013005,0.204898,0.000146,  32.010
   738.0,0.021330,0.013061,0.205420,0.000118,  32.010
   739.0,0.021426,0.013115,0.205706,0.000118,  31.996
   740.0,0.021507,0.013162,0.205869,0.000143,  31.989
   741.0,0.021591,0.013228,0.202742,0.000065,  31.986
   742.0,0.021671,0.013294,0.205201,0.000118,  31.986
   743.0,0.021768,0.013347,0.205801,0.000090,  31.981
   744.0,0.021857,0.013394,0.206392,0.000118,  31.977
   745.0,0.021921,0.013452,0.204520,0.000118,  31.978
   746.0,0.022018,0.013520,0.206356,0.000143,  31.957
   747.0,0.022123,0.013590,0.207000,0.000104,  31.954
   748.0,0.022232,0.013645,0.207425,0.000143,  31.951
   749.0,0.022316,0.013719,0.207783,0.000171,  31.939
   750.0,0.022404,0.013777,0.206249,0.000132,  31.937
   751.0,0.022501,0.013814,0.207941,0.000143,  31.933
   752.0,0.022590,0.013880,0.208419,0.000143,  31.931
   753.0,0.022675,0.013936,0.208900,0.000104,  31.925
   754.0,0.022757,0.014010,0.209142,0.000129,  31.925
   755.0,0.022841,0.014064,0.209410,0.000104,  31.916
   756.0,0.022930,0.014110,0.209725,0.000132,  31.916
   757.0,0.023015,0.014169,0.210165,0.000118,  31.911
   758.0,0.023104,0.014231,0.210450,0.000079,  31.908
   759.0,0.023200,0.014287,0.210733,0.000104,  31.904
   760.0,0.023289,0.014334,0.211040,0.000104,  31.902
   761.0,0.023352,0.014385,0.211314,0.000079,  31.893
   762.0,0.023453,0.014459,0.211942,0.000093,  31.899
   763.0,0.023543,0.014495,0.212115,0.000157,  31.893
   764.0,0.023636,0.014557,0.212650,0.000104,  31.901
   765.0,0.023741,0.014620,0.212778,0.000140,  31.894
   766.0,0.023850,0.014690,0.213138,0.000140,  31.895
   767.0,0.023943,0.014765,0.213615,0.000101,  31.898
   768.0,0.024045,0.014814,0.214004,0.000090,  31.898
   769.0,0.024138,0.014876,0.214606,0.000104,  31.900
   770.0,0.024247,0.014938,0.215027,0.000090,  31.908
   771.0,0.024361,0.015005,0.215294,0.000090,  31.914
   772.0,0.024446,0.015076,0.215737,0.000104,  31.920
   773.0,0.024543,0.015134,0.216553,0.000140,  31.924
   774.0,0.024630,0.015206,0.216743,0.000115,  31.934
   775.0,0.024748,0.015260,0.217315,0.000115,  31.935
   776.0,0.024858,0.015329,0.217773,0.000104,  31.944
   777.0,0.024951,0.015389,0.218206,0.000104,  31.955
   778.0,0.025072,0.015449,0.218631,0.000090,  31.966
   779.0,0.025160,0.015524,0.219674,0.000090,  31.977
   780.0,0.025257,0.015604,0.219897,0.000104,  31.983
   781.0,0.025351,0.015669,0.220517,0.000143,  31.992
   782.0,0.025452,0.015747,0.221088,0.000104,  32.001
   783.0,0.025544,0.015798,0.219845,0.000157,  32.015
   784.0,0.025642,0.015854,0.220772,0.000118,  32.024
   785.0,0.025723,0.015903,0.221880,0.000132,  32.028
   786.0,0.025828,0.015967,0.222822,0.000118,  32.038
   787.0,0.025926,0.016016,0.223920,0.000118,  32.041
   788.0,0.025991,0.016081,0.224252,0.000104,  32.048
   789.0,0.026085,0.016137,0.224714,0.000129,  32.045
   790.0,0.026166,0.016189,0.225078,0.000118,  32.043
   791.0,0.026257,0.016250,0.225525,0.000143,  32.035
   792.0,0.026334,0.016282,0.226091,0.000093,  32.024
   793.0,0.026412,0.016339,0.226481,0.000146,  32.015
   794.0,0.026514,0.016396,0.227099,0.000132,  31.981
   795.0,0.026591,0.016450,0.227365,0.000118,  31.954
   796.0,0.026685,0.016500,0.227924,0.000132,  31.924
   797.0,0.026747,0.016536,0.228412,0.000104,  31.898
   798.0,0.026836,0.016589,0.228696,0.000118,  31.879
   799.0,0.026938,0.016638,0.229371,0.000118,  31.864
   800.0,0.027008,0.016697,0.229877,0.000129,  31.854
   801.0,0.027081,0.016752,0.230226,0.000076,  31.835
   802.0,0.027176,0.016804,0.230675,0.000115,  31.818
   803.0,0.027254,0.016859,0.231015,0.000090,  31.819
   804.0,0.027339,0.016905,0.231352,0.000118,  31.818
   805.0,0.027430,0.016950,0.230333,0.000182,  31.813
   806.0,0.027492,0.017014,0.231220,0.000195,  31.822
   807.0,0.027578,0.017061,0.232516,0.000143,  31.825
   808.0,0.027653,0.017105,0.233298,0.000182,  31.835
   809.0,0.027739,0.017151,0.233916,0.000104,  31.839
   810.0,0.027821,0.017209,0.234304,0.000154,  31.848
   811.0,0.027903,0.017272,0.234836,0.000090,  31.859
   812.0,0.027982,0.017308,0.235258,0.000104,  31.873
   813.0,0.028056,0.017369,0.235702,0.000143,  31.880
   814.0,0.028126,0.017404,0.236102,0.000104,  31.891
   815.0,0.028185,0.017448,0.236501,0.000118,  31.900
   816.0,0.028256,0.017493,0.236800,0.000143,  31.915
   817.0,0.028318,0.017545,0.237298,0.000118,  31.927
   818.0,0.028384,0.017599,0.237679,0.000093,  31.929
   819.0,0.028479,0.017648,0.238238,0.000093,  31.932
   820.0,0.028541,0.017684,0.238612,0.000079,  31.929
   821.0,0.028595,0.017706,0.239014,0.000079,  31.919
   822.0,0.028678,0.017752,0.236861,0.000079,  31.922
   823.0,0.028741,0.017800,0.238894,0.000143,  31.918
   824.0,0.028795,0.017846,0.239982,0.000104,  31.913
   825.0,0.028854,0.017897,0.240325,0.000090,  31.911
   826.0,0.028937,0.017932,0.240925,0.000168,  31.912
   827.0,0.029004,0.017980,0.241310,0.000143,  31.916
   828.0,0.029078,0.018023,0.241475,0.000118,  31.914
   829.0,0.029145,0.018046,0.241987,0.000132,  31.925
   830.0,0.029208,0.018096,0.242416,0.000143,  31.931
   831.0,0.029294,0.018149,0.242868,0.000118,  31.935
   832.0,0.029344,0.018194,0.243222,0.000143,  31.947
   833.0,0.029403,0.018236,0.243723,0.000118,  31.954
   834.0,0.029474,0.018278,0.244266,0.000157,  31.970
   835.0,0.029553,0.018320,0.244422,0.000157,  31.978
   836.0,0.029636,0.018373,0.244825,0.000104,  31.989
   837.0,0.029719,0.018436,0.245555,0.000090,  32.001
   838.0,0.029785,0.018472,0.246134,0.000118,  32.008
   839.0,0.029848,0.018514,0.246414,0.000132,  32.023
   840.0,0.029918,0.018553,0.247067,0.000132,  32.029
   841.0,0.029982,0.018602,0.247729,0.000146,  32.030
   842.0,0.030057,0.018635,0.248230,0.000132,  32.042
   843.0,0.030135,0.018687,0.248689,0.000129,  32.049
   844.0,0.030222,0.018746,0.248693,0.000104,  32.053
   845.0,0.030301,0.018790,0.249065,0.000118,  32.059
   846.0,0.030384,0.018839,0.249861,0.000118,  32.068
   847.0,0.030459,0.018877,0.250451,0.000146,  32.078
   848.0,0.030501,0.018925,0.250965,0.000118,  32.077
   849.0,0.030565,0.018967,0.251369,0.000118,  32.078
   850.0,0.030624,0.019017,0.251908,0.000132,  32.078
   851.0,0.030683,0.019056,0.252221,0.000118,  32.073
   852.0,0.030766,0.019093,0.252607,0.000143,  32.074
   853.0,0.030821,0.019147,0.253167,0.000157,  32.077
   854.0,0.030872,0.019167,0.253433,0.000195,  32.069
   855.0,0.030923,0.019188,0.253805,0.000171,  32.069
   856.0,0.030974,0.019215,0.254012,0.000171,  32.065
   857.0,0.031017,0.019245,0.254298,0.000195,  32.056
   858.0,0.031061,0.019275,0.254554,0.000171,  32.045
   859.0,0.031100,0.019300,0.255040,0.000143,  32.039
   860.0,0.031139,0.019320,0.255097,0.000104,  32.025
   861.0,0.031178,0.019357,0.255242,0.000157,  32.025
   862.0,0.031205,0.019365,0.255612,0.000157,  32.022
   863.0,0.031241,0.019378,0.255816,0.000146,  32.026
   864.0,0.031272,0.019392,0.255835,0.000171,  32.033
   865.0,0.031312,0.019426,0.255892,0.000121,  32.034
   866.0,0.031335,0.019453,0.256210,0.000093,  32.043
   867.0,0.031367,0.019468,0.256404,0.000132,  32.049
   868.0,0.031407,0.019491,0.256497,0.000146,  32.056
   869.0,0.031419,0.019516,0.256452,0.000121,  32.062
   870.0,0.031423,0.019525,0.256584,0.000107,  32.068
   871.0,0.031430,0.019531,0.256764,0.000096,  32.071
   872.0,0.031446,0.019534,0.256730,0.000146,  32.080
   873.0,0.031450,0.019546,0.256857,0.000146,  32.087
   874.0,0.031453,0.019543,0.256817,0.000146,  32.097
   875.0,0.031457,0.019546,0.256910,0.000185,  32.106
   876.0,0.031481,0.019558,0.256969,0.000146,  32.112
   877.0,0.031477,0.019561,0.256836,0.000110,  32.122
   878.0,0.031481,0.019566,0.256518,0.000057,  32.131
   879.0,0.031493,0.019569,0.256631,0.000121,  32.139
   880.0,0.031489,0.019569,0.256533,0.000160,  32.146
   881.0,0.031477,0.019575,0.256489,0.000107,  32.150
   882.0,0.031485,0.019581,0.256387,0.000160,  32.155
   883.0,0.031485,0.019578,0.256359,0.000160,  32.153
   884.0,0.031473,0.019583,0.256399,0.000082,  32.154
   885.0,0.031469,0.019560,0.256262,0.000146,  32.149
   886.0,0.031450,0.019545,0.256077,0.000107,  32.138
   887.0,0.031438,0.019537,0.255599,0.000174,  32.136
   888.0,0.031414,0.019521,0.255567,0.000146,  32.134
   889.0,0.031403,0.019515,0.255446,0.000135,  32.129
   890.0,0.031371,0.019501,0.255208,0.000146,  32.125
   891.0,0.031351,0.019468,0.254946,0.000132,  32.113
   892.0,0.031343,0.019465,0.254807,0.000132,  32.114
   893.0,0.031323,0.019444,0.254705,0.000132,  32.109
   894.0,0.031308,0.019428,0.254385,0.000118,  32.110
   895.0,0.031296,0.019429,0.254225,0.000082,  32.115
   896.0,0.031268,0.019426,0.254046,0.000107,  32.120
   897.0,0.031261,0.019414,0.253862,0.000107,  32.129
   898.0,0.031253,0.019411,0.253625,0.000171,  32.132
   899.0,0.031242,0.019402,0.253348,0.000118,  32.132
   900.0,0.031229,0.019412,0.253311,0.000118,  32.134
   901.0,0.031226,0.019393,0.253098,0.000118,  32.138
   902.0,0.031186,0.019378,0.252852,0.000143,  32.145
   903.0,0.031154,0.019373,0.252515,0.000118,  32.149
   904.0,0.031122,0.019347,0.252337,0.000160,  32.156
   905.0,0.031103,0.019343,0.252192,0.000132,  32.158
   906.0,0.031083,0.019320,0.252018,0.000132,  32.165
   907.0,0.031055,0.019299,0.251734,0.000132,  32.160
   908.0,0.031016,0.019288,0.251392,0.000118,  32.161
   909.0,0.030981,0.019270,0.247804,0.000146,  32.146
   910.0,0.030953,0.019241,0.249436,0.000171,  32.140
   911.0,0.030929,0.019222,0.249931,0.000146,  32.120
   912.0,0.030902,0.019191,0.249999,0.000132,  32.102
   913.0,0.030855,0.019158,0.249952,0.000132,  32.075
   914.0,0.030814,0.019146,0.249708,0.000132,  32.056
   915.0,0.030783,0.019122,0.249397,0.000157,  32.037
   916.0,0.030748,0.019103,0.248726,0.000090,  32.027
   917.0,0.030708,0.019082,0.248501,0.000104,  32.018
   918.0,0.030677,0.019072,0.248230,0.000104,  32.018
   919.0,0.030641,0.019045,0.247991,0.000104,  32.017
   920.0,0.030590,0.019016,0.247552,0.000132,  32.019
   921.0,0.030550,0.019004,0.247414,0.000093,  32.022
   922.0,0.030515,0.018976,0.247024,0.000068,  32.028
   923.0,0.030471,0.018948,0.246838,0.000079,  32.033
   924.0,0.030452,0.018936,0.246405,0.000093,  32.039
   925.0,0.030413,0.018903,0.246058,0.000171,  32.039
   926.0,0.030370,0.018889,0.245660,0.000118,  32.035
   927.0,0.030330,0.018853,0.245342,0.000118,  32.037
   928.0,0.030307,0.018824,0.245000,0.000104,  32.045
   929.0,0.030276,0.018809,0.244726,0.000104,  32.041
   930.0,0.030237,0.018791,0.244210,0.000118,  32.031
   931.0,0.030186,0.018768,0.242144,0.000129,  32.030
   932.0,0.030139,0.018728,0.242167,0.000118,  32.020
   933.0,0.030095,0.018718,0.242501,0.000132,  32.020
   934.0,0.030040,0.018688,0.242538,0.000143,  32.018
   935.0,0.029969,0.018640,0.242199,0.000118,  32.020
   936.0,0.029926,0.018598,0.241729,0.000118,  32.009
   937.0,0.029866,0.018564,0.241437,0.000143,  32.014
   938.0,0.029811,0.018528,0.240944,0.000143,  32.015
   939.0,0.029748,0.018504,0.240512,0.000129,  32.014
   940.0,0.029705,0.018465,0.239950,0.000143,  32.024
   941.0,0.029658,0.018444,0.239749,0.000118,  32.026
   942.0,0.029590,0.018421,0.239280,0.000118,  32.036
   943.0,0.029524,0.018380,0.238701,0.000118,  32.038
   944.0,0.029458,0.018323,0.237997,0.000132,  32.052
   945.0,0.029387,0.018277,0.237591,0.000118,  32.056
   946.0,0.029336,0.018236,0.237148,0.000107,  32.061
   947.0,0.029265,0.018186,0.236664,0.000107,  32.072
   948.0,0.029203,0.018146,0.236185,0.000093,  32.081
   949.0,0.029132,0.018104,0.235559,0.000107,  32.085
   950.0,0.029045,0.018045,0.234882,0.000065,  32.086
   951.0,0.028978,0.018001,0.234124,0.000079,  32.093
   952.0,0.028907,0.017953,0.231097,0.000079,  32.091
   953.0,0.028857,0.017920,0.232082,0.000065,  32.092
   954.0,0.028797,0.017899,0.232162,0.000143,  32.093
   955.0,0.028731,0.017843,0.231903,0.000090,  32.091
   956.0,0.028673,0.017801,0.231359,0.000101,  32.092
   957.0,0.028611,0.017769,0.230951,0.000076,  32.075
   958.0,0.028515,0.017721,0.230223,0.000101,  32.062
   959.0,0.028457,0.017687,0.229829,0.000090,  32.051
   960.0,0.028403,0.017651,0.229031,0.000104,  32.034
   961.0,0.028316,0.017606,0.227356,0.000129,  32.018
   962.0,0.028262,0.017555,0.227112,0.000090,  32.003
   963.0,0.028211,0.017510,0.227285,0.000118,  31.990
   964.0,0.028149,0.017468,0.227092,0.000076,  31.987
   965.0,0.028086,0.017430,0.226474,0.000051,  31.980
   966.0,0.027995,0.017396,0.225966,0.000051,  31.979
   967.0,0.027929,0.017342,0.225503,0.000079,  31.980
   968.0,0.027845,0.017302,0.224802,0.000079,  31.980
   969.0,0.027770,0.017266,0.224274,0.000090,  31.988
   970.0,0.027720,0.017235,0.223831,0.000115,  31.991
   971.0,0.027670,0.017196,0.223500,0.000090,  32.000
   972.0,0.027611,0.017162,0.222998,0.000129,  32.009
   973.0,0.027549,0.017111,0.222437,0.000168,  32.016
   974.0,0.027463,0.017058,0.221830,0.000115,  32.029
   975.0,0.027413,0.017021,0.221142,0.000107,  32.040
   976.0,0.027330,0.016989,0.220449,0.000132,  32.047
   977.0,0.027276,0.016957,0.220163,0.000118,  32.058
   978.0,0.027202,0.016929,0.219715,0.000118,  32.065
   979.0,0.027119,0.016882,0.219131,0.000132,  32.066
   980.0,0.027057,0.016843,0.218397,0.000118,  32.074
   981.0,0.026998,0.016793,0.218007,0.000068,  32.080
   982.0,0.026912,0.016733,0.217471,0.000107,  32.085
   983.0,0.026818,0.016666,0.216805,0.000093,  32.088
   984.0,0.026735,0.016618,0.215928,0.000054,  32.076
   985.0,0.026673,0.016565,0.215625,0.000093,  32.082
   986.0,0.026596,0.016541,0.215290,0.000157,  32.076
   987.0,0.026509,0.016491,0.214501,0.000090,  32.074
   988.0,0.026436,0.016441,0.213665,0.000115,  32.058
   989.0,0.026398,0.016414,0.213383,0.000129,  32.046
   990.0,0.026308,0.016365,0.212714,0.000115,  32.027
   991.0,0.026242,0.016303,0.212058,0.000129,  32.016
   992.0,0.026148,0.016250,0.211429,0.000079,  31.995
   993.0,0.026074,0.016206,0.210806,0.000065,  31.977
   994.0,0.026000,0.016168,0.210193,0.000079,  31.966
   995.0,0.025938,0.016137,0.209786,0.000093,  31.936
   996.0,0.025871,0.016089,0.209156,0.000079,  31.916
   997.0,0.025829,0.016057,0.208431,0.000118,  31.897
   998.0,0.025752,0.016023,0.207891,0.000079,  31.871
   999.0,0.025694,0.015977,0.207292,0.000079,  31.846
  1000.0,0.025616,0.015914,0.206776,0.000079,  31.835
  1001.0,0.025528,0.015874,0.206197,0.000104,  31.822
  1002.0,0.025459,0.015830,0.205763,0.000118,  31.822
  1003.0,0.025381,0.015778,0.205229,0.000118,  31.824
  1004.0,0.025292,0.015721,0.204573,0.000118,  31.826
  1005.0,0.025230,0.015680,0.203764,0.000118,  31.833
  1006.0,0.025144,0.015632,0.200795,0.000132,  31.846
  1007.0,0.025098,0.015593,0.201994,0.000132,  31.862
  1008.0,0.025024,0.015558,0.202001,0.000121,  31.882
  1009.0,0.024934,0.015498,0.201653,0.000146,  31.895
  1010.0,0.024853,0.015438,0.201345,0.000107,  31.908
  1011.0,0.024771,0.015409,0.200523,0.000121,  31.916
  1012.0,0.024685,0.015368,0.199896,0.000082,  31.934
  1013.0,0.024624,0.015326,0.199439,0.000057,  31.941
  1014.0,0.024546,0.015282,0.198741,0.000093,  31.951
  1015.0,0.024468,0.015216,0.198086,0.000107,  31.965
  1016.0,0.024387,0.015170,0.197351,0.000171,  31.970
  1017.0,0.024301,0.015133,0.196776,0.000121,  31.988
  1018.0,0.024247,0.015084,0.196113,0.000135,  31.998
  1019.0,0.024181,0.015043,0.195308,0.000121,  32.014
  1020.0,0.024100,0.015001,0.195067,0.000082,  32.020
  1021.0,0.024035,0.014962,0.194525,0.000132,  32.038
  1022.0,0.023933,0.014906,0.193846,0.000146,  32.049
  1023.0,0.023852,0.014850,0.193207,0.000132,  32.060
  1024.0,0.023779,0.014815,0.192581,0.000146,  32.071
  1025.0,0.023693,0.014753,0.191726,0.000107,  32.088
  1026.0,0.023621,0.014705,0.191278,0.000146,  32.096
  1027.0,0.023523,0.014642,0.190771,0.000107,  32.114
  1028.0,0.023426,0.014583,0.190127,0.000121,  32.126
  1029.0,0.023365,0.014537,0.189592,0.000096,  32.138
  1030.0,0.023279,0.014498,0.188989,0.000096,  32.148
  1031.0,0.023173,0.014446,0.187112,0.000096,  32.153
  1032.0,0.023097,0.014373,0.186679,0.000029,  32.161
  1033.0,0.023027,0.014320,0.186604,0.000082,  32.168
  1034.0,0.022954,0.014274,0.186112,0.000121,  32.178
  1035.0,0.022869,0.014219,0.185523,0.000146,  32.180
  1036.0,0.022775,0.014183,0.185013,0.000121,  32.180
  1037.0,0.022710,0.014133,0.184512,0.000135,  32.183
  1038.0,0.022604,0.014083,0.183917,0.000135,  32.186
  1039.0,0.022505,0.014020,0.182966,0.000149,  32.188
  1040.0,0.022424,0.013953,0.182286,0.000149,  32.190
  1041.0,0.022319,0.013886,0.179765,0.000135,  32.199
  1042.0,0.022254,0.013834,0.180318,0.000110,  32.196
  1043.0,0.022160,0.013786,0.180005,0.000071,  32.195
  1044.0,0.022060,0.013732,0.179453,0.000057,  32.207
  1045.0,0.021984,0.013669,0.178940,0.000096,  32.212
  1046.0,0.021880,0.013599,0.178257,0.000132,  32.220
  1047.0,0.021771,0.013523,0.177291,0.000121,  32.221
  1048.0,0.021684,0.013473,0.176582,0.000107,  32.226
  1049.0,0.021575,0.013413,0.175780,0.000071,  32.224
  1050.0,0.021487,0.013346,0.174801,0.000054,  32.223
  1051.0,0.021407,0.013281,0.174105,0.000015,  32.221
  1052.0,0.021306,0.013213,0.173195,0.000093,  32.208
  1053.0,0.021225,0.013168,0.172549,0.000051,  32.206
  1054.0,0.021113,0.013097,0.171839,0.000040,  32.192
  1055.0,0.021008,0.013032,0.171110,0.000051,  32.181
  1056.0,0.020928,0.012978,0.170374,0.000129,  32.168
  1057.0,0.020828,0.012912,0.169620,0.000015,  32.154
  1058.0,0.020727,0.012860,0.168840,0.000015,  32.136
  1059.0,0.020638,0.012797,0.168098,0.000001,  32.125
  1060.0,0.020534,0.012734,0.167265,0.000118,  32.110
  1061.0,0.020446,0.012680,0.166453,0.000065,  32.095
  1062.0,0.020357,0.012629,0.165927,0.000026,  32.083
  1063.0,0.020261,0.012573,0.162509,0.000090,  32.075
  1064.0,0.020181,0.012526,0.163595,0.000090,  32.055
  1065.0,0.020088,0.012468,0.163346,0.000040,  32.041
  1066.0,0.019996,0.012418,0.162823,0.000076,  32.029
  1067.0,0.019912,0.012373,0.161938,0.000012,  32.014
  1068.0,0.019839,0.012306,0.161461,0.000065,  31.995
  1069.0,0.019759,0.012247,0.160687,0.000012,  31.998
  1070.0,0.019654,0.012182,0.159762,-0.000027,  31.994
  1071.0,0.019562,0.012131,0.159099,0.000012,  31.991
  1072.0,0.019471,0.012074,0.158732,-0.000027,  31.993
  1073.0,0.019367,0.012027,0.158008,0.000051,  31.992
  1074.0,0.019287,0.011958,0.157114,0.000087,  31.991
  1075.0,0.019183,0.011895,0.156303,0.000062,  31.994
  1076.0,0.019102,0.011832,0.155671,0.000048,  31.995
  1077.0,0.019025,0.011782,0.154898,0.000037,  32.002
  1078.0,0.018937,0.011724,0.154305,0.000076,  31.996
  1079.0,0.018849,0.011657,0.153617,0.000037,  31.988
  1080.0,0.018761,0.011605,0.152892,-0.000027,  31.997
  1081.0,0.018661,0.011557,0.152026,-0.000002,  31.991
  1082.0,0.018565,0.011527,0.151490,0.000048,  31.981
  1083.0,0.018481,0.011479,0.150944,0.000062,  31.980
  1084.0,0.018413,0.011426,0.150215,0.000023,  31.977
  1085.0,0.018335,0.011368,0.149645,0.000037,  31.983
  1086.0,0.018247,0.011313,0.148936,0.000037,  31.985
  1087.0,0.018161,0.011263,0.148002,0.000037,  31.983
  1088.0,0.018065,0.011207,0.147453,0.000065,  31.982
  1089.0,0.017984,0.011163,0.147016,0.000093,  31.974
  1090.0,0.017908,0.011113,0.146381,0.000079,  31.965
  1091.0,0.017821,0.011083,0.145860,0.000079,  31.962
  1092.0,0.017728,0.011017,0.144759,0.000129,  31.954
  1093.0,0.017649,0.010958,0.143971,0.000048,  31.960
  1094.0,0.017556,0.010906,0.143622,0.000076,  31.962
  1095.0,0.017465,0.010841,0.142827,0.000051,  31.964
  1096.0,0.017361,0.010772,0.142172,0.000051,  31.969
  1097.0,0.017252,0.010711,0.141458,0.000090,  31.970
  1098.0,0.017169,0.010664,0.140796,0.000076,  31.967
  1099.0,0.017086,0.010616,0.140083,0.000012,  31.958
  1100.0,0.017006,0.010546,0.139347,0.000062,  31.959
  1101.0,0.016926,0.010498,0.138730,0.000009,  31.967
  1102.0,0.016852,0.010457,0.137973,0.000037,  31.974
  1103.0,0.016785,0.010401,0.137527,0.000065,  31.972
  1104.0,0.016694,0.010352,0.136786,0.000079,  31.975
  1105.0,0.016593,0.010296,0.136218,0.000026,  31.974
  1106.0,0.016506,0.010236,0.135598,0.000065,  31.975
  1107.0,0.016427,0.010193,0.135055,0.000051,  31.976
  1108.0,0.016343,0.010142,0.134318,0.000079,  31.966
  1109.0,0.016251,0.010074,0.133817,0.000026,  31.956
  1110.0,0.016156,0.010019,0.133257,0.000026,  31.950
  1111.0,0.016075,0.009947,0.132289,0.000090,  31.941
  1112.0,0.015976,0.009904,0.131573,0.000065,  31.937
  1113.0,0.015896,0.009851,0.130925,0.000040,  31.936
  1114.0,0.015825,0.009797,0.130338,-0.000013,  31.934
  1115.0,0.015736,0.009763,0.129702,0.000012,  31.937
  1116.0,0.015637,0.009702,0.128968,0.000065,  31.931
  1117.0,0.015561,0.009637,0.127221,0.000051,  31.942
  1118.0,0.015466,0.009585,0.126868,0.000051,  31.939
  1119.0,0.015397,0.009533,0.126650,0.000090,  31.941
  1120.0,0.015310,0.009471,0.126167,0.000051,  31.947
  1121.0,0.015201,0.009422,0.125512,0.000101,  31.950
  1122.0,0.015115,0.009364,0.125065,0.000076,  31.944
  1123.0,0.015031,0.009306,0.124492,0.000051,  31.945
  1124.0,0.014939,0.009259,0.123896,0.000076,  31.941
  1125.0,0.014879,0.009215,0.123156,0.000062,  31.939
  1126.0,0.014795,0.009154,0.122520,-0.000041,  31.930
  1127.0,0.014711,0.009096,0.121830,0.000023,  31.931
  1128.0,0.014635,0.009054,0.121125,0.000037,  31.923
  1129.0,0.014564,0.009005,0.120417,0.000101,  31.937
  1130.0,0.014472,0.008951,0.119805,0.000062,  31.943
  1131.0,0.014388,0.008896,0.119428,0.000023,  31.951
  1132.0,0.014300,0.008837,0.118792,0.000062,  31.948
  1133.0,0.014227,0.008798,0.118123,0.000037,  31.960
  1134.0,0.014152,0.008757,0.117615,0.000051,  31.967
  1135.0,0.014077,0.008718,0.116837,0.000037,  31.965
  1136.0,0.014022,0.008662,0.116225,0.000037,  31.969
  1137.0,0.013950,0.008603,0.115729,0.000037,  31.968
  1138.0,0.013862,0.008560,0.114884,0.000023,  31.967
  1139.0,0.013798,0.008529,0.114444,0.000037,  31.965
  1140.0,0.013715,0.008476,0.114121,-0.000027,  31.961
  1141.0,0.013623,0.008424,0.113315,-0.000027,  31.961
  1142.0,0.013556,0.008385,0.112748,-0.000027,  31.967
  1143.0,0.013472,0.008340,0.112019,-0.000002,  31.970
  1144.0,0.013401,0.008288,0.111502,-0.000002,  31.976
  1145.0,0.013333,0.008237,0.110647,0.000012,  31.978
  1146.0,0.013252,0.008183,0.110259,-0.000002,  31.985
  1147.0,0.013177,0.008140,0.109720,0.000023,  31.975
  1148.0,0.013093,0.008072,0.109268,-0.000016,  31.973
  1149.0,0.013029,0.008035,0.108569,0.000023,  31.969
  1150.0,0.012953,0.007990,0.108051,0.000076,  31.970
  1151.0,0.012869,0.007942,0.107480,0.000023,  31.977
  1152.0,0.012778,0.007899,0.106721,0.000037,  31.970
  1153.0,0.012703,0.007848,0.103114,-0.000027,  31.982
  1154.0,0.012643,0.007790,0.104904,0.000026,  31.986
  1155.0,0.012572,0.007734,0.104717,-0.000002,  31.987
  1156.0,0.012488,0.007692,0.104209,-0.000027,  31.979
  1157.0,0.012409,0.007646,0.103831,-0.000041,  31.969
  1158.0,0.012334,0.007611,0.103285,-0.000041,  31.960
  1159.0,0.012247,0.007553,0.102629,0.000023,  31.951
  1160.0,0.012164,0.007495,0.101793,0.000009,  31.946
  1161.0,0.012093,0.007455,0.101283,0.000048,  31.944
  1162.0,0.012036,0.007414,0.100725,-0.000005,  31.937
  1163.0,0.011972,0.007361,0.100254,0.000009,  31.935
  1164.0,0.011880,0.007314,0.099632,0.000034,  31.928
  1165.0,0.011785,0.007245,0.099005,-0.000019,  31.925
  1166.0,0.011715,0.007199,0.098214,-0.000033,  31.916
  1167.0,0.011639,0.007150,0.097547,-0.000005,  31.905
  1168.0,0.011580,0.007121,0.097118,0.000020,  31.896
  1169.0,0.011524,0.007073,0.096495,-0.000044,  31.878
  1170.0,0.011456,0.007020,0.095981,0.000009,  31.858
  1171.0,0.011396,0.006986,0.095149,-0.000030,  31.836
  1172.0,0.011332,0.006939,0.094707,-0.000058,  31.826
  1173.0,0.011260,0.006905,0.094167,-0.000058,  31.809
  1174.0,0.011197,0.006859,0.093858,-0.000044,  31.794
  1175.0,0.011129,0.006820,0.093282,-0.000044,  31.783
  1176.0,0.011055,0.006784,0.092688,-0.000044,  31.758
  1177.0,0.010976,0.006736,0.092048,-0.000082,  31.744
  1178.0,0.010899,0.006691,0.091605,-0.000019,  31.728
  1179.0,0.010823,0.006642,0.090934,-0.000019,  31.708
  1180.0,0.010767,0.006578,0.090505,-0.000058,  31.689
  1181.0,0.010694,0.006532,0.089814,-0.000019,  31.690
  1182.0,0.010622,0.006499,0.089192,-0.000058,  31.692
  1183.0,0.010546,0.006457,0.088651,-0.000096,  31.692
  1184.0,0.010478,0.006406,0.088307,-0.000072,  31.699
  1185.0,0.010410,0.006345,0.087775,-0.000033,  31.710
  1186.0,0.010343,0.006314,0.087208,-0.000019,  31.718
  1187.0,0.010271,0.006270,0.085560,-0.000033,  31.724
  1188.0,0.010211,0.006220,0.085360,-0.000019,  31.727
  1189.0,0.010142,0.006185,0.085425,-0.000019,  31.729
  1190.0,0.010094,0.006156,0.085121,-0.000072,  31.740
  1191.0,0.010038,0.006122,0.084744,-0.000044,  31.743
  1192.0,0.009974,0.006082,0.082423,-0.000005,  31.744
  1193.0,0.009917,0.006053,0.082469,-0.000030,  31.756
  1194.0,0.009865,0.006022,0.082912,-0.000054,  31.755
  1195.0,0.009821,0.005993,0.082954,-0.000068,  31.763
  1196.0,0.009765,0.005960,0.082797,-0.000068,  31.769
  1197.0,0.009720,0.005917,0.082286,-0.000058,  31.769
  1198.0,0.009660,0.005881,0.081758,-0.000019,  31.777
  1199.0,0.009603,0.005849,0.081023,-0.000044,  31.785
  1200.0,0.009531,0.005807,0.080781,-0.000030,  31.792
  1201.0,0.009463,0.005761,0.080425,-0.000044,  31.799
  1202.0,0.009400,0.005732,0.079971,-0.000044,  31.810
  1203.0,0.009344,0.005688,0.079604,-0.000044,  31.819
  1204.0,0.009284,0.005654,0.079304,-0.000082,  31.831
  1205.0,0.009226,0.005627,0.078896,-0.000030,  31.839
  1206.0,0.009177,0.005596,0.078362,-0.000044,  31.841
  1207.0,0.009113,0.005545,0.077736,-0.000054,  31.840
  1208.0,0.009070,0.005508,0.076806,-0.000072,  31.835
  1209.0,0.009018,0.005480,0.076369,-0.000058,  31.825
  1210.0,0.008961,0.005446,0.075683,-0.000058,  31.811
  1211.0,0.008909,0.005429,0.075875,-0.000096,  31.810
  1212.0,0.008841,0.005397,0.075377,-0.000093,  31.799
  1213.0,0.008801,0.005352,0.075089,-0.000110,  31.798
  1214.0,0.008737,0.005330,0.074898,-0.000058,  31.788
  1215.0,0.008695,0.005295,0.074636,-0.000019,  31.781
  1216.0,0.008648,0.005248,0.074094,-0.000019,  31.777
  1217.0,0.008583,0.005213,0.073692,-0.000005,  31.782
  1218.0,0.008531,0.005166,0.073334,-0.000044,  31.780
  1219.0,0.008466,0.005140,0.072871,0.000009,  31.782
  1220.0,0.008422,0.005107,0.072562,-0.000058,  31.792
  1221.0,0.008370,0.005062,0.070159,-0.000072,  31.795
  1222.0,0.008325,0.005043,0.071078,-0.000047,  31.805
  1223.0,0.008275,0.005018,0.071066,-0.000096,  31.811
  1224.0,0.008206,0.004974,0.070847,-0.000016,  31.823
  1225.0,0.008159,0.004939,0.070491,-0.000005,  31.827
  1226.0,0.008085,0.004904,0.070155,-0.000005,  31.829
  1227.0,0.008025,0.004865,0.069851,-0.000019,  31.837
  1228.0,0.007985,0.004833,0.069490,-0.000041,  31.841
  1229.0,0.007919,0.004794,0.069057,-0.000019,  31.845
  1230.0,0.007883,0.004763,0.068580,-0.000019,  31.843
  1231.0,0.007843,0.004736,0.068030,-0.000044,  31.843
  1232.0,0.007794,0.004696,0.067844,-0.000058,  31.838
  1233.0,0.007742,0.004660,0.067564,-0.000019,  31.843
  1234.0,0.007698,0.004640,0.067091,-0.000019,  31.829
  1235.0,0.007650,0.004619,0.066830,-0.000058,  31.823
  1236.0,0.007591,0.004583,0.066387,-0.000058,  31.813
  1237.0,0.007538,0.004562,0.065856,-0.000019,  31.806
  1238.0,0.007494,0.004529,0.064213,-0.000072,  31.799
  1239.0,0.007440,0.004482,0.064637,-0.000058,  31.800
  1240.0,0.007395,0.004447,0.064562,-0.000019,  31.797
  1241.0,0.007350,0.004431,0.064124,-0.000072,  31.790
  1242.0,0.007309,0.004410,0.063817,-0.000072,  31.788
  1243.0,0.007276,0.004386,0.063530,-0.000072,  31.772
  1244.0,0.007232,0.004369,0.063439,-0.000096,  31.768
  1245.0,0.007191,0.004346,0.063124,-0.000019,  31.764
  1246.0,0.007150,0.004323,0.062663,-0.000019,  31.760
  1247.0,0.007107,0.004299,0.062311,-0.000019,  31.758
  1248.0,0.007053,0.004268,0.062087,-0.000019,  31.753
  1249.0,0.006996,0.004231,0.061726,-0.000019,  31.750
  1250.0,0.006943,0.004193,0.061310,0.000009,  31.757
  1251.0,0.006891,0.004170,0.061039,-0.000044,  31.750
  1252.0,0.006839,0.004131,0.060389,-0.000033,  31.714
  1253.0,0.006801,0.004088,0.060171,-0.000019,  31.699
  1254.0,0.006748,0.004077,0.059858,-0.000019,  31.679
  1255.0,0.006692,0.004035,0.059388,-0.000058,  31.666
  1256.0,0.006655,0.004014,0.059076,-0.000058,  31.653
  1257.0,0.006626,0.003994,0.058797,-0.000072,  31.651
  1258.0,0.006589,0.003960,0.058541,-0.000096,  31.636
  1259.0,0.006553,0.003920,0.058214,0.000006,  31.637
  1260.0,0.006509,0.003905,0.057811,-0.000033,  31.646
  1261.0,0.006465,0.003862,0.057399,-0.000058,  31.649
  1262.0,0.006407,0.003842,0.057121,-0.000033,  31.664
  1263.0,0.006366,0.003809,0.056582,-0.000072,  31.668
  1264.0,0.006332,0.003790,0.056509,-0.000058,  31.674
  1265.0,0.006303,0.003773,0.056000,-0.000072,  31.688
  1266.0,0.006258,0.003745,0.055752,-0.000096,  31.704
  1267.0,0.006201,0.003721,0.055330,-0.000058,  31.717
  1268.0,0.006173,0.003694,0.055149,-0.000058,  31.731
  1269.0,0.006127,0.003672,0.054828,-0.000058,  31.747
  1270.0,0.006102,0.003657,0.054283,-0.000072,  31.762
  1271.0,0.006045,0.003640,0.054143,-0.000096,  31.784
  1272.0,0.005990,0.003610,0.053780,-0.000044,  31.805
  1273.0,0.005945,0.003570,0.052390,-0.000044,  31.813
  1274.0,0.005900,0.003542,0.052672,-0.000058,  31.822
  1275.0,0.005884,0.003519,0.052736,0.000009,  31.847
  1276.0,0.005850,0.003488,0.052272,-0.000019,  31.853
  1277.0,0.005817,0.003467,0.052059,-0.000019,  31.852
  1278.0,0.005771,0.003427,0.051828,-0.000019,  31.859
  1279.0,0.005730,0.003412,0.051705,-0.000072,  31.860
  1280.0,0.005685,0.003389,0.051166,-0.000008,  31.862
  1281.0,0.005649,0.003372,0.050959,-0.000047,  31.862
  1282.0,0.005604,0.003359,0.050516,-0.000019,  31.865
  1283.0,0.005578,0.003327,0.050264,-0.000019,  31.860
  1284.0,0.005530,0.003303,0.050045,-0.000058,  31.862
  1285.0,0.005491,0.003276,0.049932,-0.000072,  31.852
  1286.0,0.005467,0.003260,0.048208,-0.000096,  31.841
  1287.0,0.005422,0.003225,0.048193,-0.000033,  31.844
  1288.0,0.005361,0.003205,0.048504,-0.000019,  31.837
  1289.0,0.005322,0.003163,0.048461,-0.000072,  31.829
  1290.0,0.005284,0.003140,0.048231,-0.000047,  31.819
  1291.0,0.005251,0.003119,0.047674,-0.000047,  31.818
  1292.0,0.005226,0.003106,0.047606,-0.000061,  31.815
  1293.0,0.005179,0.003082,0.047376,-0.000072,  31.810
  1294.0,0.005155,0.003060,0.047112,-0.000033,  31.801
  1295.0,0.005126,0.003049,0.046804,-0.000047,  31.798
  1296.0,0.005078,0.003010,0.046489,-0.000019,  31.799
  1297.0,0.005053,0.002988,0.046260,-0.000061,  31.797
  1298.0,0.005016,0.002967,0.045945,-0.000047,  31.801
  1299.0,0.004965,0.002935,0.045491,0.000006,  31.796
  1300.0,0.004920,0.002901,0.045337,-0.000061,  31.780
  1301.0,0.004882,0.002881,0.045015,-0.000124,  31.766
  1302.0,0.004840,0.002858,0.044894,-0.000047,  31.756
  1303.0,0.004815,0.002851,0.044448,-0.000050,  31.743
  1304.0,0.004769,0.002828,0.044232,-0.000075,  31.729
  1305.0,0.004739,0.002821,0.043905,-0.000061,  31.713
  1306.0,0.004723,0.002799,0.043675,-0.000008,  31.694
  1307.0,0.004682,0.002782,0.043554,-0.000033,  31.678
  1308.0,0.004645,0.002759,0.043216,-0.000047,  31.653
  1309.0,0.004627,0.002737,0.043051,-0.000085,  31.619
  1310.0,0.004605,0.002728,0.042674,-0.000047,  31.588
  1311.0,0.004582,0.002716,0.042457,-0.000061,  31.578
  1312.0,0.004552,0.002700,0.042065,-0.000047,  31.568
  1313.0,0.004510,0.002677,0.042048,-0.000061,  31.572
  1314.0,0.004478,0.002646,0.041564,-0.000047,  31.573
  1315.0,0.004422,0.002626,0.041498,-0.000047,  31.567
  1316.0,0.004380,0.002597,0.041113,-0.000075,  31.572
  1317.0,0.004357,0.002582,0.040864,-0.000075,  31.576
  1318.0,0.004335,0.002565,0.040595,-0.000061,  31.576
  1319.0,0.004314,0.002543,0.040401,-0.000099,  31.591
  1320.0,0.004282,0.002528,0.040129,-0.000124,  31.591
  1321.0,0.004229,0.002495,0.039922,-0.000138,  31.595
  1322.0,0.004204,0.002469,0.039591,-0.000138,  31.599
  1323.0,0.004182,0.002453,0.039261,-0.000085,  31.602
  1324.0,0.004161,0.002442,0.039077,-0.000113,  31.608
  1325.0,0.004120,0.002405,0.038711,-0.000152,  31.616
  1326.0,0.004085,0.002370,0.038527,-0.000113,  31.617
  1327.0,0.004072,0.002383,0.038248,-0.000102,  31.615
  1328.0,0.004041,0.002369,0.038083,-0.000075,  31.601
  1329.0,0.004007,0.002351,0.037972,-0.000089,  31.591
  1330.0,0.003972,0.002330,0.037807,-0.000075,  31.564
  1331.0,0.003950,0.002314,0.037601,-0.000036,  31.545
  1332.0,0.003916,0.002315,0.037395,-0.000061,  31.546
  1333.0,0.003907,0.002298,0.037419,-0.000047,  31.543
  1334.0,0.003900,0.002285,0.034207,-0.000089,  31.552
  1335.0,0.003890,0.002274,0.035757,-0.000075,  31.565
  1336.0,0.003860,0.002258,0.036344,-0.000075,  31.580
  1337.0,0.003838,0.002230,0.036317,-0.000075,  31.602
  1338.0,0.003801,0.002205,0.036112,-0.000085,  31.629
  1339.0,0.003763,0.002182,0.036022,-0.000127,  31.645
  1340.0,0.003739,0.002170,0.035765,-0.000102,  31.671
  1341.0,0.003709,0.002154,0.035549,-0.000138,  31.691
  1342.0,0.003675,0.002149,0.035040,-0.000099,  31.693
  1343.0,0.003660,0.002135,0.035045,-0.000127,  31.704
  1344.0,0.003641,0.002127,0.034778,-0.000152,  31.712
  1345.0,0.003596,0.002117,0.034624,-0.000127,  31.718
  1346.0,0.003589,0.002100,0.034493,-0.000089,  31.722
  1347.0,0.003571,0.002080,0.034350,-0.000099,  31.729
  1348.0,0.003537,0.002057,0.034011,-0.000113,  31.731
  1349.0,0.003515,0.002047,0.033910,-0.000152,  31.735
  1350.0,0.003497,0.002033,0.033789,-0.000099,  31.743
  1351.0,0.003483,0.002036,0.033460,-0.000113,  31.747
  1352.0,0.003473,0.002024,0.033442,-0.000089,  31.760
  1353.0,0.003451,0.002016,0.033301,-0.000061,  31.770
  1354.0,0.003404,0.002003,0.033169,-0.000061,  31.777
  1355.0,0.003390,0.001987,0.032994,-0.000099,  31.788
  1356.0,0.003367,0.001978,0.032778,-0.000085,  31.796
  1357.0,0.003361,0.001957,0.032801,-0.000099,  31.802
  1358.0,0.003342,0.001951,0.032689,-0.000075,  31.818
  1359.0,0.003336,0.001937,0.032465,-0.000099,  31.826
  1360.0,0.003318,0.001928,0.032082,-0.000099,  31.832
  1361.0,0.003307,0.001921,0.032042,-0.000085,  31.843
  1362.0,0.003288,0.001913,0.031993,-0.000113,  31.852
  1363.0,0.003245,0.001897,0.031952,-0.000099,  31.859
  1364.0,0.003224,0.001886,0.031975,-0.000124,  31.868
  1365.0,0.003205,0.001875,0.031813,-0.000061,  31.864
  1366.0,0.003190,0.001865,0.031682,0.000017,  31.862
  1367.0,0.003163,0.001848,0.031510,-0.000022,  31.862
  1368.0,0.003142,0.001831,0.030947,-0.000085,  31.856
  1369.0,0.003111,0.001803,0.030322,-0.000058,  31.858
  1370.0,0.003097,0.001786,0.030540,-0.000110,  31.862
  1371.0,0.003062,0.001772,0.030924,-0.000096,  31.860
  1372.0,0.003028,0.001759,0.030711,-0.000072,  31.864
  1373.0,0.003015,0.001740,0.030540,-0.000064,  31.868
  1374.0,0.002985,0.001728,0.030459,-0.000099,  31.870
  1375.0,0.002966,0.001707,0.030237,-0.000113,  31.868
  1376.0,0.002952,0.001714,0.029920,-0.000124,  31.872
  1377.0,0.002938,0.001701,0.030005,-0.000099,  31.873
  1378.0,0.002912,0.001684,0.029751,-0.000099,  31.874
  1379.0,0.002885,0.001668,0.029579,-0.000124,  31.877
  1380.0,0.002874,0.001658,0.029222,-0.000072,  31.883
  1381.0,0.002864,0.001652,0.029124,-0.000047,  31.887
  1382.0,0.002840,0.001646,0.029063,-0.000072,  31.893
  1383.0,0.002812,0.001627,0.028787,-0.000085,  31.903
  1384.0,0.002795,0.001614,0.028419,-0.000124,  31.908
  1385.0,0.002784,0.001597,0.027810,-0.000072,  31.911
  1386.0,0.002769,0.001585,0.028209,-0.000099,  31.909
  1387.0,0.002756,0.001582,0.027774,-0.000124,  31.905
  1388.0,0.002749,0.001584,0.026788,-0.000085,  31.906
  1389.0,0.002735,0.001582,0.027756,-0.000033,  31.911
  1390.0,0.002715,0.001572,0.027735,-0.000019,  31.911
  1391.0,0.002704,0.001567,0.027757,-0.000110,  31.909
  1392.0,0.002685,0.001555,0.028137,-0.000058,  31.914
  1393.0,0.002663,0.001547,0.027811,-0.000058,  31.913
  1394.0,0.002653,0.001529,0.027875,-0.000110,  31.919
  1395.0,0.002640,0.001516,0.027632,-0.000096,  31.921
  1396.0,0.002614,0.001484,0.027471,-0.000096,  31.927
  1397.0,0.002592,0.001458,0.027310,-0.000085,  31.925
  1398.0,0.002548,0.001450,0.026926,-0.000110,  31.930
  1399.0,0.002524,0.001449,0.026611,-0.000110,  31.937
  1400.0,0.002507,0.001443,0.026582,-0.000096,  31.938
  1401.0,0.002490,0.001434,0.026483,-0.000058,  31.940
  1402.0,0.002466,0.001405,0.026192,-0.000072,  31.939
  1403.0,0.002461,0.001404,0.026063,-0.000124,  31.934
  1404.0,0.002438,0.001402,0.025780,-0.000058,  31.932
  1405.0,0.002436,0.001386,0.025894,-0.000061,  31.928
  1406.0,0.002420,0.001388,0.025764,-0.000085,  31.921
  1407.0,0.002413,0.001378,0.025704,-0.000047,  31.922
  1408.0,0.002388,0.001365,0.025502,-0.000085,  31.916
  1409.0,0.002368,0.001358,0.025373,-0.000085,  31.914
  1410.0,0.002354,0.001344,0.025306,-0.000085,  31.918
  1411.0,0.002353,0.001339,0.025134,-0.000099,  31.931
  1412.0,0.002319,0.001340,0.024933,-0.000047,  31.931
  1413.0,0.002295,0.001325,0.024843,-0.000085,  31.930
  1414.0,0.002279,0.001308,0.024683,-0.000124,  31.931
  1415.0,0.002268,0.001303,0.024330,-0.000085,  31.931
  1416.0,0.002272,0.001302,0.024261,-0.000061,  31.929
  1417.0,0.002257,0.001281,0.024191,-0.000085,  31.924
  1418.0,0.002254,0.001266,0.024252,-0.000089,  31.924
  1419.0,0.002224,0.001265,0.024053,-0.000152,  31.909
  1420.0,0.002208,0.001256,0.023780,-0.000099,  31.905
  1421.0,0.002205,0.001263,0.023742,-0.000085,  31.913
  1422.0,0.002180,0.001245,0.024066,-0.000124,  31.907
  1423.0,0.002172,0.001245,0.023735,-0.000085,  31.908
  1424.0,0.002150,0.001252,0.023535,-0.000085,  31.902
  1425.0,0.002127,0.001231,0.023335,-0.000124,  31.896
  1426.0,0.002117,0.001206,0.023085,-0.000085,  31.888
  1427.0,0.002102,0.001201,0.022885,-0.000047,  31.887
  1428.0,0.002083,0.001189,0.022775,-0.000072,  31.877
  1429.0,0.002056,0.001178,0.022727,-0.000124,  31.874
  1430.0,0.002053,0.001151,0.022546,-0.000124,  31.860
  1431.0,0.002041,0.001147,0.019143,-0.000110,  31.851
  1432.0,0.002035,0.001147,0.021227,-0.000113,  31.847
  1433.0,0.002020,0.001140,0.021657,-0.000138,  31.843
  1434.0,0.001989,0.001132,0.021809,-0.000110,  31.839
  1435.0,0.001979,0.001113,0.021940,-0.000099,  31.834
  1436.0,0.001972,0.001115,0.021932,-0.000085,  31.831
  1437.0,0.001978,0.001110,0.021902,-0.000075,  31.837
  1438.0,0.001972,0.001107,0.021693,-0.000075,  31.832
  1439.0,0.001960,0.001100,0.021674,-0.000089,  31.836
  1440.0,0.001957,0.001083,0.021726,-0.000061,  31.836
  1441.0,0.001937,0.001073,0.021497,-0.000061,  31.841
  1442.0,0.001930,0.001068,0.021387,-0.000047,  31.843
  1443.0,0.001903,0.001067,0.021208,-0.000085,  31.849
  1444.0,0.001887,0.001059,0.021199,-0.000061,  31.856
  1445.0,0.001888,0.001058,0.021140,-0.000138,  31.860
  1446.0,0.001870,0.001052,0.021181,-0.000124,  31.863
  1447.0,0.001858,0.001056,0.020971,-0.000047,  31.881
  1448.0,0.001844,0.001060,0.020942,-0.000047,  31.886
  1449.0,0.001837,0.001040,0.020812,-0.000047,  31.898
  1450.0,0.001833,0.001035,0.020763,-0.000033,  31.900
  1451.0,0.001822,0.001034,0.020693,-0.000047,  31.899
  1452.0,0.001804,0.001021,0.021055,-0.000033,  31.908
  1453.0,0.001796,0.001007,0.020736,-0.000061,  31.907
  1454.0,0.001767,0.000983,0.020616,-0.000061,  31.904
  1455.0,0.001747,0.000970,0.020328,-0.000036,  31.904
  1456.0,0.001735,0.000974,0.020269,-0.000061,  31.898
  1457.0,0.001729,0.000978,0.020130,-0.000047,  31.896
  1458.0,0.001709,0.000971,0.019952,-0.000061,  31.881
  1459.0,0.001696,0.000966,0.019893,-0.000075,  31.862
  1460.0,0.001685,0.000959,0.019605,-0.000075,  31.837
  1461.0,0.001674,0.000943,0.019635,-0.000085,  31.820
  1462.0,0.001682,0.000942,0.019586,-0.000099,  31.792
  1463.0,0.001655,0.000932,0.019388,-0.000061,  31.792
  1464.0,0.001649,0.000909,0.019270,-0.000075,  31.785
  1465.0,0.001639,0.000882,0.019042,-0.000152,  31.784
  1466.0,0.001616,0.000885,0.019073,-0.000113,  31.784
  1467.0,0.001594,0.000867,0.019044,-0.000141,  31.784
  1468.0,0.001578,0.000872,0.018936,-0.000127,  31.794
  1469.0,0.001575,0.000869,0.018580,-0.000141,  31.801
  1470.0,0.001561,0.000859,0.018659,-0.000152,  31.806
  1471.0,0.001556,0.000856,0.018541,-0.000113,  31.815
  1472.0,0.001564,0.000868,0.018472,-0.000113,  31.835
  1473.0,0.001557,0.000868,0.016502,-0.000124,  31.843
  1474.0,0.001557,0.000870,0.018026,-0.000110,  31.856
  1475.0,0.001552,0.000861,0.018224,-0.000061,  31.871
  1476.0,0.001545,0.000853,0.018244,-0.000061,  31.883
  1477.0,0.001509,0.000840,0.018214,-0.000124,  31.898
  1478.0,0.001514,0.000838,0.018235,-0.000138,  31.908
  1479.0,0.001523,0.000838,0.018365,-0.000113,  31.918
  1480.0,0.001510,0.000844,0.018216,-0.000075,  31.919
  1481.0,0.001508,0.000857,0.018296,-0.000138,  31.925
  1482.0,0.001480,0.000856,0.018087,-0.000058,  31.926
  1483.0,0.001486,0.000839,0.017918,-0.000124,  31.934
  1484.0,0.001478,0.000853,0.018118,-0.000085,  31.937
  1485.0,0.001476,0.000844,0.017919,-0.000047,  31.936
  1486.0,0.001472,0.000841,0.017840,-0.000099,  31.919
  1487.0,0.001453,0.000831,0.017880,-0.000085,  31.897
  1488.0,0.001454,0.000829,0.017920,-0.000085,  31.880
  1489.0,0.001443,0.000820,0.017792,-0.000085,  31.852
  1490.0,0.001419,0.000805,0.017693,-0.000061,  31.836
  1491.0,0.001413,0.000800,0.017684,-0.000061,  31.824
  1492.0,0.001399,0.000791,0.017487,-0.000047,  31.803
  1493.0,0.001389,0.000782,0.017310,-0.000033,  31.789
  1494.0,0.001363,0.000765,0.017242,-0.000061,  31.783
  1495.0,0.001344,0.000752,0.016955,-0.000113,  31.776
  1496.0,0.001341,0.000740,0.016889,-0.000075,  31.772
  1497.0,0.001329,0.000730,0.016839,-0.000075,  31.751
  1498.0,0.001316,0.000722,0.016741,-0.000089,  31.709
  1499.0,0.001294,0.000700,0.016494,-0.000089,  31.698
  1500.0,0.001283,0.000687,0.016496,-0.000075,  31.689
  1501.0,0.001273,0.000687,0.016507,-0.000089,  31.684
  1502.0,0.001278,0.000689,0.016479,-0.000116,  31.684
  1503.0,0.001267,0.000692,0.016450,-0.000141,  31.689
  1504.0,0.001242,0.000684,0.016212,-0.000089,  31.699
  1505.0,0.001232,0.000686,0.016064,-0.000075,  31.705
  1506.0,0.001224,0.000667,0.015859,-0.000099,  31.714
  1507.0,0.001209,0.000642,0.015732,-0.000127,  31.718
  1508.0,0.001193,0.000641,0.015605,-0.000152,  31.736
  1509.0,0.001185,0.000645,0.015507,-0.000127,  31.751
  1510.0,0.001190,0.000663,0.015527,-0.000166,  31.764
  1511.0,0.001202,0.000674,0.015586,-0.000152,  31.777
  1512.0,0.001215,0.000676,0.015704,-0.000138,  31.787
  1513.0,0.001196,0.000654,0.015597,-0.000138,  31.793
  1514.0,0.001184,0.000647,0.015281,-0.000099,  31.806
  1515.0,0.001181,0.000649,0.015331,-0.000127,  31.820
  1516.0,0.001174,0.000643,0.013261,-0.000152,  31.824
  1517.0,0.001163,0.000641,0.014289,-0.000127,  31.833
  1518.0,0.001145,0.000618,0.014792,-0.000127,  31.832
  1519.0,0.001129,0.000606,0.014960,-0.000152,  31.839
  1520.0,0.001123,0.000608,0.014891,-0.000089,  31.846
  1521.0,0.001115,0.000595,0.014804,-0.000102,  31.849
  1522.0,0.001116,0.000594,0.014657,-0.000166,  31.860
  1523.0,0.001125,0.000602,0.014580,-0.000127,  31.864
  1524.0,0.001111,0.000598,0.014540,-0.000152,  31.870
  1525.0,0.001100,0.000595,0.014393,-0.000102,  31.870
  1526.0,0.001097,0.000598,0.014246,-0.000116,  31.877
  1527.0,0.001100,0.000586,0.014208,-0.000180,  31.869
  1528.0,0.001104,0.000586,0.014099,-0.000141,  31.864
  1529.0,0.001089,0.000590,0.014178,-0.000113,  31.861
  1530.0,0.001077,0.000583,0.014267,-0.000113,  31.855
  1531.0,0.001066,0.000571,0.014199,-0.000127,  31.846
  1532.0,0.001061,0.000577,0.014061,-0.000166,  31.841
  1533.0,0.001054,0.000567,0.014071,-0.000141,  31.827
  1534.0,0.001050,0.000559,0.012720,-0.000141,  31.812
  1535.0,0.001038,0.000554,0.013729,-0.000166,  31.798
  1536.0,0.001034,0.000549,0.013837,-0.000141,  31.779
  1537.0,0.001027,0.000553,0.013779,-0.000141,  31.760
  1538.0,0.001018,0.000552,0.013847,-0.000166,  31.731
  1539.0,0.001028,0.000555,0.013838,-0.000152,  31.722
  1540.0,0.001012,0.000548,0.013877,-0.000152,  31.715
  1541.0,0.001013,0.000538,0.013808,-0.000141,  31.716
  1542.0,0.001014,0.000536,0.013877,-0.000141,  31.705
  1543.0,0.001011,0.000544,0.013779,-0.000127,  31.708
  1544.0,0.001014,0.000545,0.013671,-0.000113,  31.714
  1545.0,0.001012,0.000542,0.013701,-0.000113,  31.726
  1546.0,0.001013,0.000535,0.013692,-0.000124,  31.735
