Run Name,R ONLY .15
Run Date,05:34:37 PM   02-29-16
Method Name,15% isocratic
Export Format Version, 1.00
Method ID, 3053
Points/Second, 1.00
Number of Records,   1692
Offset from Run Start Time,00:00:00
Run End Time,00:28:17
Time,Second
QuadTec 1, (280.0 nm), AU
QuadTec 2, (260.0 nm), AU
Gradient Pump,<Not Selected>
QuadTec 3, (214.0 nm), AU
QuadTec 4, (405.0 nm), AU
Conductivity,mS/cm
Trace 6,<Not Available>
GP Pressure,<Not Selected>
Volume,<Not Selected>
Fraction,<Not Available>
Time,QuadTec 1,QuadTec 2,QuadTec 3,QuadTec 4,Conductivity
     0.0,-0.000709,-0.000325,0.000622,-0.000223,  88.425
     1.0,-0.000718,-0.000325,0.000763,-0.000223,  88.395
     2.0,-0.000698,-0.000313,0.000803,-0.000209,  88.373
     3.0,-0.000695,-0.000313,0.001004,-0.000209,  88.371
     4.0,-0.000695,-0.000310,0.001145,-0.000195,  88.372
     5.0,-0.004241,-0.000311,0.001297,-0.000195,  88.382
     6.0,0.000000,0.000000,0.001437,-0.000195,  88.388
     7.0,0.000000,0.000000,0.001211,-0.000146,  88.413
     8.0,0.000000,0.000000,0.000000,0.000000,  88.452
     9.0,0.000000,0.000000,0.000000,0.000000,  88.503
    10.0,-0.000022,0.000000,0.000000,0.000000,  88.560
    11.0,-0.000045,-0.000033,-0.000256,0.000000,  88.692
    12.0,-0.000068,-0.000058,-0.000521,0.000014,  88.769
    13.0,-0.000078,-0.000075,-0.000953,-0.000014,  88.839
    14.0,-0.000082,-0.000090,-0.001248,-0.000028,  88.894
    15.0,-0.000090,-0.000097,-0.001799,-0.000042,  88.971
    16.0,-0.000082,-0.000111,-0.001894,-0.000109,  89.086
    17.0,-0.000078,-0.000104,-0.002178,-0.000081,  89.128
    18.0,-0.000078,-0.000109,-0.002334,-0.000081,  89.158
    19.0,-0.000063,-0.000103,-0.002570,-0.000119,  89.183
    20.0,-0.000076,-0.000110,-0.002973,-0.000081,  89.179
    21.0,-0.000076,-0.000094,-0.002972,-0.000081,  89.173
    22.0,-0.000069,-0.000089,-0.002883,-0.000147,  89.160
    23.0,-0.000055,-0.000070,-0.003079,-0.000081,  89.137
    24.0,-0.000021,-0.000044,-0.003098,-0.000105,  89.114
    25.0,-0.000029,-0.000026,-0.003039,-0.000053,  89.089
    26.0,-0.000024,-0.000021,-0.003029,-0.000039,  89.058
    27.0,-0.000028,-0.000026,-0.003187,-0.000064,  89.028
    28.0,-0.000036,-0.000023,-0.003226,-0.000039,  88.994
    29.0,-0.000032,-0.000039,-0.003136,0.000000,  88.978
    30.0,-0.000027,-0.000046,-0.003254,-0.000025,  88.956
    31.0,-0.000032,-0.000027,-0.003224,-0.000039,  88.939
    32.0,-0.000019,-0.000035,-0.003165,-0.000053,  88.924
    33.0,-0.000019,-0.000024,-0.003185,-0.000003,  88.859
    34.0,-0.000024,-0.000030,-0.003243,-0.000014,  88.850
    35.0,-0.000016,-0.000022,-0.003185,-0.000028,  88.842
    36.0,-0.000021,-0.000021,-0.003294,-0.000014,  88.825
    37.0,-0.000016,-0.000031,-0.004841,-0.000014,  88.819
    38.0,-0.000016,-0.000019,-0.004656,-0.000039,  88.801
    39.0,-0.000004,-0.000008,-0.003804,-0.000039,  88.788
    40.0,-0.000007,-0.000013,-0.003333,-0.000039,  88.771
    41.0,-0.000008,-0.000012,-0.003362,-0.000064,  88.765
    42.0,0.000000,-0.000012,-0.003402,-0.000039,  88.751
    43.0,0.000003,-0.000023,-0.003195,-0.000064,  88.741
    44.0,-0.000010,-0.000012,-0.003294,-0.000028,  88.734
    45.0,-0.000005,-0.000015,-0.003214,-0.000028,  88.730
    46.0,-0.000001,-0.000017,-0.003273,0.000000,  88.736
    47.0,-0.000022,-0.000026,-0.003224,0.000011,  88.745
    48.0,-0.000024,-0.000028,-0.003292,-0.000039,  88.740
    49.0,-0.000012,-0.000028,-0.003361,-0.000078,  88.753
    50.0,-0.000021,-0.000024,-0.003676,-0.000039,  88.748
    51.0,-0.000016,-0.000030,-0.003577,-0.000025,  88.750
    52.0,-0.000006,-0.000031,-0.003479,-0.000042,  88.743
    53.0,-0.000017,-0.000026,-0.003665,-0.000014,  88.737
    54.0,-0.000022,-0.000031,-0.003793,-0.000064,  88.731
    55.0,-0.000022,-0.000016,-0.003852,-0.000025,  88.727
    56.0,-0.000013,-0.000009,-0.003606,-0.000025,  88.700
    57.0,-0.000011,-0.000011,-0.003567,-0.000025,  88.676
    58.0,-0.000011,-0.000011,-0.003518,-0.000039,  88.644
    59.0,0.000005,-0.000001,-0.003479,-0.000039,  88.609
    60.0,-0.000003,0.000005,-0.003292,-0.000039,  88.554
    61.0,0.000001,-0.000007,-0.003332,-0.000039,  88.481
    62.0,0.000010,-0.000011,-0.003372,-0.000064,  88.340
    63.0,-0.000007,0.000002,-0.003314,-0.000039,  88.221
    64.0,-0.000002,0.000010,-0.003089,-0.000039,  88.066
    65.0,0.000003,0.000009,-0.002885,-0.000064,  87.822
    66.0,-0.000010,0.000032,-0.002463,-0.000028,  87.536
    67.0,0.000014,0.000049,-0.002091,-0.000081,  87.225
    68.0,0.000034,0.000084,-0.001819,-0.000081,  86.809
    69.0,0.000049,0.000111,-0.001111,-0.000095,  86.259
    70.0,0.000065,0.000163,-0.000374,-0.000133,  85.672
    71.0,0.000108,0.000210,0.000373,-0.000133,  84.948
    72.0,0.000204,0.000269,0.001170,-0.000084,  84.120
    73.0,0.000270,0.000346,0.002337,-0.000147,  83.176
    74.0,0.000390,0.000470,0.003328,-0.000084,  82.109
    75.0,0.000487,0.000580,0.004892,-0.000067,  80.958
    76.0,0.000630,0.000674,0.005714,-0.000067,  79.676
    77.0,0.000662,0.000854,0.006861,0.000042,  78.298
    78.0,0.000779,0.000962,0.008021,0.000112,  76.852
    79.0,0.000912,0.001117,0.009174,0.000181,  75.314
    80.0,0.001001,0.001266,0.010147,0.000248,  73.686
    81.0,0.001111,0.001433,0.011218,0.000335,  72.046
    82.0,0.001132,0.001546,0.011921,0.000363,  70.388
    83.0,0.001288,0.001685,0.012652,0.000433,  68.730
    84.0,0.001365,0.001764,0.013158,0.000516,  67.010
    85.0,0.001399,0.001808,0.013422,0.000464,  65.302
    86.0,0.001439,0.001829,0.013625,0.000495,  63.657
    87.0,0.001491,0.001859,0.013706,0.000516,  62.010
    88.0,0.001509,0.001884,0.013551,0.000600,  60.403
    89.0,0.001460,0.001854,0.013533,0.000628,  58.803
    90.0,0.001426,0.001803,0.013269,0.000642,  57.271
    91.0,0.001433,0.001738,0.012985,0.000642,  55.819
    92.0,0.001345,0.001707,0.012588,0.000684,  54.386
    93.0,0.001293,0.001645,0.012248,0.000645,  53.016
    94.0,0.001274,0.001631,0.011750,0.000565,  51.690
    95.0,0.001225,0.001575,0.011408,0.000617,  50.434
    96.0,0.001242,0.001514,0.010892,0.000603,  49.203
    97.0,0.001202,0.001525,0.010520,0.000551,  48.027
    98.0,0.001164,0.001504,0.009812,0.000533,  46.903
    99.0,0.001134,0.001446,0.009453,0.000547,  45.815
   100.0,0.001133,0.001372,0.009093,0.000506,  44.783
   101.0,0.001156,0.001353,0.008480,0.000464,  43.798
   102.0,0.001123,0.001345,0.007979,0.000439,  42.838
   103.0,0.001093,0.001296,0.007366,0.000506,  41.919
   104.0,0.001088,0.001246,0.006979,0.000502,  41.064
   105.0,0.001080,0.001238,0.006460,0.000530,  40.226
   106.0,0.001021,0.001219,0.005891,0.000544,  39.426
   107.0,0.001029,0.001162,0.005442,0.000544,  38.658
   108.0,0.001029,0.001150,0.004895,0.000572,  37.930
   109.0,0.001025,0.001142,0.004567,0.000530,  37.224
   110.0,0.000977,0.001120,0.004039,0.000530,  36.544
   111.0,0.001018,0.001111,0.003663,0.000544,  35.919
   112.0,0.000984,0.001083,0.003127,0.000544,  35.306
   113.0,0.000976,0.001076,0.002771,0.000492,  34.715
   114.0,0.000973,0.001040,0.002097,0.000541,  34.147
   115.0,0.000996,0.001037,0.001783,0.000488,  33.604
   116.0,0.000996,0.001031,0.001070,0.000502,  33.090
   117.0,0.000995,0.001026,-0.000107,0.000527,  32.591
   118.0,0.000976,0.001007,0.000152,0.000530,  32.126
   119.0,0.000981,0.000996,0.000134,0.000583,  31.676
   120.0,0.000958,0.000980,-0.000189,0.000506,  31.236
   121.0,0.000936,0.000974,-0.000630,0.000467,  30.820
   122.0,0.000935,0.000966,-0.001251,0.000520,  30.434
   123.0,0.000932,0.000960,-0.001553,0.000520,  30.046
   124.0,0.000931,0.000930,-0.001847,0.000495,  29.689
   125.0,0.000947,0.000946,-0.002357,0.000533,  29.334
   126.0,0.000940,0.000949,-0.002659,0.000541,  29.006
   127.0,0.000928,0.000931,-0.002922,0.000516,  28.686
   128.0,0.000930,0.000935,-0.005095,0.000541,  28.377
   129.0,0.000930,0.000921,-0.005094,0.000516,  28.087
   130.0,0.000941,0.000927,-0.004622,0.000555,  27.810
   131.0,0.000937,0.000921,-0.004552,0.000544,  27.546
   132.0,0.000937,0.000918,-0.004815,0.000533,  27.295
   133.0,0.000933,0.000916,-0.005087,0.000544,  27.051
   134.0,0.000926,0.000907,-0.005485,0.000558,  26.821
   135.0,0.000922,0.000902,-0.005699,0.000572,  26.600
   136.0,0.000922,0.000891,-0.005708,0.000558,  26.389
   137.0,0.000915,0.000878,-0.006184,0.000572,  26.191
   138.0,0.000922,0.000885,-0.006494,0.000572,  25.992
   139.0,0.000919,0.000884,-0.006667,0.000572,  25.813
   140.0,0.000919,0.000870,-0.007026,0.000572,  25.638
   141.0,0.000908,0.000880,-0.007142,0.000572,  25.462
   142.0,0.000915,0.000877,-0.007452,0.000558,  25.306
   143.0,0.000922,0.000866,-0.007626,0.000572,  25.146
   144.0,0.000930,0.000878,-0.007790,0.000572,  24.999
   145.0,0.000922,0.000872,-0.008041,0.000586,  24.854
   146.0,0.000909,0.000874,-0.008427,0.000558,  24.721
   147.0,0.000922,0.000874,-0.008737,0.000572,  24.588
   148.0,0.000919,0.000866,-0.008832,0.000547,  24.461
   149.0,0.000919,0.000868,-0.008909,0.000547,  24.341
   150.0,0.000911,0.000858,-0.009015,0.000561,  24.226
   151.0,0.000908,0.000856,-0.009169,0.000586,  24.120
   152.0,0.000904,0.000850,-0.009332,0.000600,  24.010
   153.0,0.000904,0.000853,-0.009680,0.000614,  23.908
   154.0,0.000904,0.000856,-0.009718,0.000600,  23.815
   155.0,0.000922,0.000865,-0.009804,0.000586,  23.718
   156.0,0.000919,0.000870,-0.009938,0.000586,  23.631
   157.0,0.000922,0.000865,-0.010054,0.000586,  23.548
   158.0,0.000931,0.000874,-0.010121,0.000611,  23.465
   159.0,0.000922,0.000875,-0.010207,0.000572,  23.391
   160.0,0.000930,0.000867,-0.010226,0.000600,  23.318
   161.0,0.000922,0.000866,-0.010409,0.000586,  23.242
   162.0,0.000922,0.000858,-0.010679,0.000600,  23.179
   163.0,0.000934,0.000859,-0.010774,0.000586,  23.116
   164.0,0.000920,0.000855,-0.010899,0.000572,  23.050
   165.0,0.000916,0.000849,-0.010994,0.000600,  22.991
   166.0,0.000921,0.000849,-0.011119,0.000600,  22.928
   167.0,0.000925,0.000855,-0.011205,0.000586,  22.874
   168.0,0.000917,0.000845,-0.011320,0.000597,  22.827
   169.0,0.000905,0.000844,-0.011522,0.000650,  22.774
   170.0,0.000911,0.000849,-0.011474,0.000597,  22.723
   171.0,0.000910,0.000860,-0.011579,0.000611,  22.684
   172.0,0.000914,0.000847,-0.011694,0.000600,  22.641
   173.0,0.000914,0.000847,-0.011722,0.000600,  22.602
   174.0,0.000917,0.000838,-0.011885,0.000597,  22.565
   175.0,0.000925,0.000844,-0.011904,0.000572,  22.523
   176.0,0.000916,0.000847,-0.011933,0.000600,  22.491
   177.0,0.000936,0.000847,-0.012067,0.000586,  22.458
   178.0,0.000956,0.000854,-0.012010,0.000600,  22.426
   179.0,0.000951,0.000861,-0.012010,0.000614,  22.397
   180.0,0.000944,0.000870,-0.012134,0.000614,  22.369
   181.0,0.000951,0.000865,-0.012096,0.000614,  22.348
   182.0,0.000951,0.000867,-0.012038,0.000628,  22.323
   183.0,0.000955,0.000863,-0.012182,0.000642,  22.299
   184.0,0.000938,0.000880,-0.012230,0.000625,  22.277
   185.0,0.000947,0.000878,-0.012115,0.000639,  22.267
   186.0,0.000955,0.000875,-0.012134,0.000614,  22.243
   187.0,0.000947,0.000866,-0.012191,0.000614,  22.226
   188.0,0.000955,0.000865,-0.012258,0.000600,  22.208
   189.0,0.000959,0.000874,-0.012239,0.000614,  22.189
   190.0,0.000962,0.000862,-0.012287,0.000614,  22.163
   191.0,0.000962,0.000878,-0.012230,0.000614,  22.141
   192.0,0.000955,0.000876,-0.012344,0.000628,  22.126
   193.0,0.000955,0.000870,-0.012373,0.000653,  22.100
   194.0,0.000959,0.000865,-0.012306,0.000614,  22.080
   195.0,0.000955,0.000861,-0.012392,0.000614,  22.064
   196.0,0.000951,0.000859,-0.012498,0.000614,  22.049
   197.0,0.000955,0.000871,-0.012459,0.000614,  22.031
   198.0,0.000955,0.000880,-0.012603,0.000611,  22.012
   199.0,0.000962,0.000881,-0.012583,0.000628,  21.991
   200.0,0.000955,0.000868,-0.012670,0.000625,  21.979
   201.0,0.000951,0.000861,-0.012947,0.000600,  21.966
   202.0,0.000955,0.000870,-0.012746,0.000614,  21.958
   203.0,0.000962,0.000874,-0.012727,0.000600,  21.942
   204.0,0.000975,0.000881,-0.012669,0.000614,  21.940
   205.0,0.000966,0.000887,-0.012813,0.000600,  21.933
   206.0,0.000966,0.000880,-0.012832,0.000614,  21.929
   207.0,0.000966,0.000881,-0.012698,0.000614,  21.918
   208.0,0.000962,0.000868,-0.012708,0.000614,  21.917
   209.0,0.000955,0.000859,-0.012698,0.000625,  21.906
   210.0,0.000948,0.000865,-0.012851,0.000614,  21.890
   211.0,0.000948,0.000868,-0.013071,0.000625,  21.884
   212.0,0.000944,0.000867,-0.013195,0.000625,  21.868
   213.0,0.000940,0.000854,-0.013281,0.000625,  21.866
   214.0,0.000944,0.000860,-0.013080,0.000625,  21.862
   215.0,0.000940,0.000855,-0.013032,0.000586,  21.857
   216.0,0.000940,0.000853,-0.013089,0.000600,  21.852
   217.0,0.000940,0.000855,-0.013137,0.000600,  21.843
   218.0,0.000951,0.000863,-0.013758,0.000614,  21.832
   219.0,0.000951,0.000865,-0.014663,0.000600,  21.822
   220.0,0.000944,0.000862,-0.013787,0.000600,  21.818
   221.0,0.000948,0.000866,-0.013491,0.000639,  21.809
   222.0,0.000948,0.000865,-0.013347,0.000611,  21.798
   223.0,0.000953,0.000867,-0.013538,0.000586,  21.791
   224.0,0.000951,0.000865,-0.013261,0.000611,  21.778
   225.0,0.000964,0.000863,-0.013070,0.000600,  21.780
   226.0,0.000951,0.000871,-0.013166,0.000586,  21.768
   227.0,0.000951,0.000880,-0.013109,0.000639,  21.762
   228.0,0.000944,0.000873,-0.013061,0.000614,  21.761
   229.0,0.000944,0.000868,-0.013252,0.000614,  21.757
   230.0,0.000943,0.000874,-0.013176,0.000614,  21.747
   231.0,0.000951,0.000873,-0.013309,0.000614,  21.749
   232.0,0.000955,0.000876,-0.013204,0.000600,  21.745
   233.0,0.000955,0.000871,-0.013319,0.000600,  21.743
   234.0,0.000955,0.000865,-0.013242,0.000600,  21.744
   235.0,0.000955,0.000871,-0.013319,0.000600,  21.736
   236.0,0.000964,0.000871,-0.013175,0.000650,  21.726
   237.0,0.000955,0.000878,-0.013099,0.000650,  21.724
   238.0,0.000955,0.000872,-0.013242,0.000625,  21.718
   239.0,0.000953,0.000869,-0.013261,0.000586,  21.716
   240.0,0.000948,0.000872,-0.013233,0.000586,  21.717
   241.0,0.000940,0.000870,-0.013271,0.000600,  21.709
   242.0,0.000953,0.000866,-0.013195,0.000600,  21.717
   243.0,0.000948,0.000876,-0.013252,0.000597,  21.706
   244.0,0.000956,0.000871,-0.013194,0.000611,  21.702
   245.0,0.000951,0.000873,-0.013156,0.000628,  21.693
   246.0,0.000959,0.000867,-0.013214,0.000597,  21.689
   247.0,0.000959,0.000874,-0.013214,0.000586,  21.682
   248.0,0.000959,0.000877,-0.013223,0.000597,  21.677
   249.0,0.000959,0.000864,-0.013185,0.000636,  21.675
   250.0,0.000964,0.000876,-0.013175,0.000636,  21.671
   251.0,0.000955,0.000875,-0.013204,0.000625,  21.673
   252.0,0.000956,0.000872,-0.013242,0.000586,  21.664
   253.0,0.000948,0.000872,-0.013338,0.000597,  21.663
   254.0,0.000951,0.000864,-0.013204,0.000664,  21.662
   255.0,0.000956,0.000863,-0.013223,0.000625,  21.657
   256.0,0.000944,0.000873,-0.013271,0.000600,  21.657
   257.0,0.000944,0.000867,-0.013347,0.000636,  21.656
   258.0,0.000945,0.000867,-0.013242,0.000572,  21.650
   259.0,0.000940,0.000861,-0.013233,0.000572,  21.650
   260.0,0.000945,0.000858,-0.013252,0.000572,  21.651
   261.0,0.000940,0.000858,-0.013261,0.000586,  21.651
   262.0,0.000944,0.000858,-0.013337,0.000611,  21.654
   263.0,0.000949,0.000841,-0.013376,0.000597,  21.655
   264.0,0.000940,0.000849,-0.013347,0.000572,  21.653
   265.0,0.000933,0.000852,-0.013528,0.000572,  21.656
   266.0,0.000937,0.000849,-0.013423,0.000572,  21.654
   267.0,0.000946,0.000854,-0.013471,0.000586,  21.654
   268.0,0.000950,0.000847,-0.013385,0.000608,  21.654
   269.0,0.000937,0.000845,-0.013557,0.000622,  21.652
   270.0,0.000937,0.000839,-0.013662,0.000611,  21.658
   271.0,0.000949,0.000845,-0.013471,0.000611,  21.656
   272.0,0.000942,0.000848,-0.013528,0.000572,  21.654
   273.0,0.000945,0.000857,-0.013414,0.000611,  21.654
   274.0,0.000957,0.000858,-0.013414,0.000636,  21.655
   275.0,0.000965,0.000870,-0.013490,0.000611,  21.654
   276.0,0.000960,0.000869,-0.013413,0.000636,  21.655
   277.0,0.000960,0.000876,-0.013462,0.000597,  21.647
   278.0,0.000955,0.000873,-0.013528,0.000600,  21.647
   279.0,0.000956,0.000870,-0.013414,0.000600,  21.646
   280.0,0.000951,0.000863,-0.013395,0.000614,  21.649
   281.0,0.000951,0.000873,-0.013471,0.000639,  21.641
   282.0,0.000956,0.000867,-0.013366,0.000625,  21.642
   283.0,0.000951,0.000874,-0.013357,0.000625,  21.637
   284.0,0.000955,0.000868,-0.013261,0.000625,  21.637
   285.0,0.000972,0.000873,-0.013328,0.000586,  21.637
   286.0,0.000964,0.000874,-0.013309,0.000625,  21.633
   287.0,0.000968,0.000868,-0.013194,0.000625,  21.635
   288.0,0.000965,0.000880,-0.013443,0.000572,  21.636
   289.0,0.000960,0.000878,-0.013319,0.000611,  21.639
   290.0,0.000972,0.000881,-0.013223,0.000586,  21.639
   291.0,0.000964,0.000876,-0.013223,0.000586,  21.643
   292.0,0.000967,0.000882,-0.013223,0.000586,  21.640
   293.0,0.000976,0.000875,-0.013233,0.000586,  21.645
   294.0,0.000964,0.000870,-0.013261,0.000586,  21.647
   295.0,0.000972,0.000879,-0.013271,0.000600,  21.644
   296.0,0.000972,0.000868,-0.013233,0.000572,  21.639
   297.0,0.000964,0.000883,-0.013261,0.000600,  21.649
   298.0,0.000965,0.000868,-0.013376,0.000600,  21.644
   299.0,0.000965,0.000872,-0.013309,0.000611,  21.643
   300.0,0.000960,0.000868,-0.013395,0.000611,  21.633
   301.0,0.000972,0.000877,-0.013233,0.000600,  21.632
   302.0,0.000972,0.000886,-0.013280,0.000625,  21.633
   303.0,0.000964,0.000885,-0.014406,0.000625,  21.633
   304.0,0.000951,0.000881,-0.014215,0.000614,  21.631
   305.0,0.000951,0.000881,-0.013672,0.000600,  21.624
   306.0,0.001000,0.000864,-0.013404,0.000600,  21.623
   307.0,0.000987,0.000927,-0.013395,0.000586,  21.621
   308.0,0.000949,0.000912,-0.013033,0.000586,  21.613
   309.0,0.000928,0.000893,-0.012832,0.000586,  21.607
   310.0,0.000924,0.000875,-0.012937,0.000636,  21.605
   311.0,0.000924,0.000868,-0.013033,0.000597,  21.602
   312.0,0.000928,0.000851,-0.012775,0.000572,  21.599
   313.0,0.000923,0.000860,-0.012947,0.000611,  21.598
   314.0,0.000924,0.000850,-0.012765,0.000544,  21.592
   315.0,0.000924,0.000840,-0.012670,0.000544,  21.597
   316.0,0.000919,0.000851,-0.012593,0.000544,  21.596
   317.0,0.000928,0.000852,-0.012728,0.000544,  21.595
   318.0,0.000928,0.000861,-0.012565,0.000583,  21.592
   319.0,0.000919,0.000860,-0.012670,0.000569,  21.590
   320.0,0.000932,0.000858,-0.012565,0.000544,  21.582
   321.0,0.000927,0.000858,-0.012431,0.000558,  21.578
   322.0,0.000935,0.000866,-0.012306,0.000580,  21.575
   323.0,0.000935,0.000868,-0.012239,0.000594,  21.573
   324.0,0.000931,0.000871,-0.012355,0.000569,  21.566
   325.0,0.000951,0.000868,-0.012259,0.000558,  21.563
   326.0,0.000939,0.000866,-0.012384,0.000572,  21.558
   327.0,0.000939,0.000873,-0.012192,0.000558,  21.562
   328.0,0.000928,0.000861,-0.012058,0.000572,  21.557
   329.0,0.000928,0.000853,-0.012077,0.000558,  21.554
   330.0,0.000917,0.000865,-0.012134,0.000558,  21.555
   331.0,0.000921,0.000852,-0.012211,0.000572,  21.552
   332.0,0.000917,0.000852,-0.012240,0.000572,  21.556
   333.0,0.000929,0.000844,-0.012163,0.000509,  21.559
   334.0,0.000917,0.000845,-0.012489,0.000533,  21.563
   335.0,0.000917,0.000852,-0.012259,0.000569,  21.561
   336.0,0.000938,0.000850,-0.012192,0.000530,  21.566
   337.0,0.000930,0.000841,-0.012307,0.000544,  21.564
   338.0,0.000934,0.000843,-0.012211,0.000555,  21.565
   339.0,0.000934,0.000853,-0.012249,0.000516,  21.571
   340.0,0.000931,0.000844,-0.012412,0.000583,  21.571
   341.0,0.000940,0.000842,-0.012316,0.000580,  21.574
   342.0,0.000940,0.000838,-0.012508,0.000555,  21.573
   343.0,0.000940,0.000845,-0.012326,0.000569,  21.575
   344.0,0.000940,0.000853,-0.012354,0.000544,  21.582
   345.0,0.000944,0.000854,-0.012306,0.000597,  21.584
   346.0,0.000959,0.000848,-0.012278,0.000580,  21.584
   347.0,0.000976,0.000850,-0.012278,0.000594,  21.584
   348.0,0.000976,0.000854,-0.012316,0.000594,  21.592
   349.0,0.000980,0.000858,-0.012450,0.000633,  21.589
   350.0,0.000967,0.000858,-0.012364,0.000608,  21.588
   351.0,0.000972,0.000868,-0.012278,0.000647,  21.590
   352.0,0.000972,0.000864,-0.012172,0.000583,  21.592
   353.0,0.000972,0.000862,-0.012134,0.000661,  21.594
   354.0,0.000973,0.000857,-0.012192,0.000608,  21.590
   355.0,0.000968,0.000848,-0.012201,0.000544,  21.591
   356.0,0.000961,0.000856,-0.012364,0.000583,  21.596
   357.0,0.000964,0.000852,-0.012326,0.000583,  21.592
   358.0,0.000961,0.000839,-0.012297,0.000583,  21.592
   359.0,0.000957,0.000843,-0.012402,0.000583,  21.591
   360.0,0.000953,0.000854,-0.012393,0.000544,  21.595
   361.0,0.000968,0.000844,-0.012441,0.000608,  21.588
   362.0,0.000964,0.000849,-0.012326,0.000622,  21.592
   363.0,0.000968,0.000851,-0.012306,0.000675,  21.588
   364.0,0.000964,0.000847,-0.012230,0.000647,  21.588
   365.0,0.000000,0.000847,-0.012153,0.000657,  21.590
   366.0,0.000000,0.000000,0.000000,0.000608,  21.590
   367.0,0.000000,0.000000,0.000000,0.000000,  21.589
   368.0,0.000000,0.000000,0.000000,0.000000,  21.592
   369.0,-0.000005,0.000000,0.000000,0.000000,  21.591
   370.0,-0.000013,0.000014,0.000077,0.000000,  21.587
   371.0,-0.000017,0.000004,-0.000163,0.000000,  21.588
   372.0,-0.000016,0.000007,-0.000058,-0.000036,  21.587
   373.0,-0.000012,0.000008,0.000067,-0.000036,  21.588
   374.0,-0.000008,0.000007,-0.000038,-0.000099,  21.593
   375.0,-0.000024,0.000003,-0.003050,-0.000060,  21.586
   376.0,-0.000021,-0.000012,-0.001252,-0.000088,  21.585
   377.0,-0.000012,-0.000015,-0.000641,-0.000099,  21.580
   378.0,-0.000029,-0.000015,-0.000249,-0.000074,  21.584
   379.0,-0.000012,-0.000022,-0.000038,-0.000088,  21.575
   380.0,-0.000025,-0.000012,0.000010,-0.000050,  21.581
   381.0,-0.000028,-0.000024,-0.000077,-0.000011,  21.579
   382.0,-0.000028,-0.000019,-0.000115,-0.000050,  21.574
   383.0,-0.000028,-0.000013,-0.000211,-0.000060,  21.574
   384.0,-0.000028,-0.000026,-0.000029,-0.000074,  21.573
   385.0,-0.000021,-0.000035,0.000039,-0.000050,  21.567
   386.0,-0.000021,-0.000023,-0.000029,-0.000050,  21.565
   387.0,-0.000017,-0.000025,-0.000067,-0.000064,  21.563
   388.0,-0.000027,-0.000010,-0.000010,-0.000025,  21.564
   389.0,-0.000010,-0.000012,-0.000029,-0.000036,  21.564
   390.0,-0.000029,-0.000016,0.000086,-0.000060,  21.568
   391.0,-0.000027,-0.000013,0.000124,-0.000046,  21.569
   392.0,-0.000034,-0.000018,0.000077,-0.000050,  21.568
   393.0,-0.000034,-0.000022,0.000124,-0.000036,  21.566
   394.0,-0.000034,-0.000015,0.000048,0.000056,  21.569
   395.0,-0.000030,-0.000008,0.000048,-0.000050,  21.574
   396.0,-0.000027,-0.000017,0.000029,-0.000074,  21.575
   397.0,-0.000027,-0.000009,0.000412,-0.000074,  21.569
   398.0,-0.000019,-0.000016,0.000240,-0.000074,  21.568
   399.0,-0.000023,-0.000012,0.000173,-0.000036,  21.563
   400.0,-0.000035,-0.000012,0.000057,-0.000074,  21.555
   401.0,-0.000047,-0.000005,0.000172,-0.000099,  21.545
   402.0,-0.000042,-0.000012,0.000163,-0.000060,  21.537
   403.0,-0.000050,-0.000025,0.000278,-0.000074,  21.531
   404.0,-0.000062,-0.000037,0.000220,-0.000064,  21.527
   405.0,-0.000050,-0.000039,0.000105,-0.000050,  21.521
   406.0,-0.000050,-0.000033,-0.000001,-0.000050,  21.529
   407.0,-0.000033,-0.000027,0.000372,-0.000036,  21.529
   408.0,-0.000006,-0.000022,0.000890,-0.000053,  21.534
   409.0,0.000020,0.000005,0.001263,-0.000116,  21.539
   410.0,0.000046,0.000023,0.002002,-0.000050,  21.539
   411.0,0.000079,0.000034,0.002878,-0.000050,  21.540
   412.0,0.000114,0.000058,0.003850,-0.000099,  21.545
   413.0,0.000154,0.000090,0.004651,-0.000074,  21.552
   414.0,0.000221,0.000122,0.005782,-0.000050,  21.548
   415.0,0.000302,0.000180,0.007189,-0.000060,  21.550
   416.0,0.000385,0.000220,0.008835,-0.000113,  21.546
   417.0,0.000513,0.000282,0.010684,-0.000113,  21.537
   418.0,0.000610,0.000354,0.012815,-0.000088,  21.539
   419.0,0.000769,0.000446,0.015066,-0.000050,  21.542
   420.0,0.000949,0.000554,0.017477,-0.000050,  21.540
   421.0,0.001143,0.000680,0.020434,-0.000074,  21.544
   422.0,0.001384,0.000828,0.023226,-0.000113,  21.547
   423.0,0.001648,0.001002,0.026477,-0.000060,  21.548
   424.0,0.001946,0.001181,0.030229,-0.000074,  21.545
   425.0,0.002294,0.001380,0.034690,-0.000113,  21.547
   426.0,0.002649,0.001641,0.039595,-0.000060,  21.554
   427.0,0.003019,0.001937,0.045131,-0.000088,  21.547
   428.0,0.003473,0.002258,0.051128,-0.000099,  21.542
   429.0,0.003980,0.002633,0.057806,-0.000046,  21.542
   430.0,0.004542,0.003037,0.065179,-0.000060,  21.533
   431.0,0.005131,0.003492,0.071364,-0.000074,  21.526
   432.0,0.005779,0.003986,0.079901,-0.000060,  21.521
   433.0,0.006481,0.004394,0.088850,-0.000099,  21.511
   434.0,0.007224,0.004977,0.098323,-0.000085,  21.501
   435.0,0.007967,0.005605,0.108408,-0.000099,  21.492
   436.0,0.008648,0.006269,0.119181,-0.000099,  21.477
   437.0,0.009537,0.006992,0.130616,-0.000060,  21.466
   438.0,0.010451,0.007756,0.142435,-0.000022,  21.454
   439.0,0.011399,0.008581,0.154773,-0.000071,  21.437
   440.0,0.012396,0.009425,0.166234,-0.000022,  21.421
   441.0,0.013438,0.010324,0.178641,-0.000036,  21.404
   442.0,0.014488,0.011085,0.192374,-0.000022,  21.381
   443.0,0.015572,0.012054,0.206630,-0.000032,  21.368
   444.0,0.016671,0.013049,0.221072,0.000020,  21.348
   445.0,0.017537,0.014062,0.235885,0.000020,  21.323
   446.0,0.018676,0.015109,0.250964,-0.000005,  21.299
   447.0,0.019789,0.016181,0.265756,-0.000029,  21.270
   448.0,0.020893,0.017244,0.280557,0.000009,  21.239
   449.0,0.022002,0.018308,0.292379,0.000020,  21.205
   450.0,0.023085,0.019334,0.307473,-0.000005,  21.175
   451.0,0.024156,0.020197,0.321935,-0.000015,  21.135
   452.0,0.025167,0.021234,0.335980,-0.000015,  21.102
   453.0,0.026091,0.022234,0.349932,-0.000001,  21.061
   454.0,0.026922,0.023212,0.363504,0.000013,  21.019
   455.0,0.027847,0.024160,0.376664,0.000027,  20.975
   456.0,0.028705,0.025033,0.388915,0.000065,  20.931
   457.0,0.029495,0.025870,0.400134,0.000068,  20.882
   458.0,0.030250,0.026624,0.409927,0.000093,  20.828
   459.0,0.030916,0.027226,0.421206,0.000132,  20.779
   460.0,0.031516,0.027811,0.431114,0.000082,  20.719
   461.0,0.032037,0.028383,0.441200,0.000185,  20.658
   462.0,0.032425,0.028852,0.449984,0.000174,  20.594
   463.0,0.032829,0.029254,0.458385,0.000138,  20.518
   464.0,0.033162,0.029571,0.466032,0.000191,  20.444
   465.0,0.033448,0.029799,0.472954,0.000177,  20.365
   466.0,0.033634,0.029950,0.477810,0.000191,  20.280
   467.0,0.033793,0.030012,0.482796,0.000191,  20.189
   468.0,0.033893,0.030012,0.487648,0.000152,  20.096
   469.0,0.033940,0.029947,0.491633,0.000216,  20.006
   470.0,0.033977,0.029825,0.494857,0.000177,  19.905
   471.0,0.033961,0.029624,0.497355,0.000124,  19.808
   472.0,0.033916,0.029381,0.499282,0.000160,  19.724
   473.0,0.033865,0.029107,0.500915,0.000132,  19.646
   474.0,0.033785,0.028779,0.501881,0.000093,  19.577
   475.0,0.033693,0.028437,0.502466,0.000054,  19.527
   476.0,0.033603,0.028086,0.503556,0.000054,  19.496
   477.0,0.033487,0.027767,0.504063,0.000054,  19.478
   478.0,0.033369,0.027375,0.504223,0.000041,  19.490
   479.0,0.033241,0.026986,0.505050,0.000054,  19.522
   480.0,0.033063,0.026576,0.505460,0.000041,  19.575
   481.0,0.032877,0.026155,0.505879,0.000090,  19.656
   482.0,0.032635,0.025718,0.505992,0.000051,  19.751
   483.0,0.032401,0.025289,0.505879,0.000062,  19.874
   484.0,0.032129,0.024856,0.505624,0.000027,  20.006
   485.0,0.031792,0.024515,0.505064,0.000079,  20.153
   486.0,0.031452,0.024044,0.503932,0.000065,  20.312
   487.0,0.031132,0.023595,0.502601,0.000027,  20.472
   488.0,0.030786,0.023144,0.500851,0.000079,  20.641
   489.0,0.030376,0.022690,0.498777,0.000041,  20.818
   490.0,0.029946,0.022235,0.496022,0.000054,  20.993
   491.0,0.029501,0.021778,0.492899,0.000054,  21.168
   492.0,0.029050,0.021347,0.490002,0.000041,  21.347
   493.0,0.028571,0.020890,0.485809,0.000079,  21.515
   494.0,0.028084,0.020540,0.481811,0.000027,  21.688
   495.0,0.027587,0.020103,0.477351,0.000041,  21.855
   496.0,0.027195,0.019659,0.472169,0.000054,  22.022
   497.0,0.026676,0.019234,0.466685,0.000065,  22.187
   498.0,0.026152,0.018794,0.460431,0.000041,  22.342
   499.0,0.025642,0.018371,0.454175,0.000068,  22.491
   500.0,0.025109,0.017954,0.448876,0.000068,  22.644
   501.0,0.024565,0.017532,0.441498,0.000054,  22.782
   502.0,0.024001,0.017173,0.434395,0.000041,  22.918
   503.0,0.023454,0.016794,0.426487,0.000054,  23.042
   504.0,0.022919,0.016390,0.419024,0.000065,  23.164
   505.0,0.022431,0.015975,0.410882,0.000051,  23.273
   506.0,0.021854,0.015558,0.402504,0.000013,  23.380
   507.0,0.021291,0.015165,0.393972,0.000104,  23.479
   508.0,0.020725,0.014752,0.385187,0.000041,  23.563
   509.0,0.020158,0.014358,0.377980,0.000054,  23.644
   510.0,0.019585,0.013972,0.367149,0.000041,  23.715
   511.0,0.019033,0.013664,0.358565,0.000054,  23.771
   512.0,0.018464,0.013264,0.350826,0.000054,  23.817
   513.0,0.018043,0.012880,0.339737,0.000041,  23.855
   514.0,0.017495,0.012508,0.332664,0.000054,  23.884
   515.0,0.016975,0.012140,0.324384,0.000054,  23.903
   516.0,0.016457,0.011776,0.315797,0.000041,  23.921
   517.0,0.015930,0.011417,0.307327,0.000054,  23.925
   518.0,0.015423,0.011068,0.300457,0.000027,  23.930
   519.0,0.014945,0.010762,0.291509,0.000013,  23.925
   520.0,0.014469,0.010473,0.283486,0.000041,  23.918
   521.0,0.014037,0.010158,0.275265,0.000013,  23.903
   522.0,0.013672,0.009852,0.267400,0.000027,  23.890
   523.0,0.013225,0.009553,0.259615,-0.000015,  23.868
   524.0,0.012809,0.009253,0.252152,0.000023,  23.849
   525.0,0.012385,0.008972,0.244858,-0.000001,  23.822
   526.0,0.011988,0.008690,0.238507,-0.000001,  23.793
   527.0,0.011604,0.008429,0.232400,0.000013,  23.762
   528.0,0.011222,0.008216,0.225300,0.000013,  23.734
   529.0,0.010865,0.007956,0.218725,0.000037,  23.703
   530.0,0.010574,0.007708,0.212371,0.000027,  23.663
   531.0,0.010236,0.007466,0.206251,0.000037,  23.628
   532.0,0.009943,0.007235,0.199972,-0.000001,  23.605
   533.0,0.009611,0.007009,0.194364,-0.000001,  23.568
   534.0,0.009293,0.006799,0.189477,0.000009,  23.536
   535.0,0.008997,0.006598,0.184596,-0.000029,  23.507
   536.0,0.008700,0.006412,0.179411,0.000023,  23.475
   537.0,0.008426,0.006245,0.174365,-0.000015,  23.442
   538.0,0.008160,0.006048,0.169441,-0.000001,  23.412
   539.0,0.007957,0.005856,0.164843,-0.000005,  23.378
   540.0,0.007712,0.005693,0.160166,-0.000005,  23.350
   541.0,0.007476,0.005517,0.156019,-0.000029,  23.316
   542.0,0.007244,0.005363,0.151841,-0.000019,  23.285
   543.0,0.007047,0.005208,0.148813,-0.000057,  23.252
   544.0,0.006826,0.005060,0.144784,-0.000046,  23.226
   545.0,0.006617,0.004929,0.141082,0.000006,  23.193
   546.0,0.006424,0.004799,0.137637,-0.000008,  23.171
   547.0,0.006260,0.004678,0.134081,-0.000008,  23.140
   548.0,0.006105,0.004538,0.130644,-0.000032,  23.109
   549.0,0.005948,0.004417,0.127521,-0.000043,  23.078
   550.0,0.005776,0.004307,0.124423,-0.000043,  23.050
   551.0,0.005624,0.004187,0.122163,-0.000043,  23.020
   552.0,0.005483,0.004081,0.119301,-0.000029,  22.988
   553.0,0.005329,0.004003,0.116545,-0.000043,  22.965
   554.0,0.005184,0.003891,0.114073,-0.000071,  22.932
   555.0,0.005069,0.003805,0.111585,-0.000005,  22.908
   556.0,0.004954,0.003698,0.109065,-0.000032,  22.881
   557.0,0.004836,0.003617,0.106904,0.000006,  22.851
   558.0,0.004713,0.003533,0.104440,0.000006,  22.825
   559.0,0.004594,0.003443,0.102621,-0.000032,  22.802
   560.0,0.004481,0.003361,0.100760,-0.000043,  22.775
   561.0,0.004374,0.003294,0.098696,-0.000043,  22.755
   562.0,0.004294,0.003224,0.096800,-0.000085,  22.729
   563.0,0.004212,0.003160,0.095060,-0.000071,  22.703
   564.0,0.004123,0.003091,0.093165,-0.000071,  22.681
   565.0,0.004030,0.003004,0.091467,-0.000057,  22.660
   566.0,0.003944,0.002964,0.090006,-0.000057,  22.640
   567.0,0.003868,0.002896,0.088311,-0.000043,  22.617
   568.0,0.003786,0.002836,0.087202,-0.000071,  22.593
   569.0,0.003707,0.002780,0.085760,-0.000032,  22.573
   570.0,0.003645,0.002731,0.084249,-0.000043,  22.555
   571.0,0.003590,0.002684,0.083080,-0.000057,  22.529
   572.0,0.003545,0.002634,0.081882,-0.000096,  22.512
   573.0,0.003471,0.002591,0.080568,-0.000135,  22.494
   574.0,0.003417,0.002540,0.079323,-0.000096,  22.471
   575.0,0.003369,0.002507,0.076584,-0.000071,  22.459
   576.0,0.003308,0.002471,0.076617,-0.000043,  22.441
   577.0,0.003241,0.002421,0.076137,-0.000032,  22.426
   578.0,0.003185,0.002371,0.075198,-0.000057,  22.409
   579.0,0.003130,0.002350,0.074078,-0.000071,  22.394
   580.0,0.003094,0.002301,0.073153,-0.000096,  22.375
   581.0,0.003052,0.002262,0.072213,-0.000135,  22.365
   582.0,0.003005,0.002228,0.071386,-0.000110,  22.346
   583.0,0.002961,0.002192,0.070505,-0.000071,  22.332
   584.0,0.002916,0.002170,0.069602,-0.000071,  22.321
   585.0,0.002891,0.002137,0.069219,-0.000071,  22.305
   586.0,0.002854,0.002102,0.065064,-0.000057,  22.294
   587.0,0.002805,0.002080,0.066467,-0.000057,  22.279
   588.0,0.002772,0.002050,0.066415,-0.000057,  22.264
   589.0,0.002753,0.002021,0.065897,-0.000071,  22.252
   590.0,0.002715,0.002005,0.065267,-0.000046,  22.246
   591.0,0.002694,0.001984,0.064732,-0.000008,  22.229
   592.0,0.002665,0.001954,0.064212,-0.000019,  22.220
   593.0,0.002630,0.001935,0.063576,-0.000008,  22.206
   594.0,0.002609,0.001915,0.062909,0.000006,  22.195
   595.0,0.002587,0.001891,0.062370,0.000006,  22.186
   596.0,0.002556,0.001875,0.061636,-0.000032,  22.169
   597.0,0.002539,0.001850,0.061312,-0.000043,  22.159
   598.0,0.002512,0.001833,0.060862,-0.000043,  22.149
   599.0,0.002507,0.001818,0.058035,-0.000043,  22.135
   600.0,0.002491,0.001793,0.059317,-0.000043,  22.123
   601.0,0.002474,0.001781,0.059285,-0.000057,  22.115
   602.0,0.002456,0.001775,0.059016,-0.000057,  22.103
   603.0,0.002441,0.001766,0.058781,-0.000043,  22.094
   604.0,0.002434,0.001745,0.058343,-0.000032,  22.088
   605.0,0.002403,0.001727,0.057990,0.000006,  22.075
   606.0,0.002389,0.001716,0.057544,0.000006,  22.068
   607.0,0.002374,0.001708,0.057161,-0.000008,  22.060
   608.0,0.002372,0.001699,0.056893,-0.000032,  22.049
   609.0,0.002354,0.001674,0.056631,-0.000019,  22.048
   610.0,0.002330,0.001666,0.056295,-0.000043,  22.035
   611.0,0.002320,0.001672,0.055910,-0.000032,  22.031
   612.0,0.002288,0.001639,0.055563,-0.000057,  22.025
   613.0,0.002273,0.001633,0.055326,-0.000029,  22.015
   614.0,0.002251,0.001613,0.055035,-0.000043,  22.010
   615.0,0.002252,0.001594,0.054494,-0.000043,  22.006
   616.0,0.002232,0.001581,0.054295,-0.000029,  21.997
   617.0,0.002226,0.001580,0.053991,-0.000057,  21.995
   618.0,0.002211,0.001571,0.053611,-0.000043,  21.987
   619.0,0.002192,0.001550,0.053371,-0.000057,  21.979
   620.0,0.002169,0.001532,0.053099,-0.000071,  21.974
   621.0,0.002166,0.001523,0.052855,-0.000043,  21.966
   622.0,0.002159,0.001523,0.052418,-0.000057,  21.955
   623.0,0.002156,0.001516,0.052169,-0.000043,  21.950
   624.0,0.002144,0.001504,0.052109,-0.000071,  21.942
   625.0,0.002124,0.001492,0.050283,-0.000057,  21.940
   626.0,0.002141,0.001493,0.050124,-0.000057,  21.929
   627.0,0.002125,0.001495,0.050943,-0.000050,  21.920
   628.0,0.002122,0.001476,0.051080,-0.000036,  21.920
   629.0,0.002118,0.001465,0.050997,-0.000071,  21.912
   630.0,0.002103,0.001463,0.050971,-0.000057,  21.905
   631.0,0.002096,0.001451,0.050823,-0.000071,  21.898
   632.0,0.002088,0.001452,0.050663,-0.000043,  21.894
   633.0,0.002086,0.001440,0.050513,-0.000096,  21.883
   634.0,0.002079,0.001433,0.050195,-0.000110,  21.874
   635.0,0.002066,0.001411,0.049993,-0.000113,  21.867
   636.0,0.002071,0.001411,0.049752,-0.000085,  21.860
   637.0,0.002064,0.001408,0.049659,-0.000085,  21.850
   638.0,0.002044,0.001404,0.049488,-0.000071,  21.846
   639.0,0.002049,0.001387,0.049374,-0.000085,  21.837
   640.0,0.002042,0.001398,0.049145,-0.000071,  21.831
   641.0,0.002050,0.001395,0.048950,-0.000110,  21.825
   642.0,0.002039,0.001390,0.048821,-0.000099,  21.817
   643.0,0.002018,0.001377,0.048717,-0.000085,  21.814
   644.0,0.002027,0.001371,0.048541,-0.000071,  21.810
   645.0,0.002018,0.001361,0.048415,-0.000057,  21.800
   646.0,0.002011,0.001372,0.048375,-0.000032,  21.797
   647.0,0.002019,0.001365,0.048413,-0.000071,  21.792
   648.0,0.002016,0.001366,0.048059,-0.000071,  21.786
   649.0,0.002019,0.001360,0.048149,-0.000071,  21.777
   650.0,0.002021,0.001350,0.048043,-0.000071,  21.768
   651.0,0.001992,0.001350,0.047990,-0.000099,  21.766
   652.0,0.002005,0.001349,0.047739,-0.000085,  21.752
   653.0,0.002006,0.001348,0.047820,-0.000057,  21.751
   654.0,0.002006,0.001340,0.047511,-0.000071,  21.741
   655.0,0.001990,0.001343,0.047692,-0.000060,  21.734
   656.0,0.001994,0.001331,0.047630,-0.000099,  21.733
   657.0,0.001997,0.001331,0.047488,-0.000071,  21.731
   658.0,0.001983,0.001331,0.047469,-0.000060,  21.730
   659.0,0.001974,0.001327,0.047483,-0.000071,  21.722
   660.0,0.001983,0.001325,0.047166,-0.000046,  21.722
   661.0,0.001974,0.001316,0.047068,-0.000057,  21.720
   662.0,0.001970,0.001322,0.047071,-0.000032,  21.721
   663.0,0.001975,0.001311,0.046988,-0.000036,  21.718
   664.0,0.001971,0.001309,0.046979,-0.000071,  21.719
   665.0,0.001975,0.001305,0.047078,-0.000071,  21.718
   666.0,0.001968,0.001289,0.046858,-0.000071,  21.716
   667.0,0.001959,0.001291,0.046853,-0.000071,  21.712
   668.0,0.001964,0.001297,0.046799,-0.000071,  21.713
   669.0,0.001969,0.001292,0.046792,-0.000057,  21.707
   670.0,0.001973,0.001282,0.046737,-0.000043,  21.703
   671.0,0.001973,0.001283,0.046652,-0.000071,  21.700
   672.0,0.001957,0.001291,0.046321,-0.000071,  21.690
   673.0,0.001964,0.001280,0.046498,-0.000046,  21.682
   674.0,0.001960,0.001281,0.046534,-0.000046,  21.686
   675.0,0.001952,0.001279,0.043887,-0.000071,  21.680
   676.0,0.001943,0.001269,0.045719,-0.000071,  21.677
   677.0,0.001952,0.001275,0.046078,-0.000060,  21.679
   678.0,0.001948,0.001276,0.046198,-0.000057,  21.672
   679.0,0.001936,0.001279,0.046278,-0.000071,  21.676
   680.0,0.001945,0.001271,0.046234,-0.000071,  21.673
   681.0,0.001945,0.001262,0.046182,-0.000071,  21.673
   682.0,0.001941,0.001249,0.045953,-0.000110,  21.669
   683.0,0.001945,0.001263,0.045974,-0.000149,  21.673
   684.0,0.001953,0.001257,0.046094,-0.000071,  21.669
   685.0,0.001968,0.001245,0.046040,-0.000085,  21.670
   686.0,0.001959,0.001261,0.046179,-0.000113,  21.670
   687.0,0.001951,0.001264,0.046271,-0.000071,  21.677
   688.0,0.001963,0.001267,0.046347,-0.000071,  21.674
   689.0,0.001967,0.001262,0.046238,-0.000071,  21.665
   690.0,0.001963,0.001264,0.046215,-0.000071,  21.669
   691.0,0.001963,0.001256,0.045920,-0.000071,  21.669
   692.0,0.001958,0.001273,0.046170,-0.000046,  21.663
   693.0,0.001963,0.001261,0.045389,-0.000060,  21.665
   694.0,0.001967,0.001250,0.045627,-0.000074,  21.659
   695.0,0.001967,0.001259,0.045780,-0.000060,  21.667
   696.0,0.001967,0.001259,0.046097,-0.000099,  21.663
   697.0,0.001974,0.001259,0.046248,-0.000074,  21.663
   698.0,0.001986,0.001261,0.046281,-0.000036,  21.663
   699.0,0.001983,0.001264,0.046170,0.000028,  21.662
   700.0,0.001979,0.001260,0.046323,-0.000060,  21.660
   701.0,0.001978,0.001263,0.046368,-0.000046,  21.663
   702.0,0.001978,0.001265,0.046335,-0.000071,  21.663
   703.0,0.001991,0.001262,0.046215,-0.000046,  21.661
   704.0,0.001998,0.001258,0.046184,-0.000057,  21.660
   705.0,0.001995,0.001254,0.046278,-0.000057,  21.660
   706.0,0.001998,0.001254,0.046420,-0.000046,  21.662
   707.0,0.001998,0.001254,0.046387,-0.000071,  21.659
   708.0,0.001998,0.001242,0.046222,-0.000046,  21.660
   709.0,0.002002,0.001259,0.046309,-0.000060,  21.663
   710.0,0.002015,0.001257,0.046330,-0.000099,  21.661
   711.0,0.002002,0.001258,0.046548,-0.000022,  21.659
   712.0,0.002006,0.001264,0.046283,-0.000057,  21.655
   713.0,0.001992,0.001255,0.043756,-0.000085,  21.657
   714.0,0.002008,0.001266,0.045424,-0.000060,  21.652
   715.0,0.002012,0.001261,0.046009,-0.000071,  21.648
   716.0,0.002016,0.001271,0.046465,-0.000071,  21.652
   717.0,0.002019,0.001263,0.046673,-0.000071,  21.651
   718.0,0.002015,0.001280,0.046803,-0.000071,  21.644
   719.0,0.002027,0.001268,0.046692,-0.000043,  21.641
   720.0,0.002032,0.001265,0.046825,-0.000057,  21.638
   721.0,0.002032,0.001276,0.046612,-0.000032,  21.633
   722.0,0.002036,0.001265,0.046874,-0.000071,  21.628
   723.0,0.002023,0.001269,0.046886,-0.000071,  21.624
   724.0,0.002023,0.001273,0.046863,-0.000019,  21.624
   725.0,0.002027,0.001267,0.046986,-0.000032,  21.624
   726.0,0.002026,0.001264,0.047038,-0.000022,  21.625
   727.0,0.002023,0.001260,0.047026,-0.000071,  21.622
   728.0,0.002032,0.001266,0.047038,-0.000036,  21.620
   729.0,0.002018,0.001256,0.047102,-0.000099,  21.624
   730.0,0.002023,0.001253,0.047080,-0.000050,  21.621
   731.0,0.002027,0.001253,0.046969,-0.000074,  21.622
   732.0,0.002051,0.001256,0.047090,-0.000060,  21.611
   733.0,0.002050,0.001261,0.047123,-0.000085,  21.612
   734.0,0.002050,0.001261,0.047142,-0.000099,  21.613
   735.0,0.002045,0.001264,0.047185,-0.000099,  21.610
   736.0,0.002050,0.001260,0.047071,-0.000071,  21.615
   737.0,0.002061,0.001261,0.047279,-0.000043,  21.617
   738.0,0.002057,0.001275,0.047559,-0.000046,  21.615
   739.0,0.002065,0.001279,0.047393,-0.000071,  21.622
   740.0,0.002060,0.001274,0.047526,-0.000071,  21.618
   741.0,0.002064,0.001271,0.047360,-0.000099,  21.615
   742.0,0.002066,0.001267,0.047438,-0.000057,  21.617
   743.0,0.002075,0.001276,0.047599,-0.000085,  21.624
   744.0,0.002079,0.001267,0.047597,-0.000046,  21.620
   745.0,0.002077,0.001280,0.047718,-0.000057,  21.619
   746.0,0.002090,0.001276,0.047839,-0.000096,  21.621
   747.0,0.002094,0.001284,0.047803,-0.000085,  21.625
   748.0,0.002098,0.001284,0.047931,-0.000071,  21.621
   749.0,0.002094,0.001275,0.047943,-0.000071,  21.627
   750.0,0.002102,0.001280,0.048081,-0.000071,  21.626
   751.0,0.002104,0.001287,0.048021,-0.000032,  21.628
   752.0,0.002096,0.001299,0.048142,-0.000046,  21.626
   753.0,0.002100,0.001299,0.048097,-0.000032,  21.627
   754.0,0.002120,0.001292,0.048095,-0.000057,  21.627
   755.0,0.002128,0.001297,0.047710,-0.000096,  21.628
   756.0,0.002111,0.001295,0.046619,-0.000110,  21.628
   757.0,0.002126,0.001292,0.047876,-0.000060,  21.629
   758.0,0.002130,0.001302,0.048311,-0.000071,  21.630
   759.0,0.002134,0.001299,0.048591,-0.000068,  21.629
   760.0,0.002134,0.001285,0.048658,-0.000110,  21.631
   761.0,0.002125,0.001304,0.048722,-0.000071,  21.629
   762.0,0.002141,0.001296,0.048598,-0.000046,  21.633
   763.0,0.002138,0.001297,0.048738,-0.000085,  21.629
   764.0,0.002133,0.001297,0.048760,-0.000022,  21.632
   765.0,0.002145,0.001301,0.048900,-0.000085,  21.633
   766.0,0.002145,0.001300,0.049055,-0.000085,  21.631
   767.0,0.002161,0.001309,0.049119,-0.000071,  21.630
   768.0,0.002172,0.001317,0.049238,-0.000046,  21.629
   769.0,0.002183,0.001316,0.049321,-0.000032,  21.627
   770.0,0.002190,0.001323,0.049385,-0.000019,  21.631
   771.0,0.002190,0.001328,0.049540,-0.000057,  21.630
   772.0,0.002198,0.001320,0.049581,-0.000057,  21.631
   773.0,0.002209,0.001333,0.049688,-0.000071,  21.627
   774.0,0.002209,0.001325,0.049704,-0.000029,  21.621
   775.0,0.002213,0.001340,0.049735,-0.000043,  21.614
   776.0,0.002205,0.001324,0.049824,-0.000057,  21.612
   777.0,0.002209,0.001331,0.050010,-0.000057,  21.601
   778.0,0.002204,0.001335,0.050105,-0.000085,  21.598
   779.0,0.002204,0.001325,0.050017,-0.000071,  21.597
   780.0,0.002199,0.001328,0.050160,-0.000043,  21.594
   781.0,0.002215,0.001336,0.050033,-0.000057,  21.592
   782.0,0.002220,0.001328,0.050210,-0.000071,  21.595
   783.0,0.002224,0.001332,0.050339,-0.000032,  21.600
   784.0,0.002224,0.001338,0.050406,-0.000085,  21.596
   785.0,0.002231,0.001333,0.050537,-0.000071,  21.602
   786.0,0.002238,0.001339,0.050568,-0.000032,  21.599
   787.0,0.002235,0.001339,0.050508,-0.000046,  21.598
   788.0,0.002235,0.001331,0.050670,-0.000071,  21.602
   789.0,0.002249,0.001345,0.050716,-0.000046,  21.599
   790.0,0.002257,0.001350,0.050701,-0.000085,  21.602
   791.0,0.002261,0.001351,0.050952,-0.000032,  21.603
   792.0,0.002272,0.001357,0.051096,-0.000046,  21.604
   793.0,0.002272,0.001355,0.051170,0.000006,  21.605
   794.0,0.002279,0.001365,0.051287,-0.000005,  21.609
   795.0,0.002283,0.001362,0.051351,-0.000057,  21.610
   796.0,0.002297,0.001374,0.051548,-0.000029,  21.606
   797.0,0.002302,0.001372,0.051536,-0.000043,  21.610
   798.0,0.002305,0.001377,0.051689,-0.000071,  21.612
   799.0,0.002309,0.001383,0.050093,-0.000057,  21.615
   800.0,0.002317,0.001388,0.051070,-0.000043,  21.615
   801.0,0.002321,0.001384,0.051722,-0.000029,  21.612
   802.0,0.002312,0.001382,0.051976,-0.000043,  21.615
   803.0,0.002316,0.001375,0.052148,-0.000043,  21.618
   804.0,0.002323,0.001372,0.052259,-0.000057,  21.622
   805.0,0.002335,0.001397,0.052256,-0.000019,  21.619
   806.0,0.002334,0.001396,0.052388,-0.000057,  21.622
   807.0,0.002342,0.001389,0.052184,-0.000043,  21.619
   808.0,0.002347,0.001402,0.052349,-0.000032,  21.620
   809.0,0.002351,0.001391,0.052537,-0.000071,  21.622
   810.0,0.002353,0.001403,0.049965,-0.000005,  21.619
   811.0,0.002360,0.001403,0.051816,-0.000019,  21.621
   812.0,0.002360,0.001398,0.052378,-0.000071,  21.619
   813.0,0.002355,0.001400,0.052541,-0.000057,  21.615
   814.0,0.002364,0.001413,0.052793,-0.000032,  21.612
   815.0,0.002363,0.001395,0.052846,-0.000046,  21.612
   816.0,0.002374,0.001407,0.051075,-0.000032,  21.607
   817.0,0.002382,0.001403,0.051592,-0.000057,  21.608
   818.0,0.002386,0.001408,0.052607,-0.000043,  21.611
   819.0,0.002390,0.001405,0.052893,-0.000032,  21.609
   820.0,0.002393,0.001420,0.053213,-0.000071,  21.608
   821.0,0.002390,0.001403,0.053352,-0.000019,  21.606
   822.0,0.002397,0.001414,0.053533,-0.000019,  21.607
   823.0,0.002397,0.001415,0.053694,-0.000057,  21.607
   824.0,0.002401,0.001410,0.053448,-0.000071,  21.604
   825.0,0.002406,0.001407,0.053602,-0.000057,  21.605
   826.0,0.002401,0.001399,0.053858,-0.000085,  21.604
   827.0,0.002405,0.001401,0.053848,-0.000071,  21.598
   828.0,0.002405,0.001413,0.053901,-0.000085,  21.606
   829.0,0.002412,0.001410,0.053973,-0.000032,  21.605
   830.0,0.002428,0.001408,0.053939,-0.000036,  21.606
   831.0,0.002427,0.001425,0.054071,-0.000046,  21.601
   832.0,0.002446,0.001429,0.054189,-0.000046,  21.602
   833.0,0.002449,0.001433,0.054199,-0.000008,  21.597
   834.0,0.002456,0.001446,0.054310,-0.000032,  21.602
   835.0,0.002468,0.001441,0.054282,-0.000032,  21.597
   836.0,0.002468,0.001437,0.054536,-0.000019,  21.601
   837.0,0.002490,0.001450,0.054419,-0.000005,  21.599
   838.0,0.002488,0.001442,0.054690,-0.000057,  21.599
   839.0,0.002487,0.001452,0.053037,-0.000071,  21.601
   840.0,0.002491,0.001459,0.054414,-0.000071,  21.595
   841.0,0.002482,0.001455,0.054759,-0.000046,  21.596
   842.0,0.002486,0.001440,0.054955,-0.000071,  21.590
   843.0,0.002498,0.001440,0.055056,-0.000019,  21.587
   844.0,0.002505,0.001441,0.055022,-0.000032,  21.587
   845.0,0.002493,0.001444,0.054983,-0.000032,  21.580
   846.0,0.002494,0.001448,0.055237,-0.000046,  21.578
   847.0,0.002486,0.001443,0.055351,-0.000046,  21.582
   848.0,0.002490,0.001438,0.055305,-0.000032,  21.586
   849.0,0.002501,0.001440,0.055447,-0.000046,  21.580
   850.0,0.002508,0.001442,0.055478,-0.000071,  21.584
   851.0,0.002534,0.001467,0.055550,-0.000043,  21.584
   852.0,0.002541,0.001469,0.055764,-0.000057,  21.585
   853.0,0.002541,0.001480,0.055838,-0.000057,  21.582
   854.0,0.002545,0.001496,0.056049,-0.000032,  21.579
   855.0,0.002552,0.001483,0.056065,-0.000057,  21.581
   856.0,0.002560,0.001489,0.056298,-0.000046,  21.580
   857.0,0.002555,0.001487,0.056205,-0.000032,  21.583
   858.0,0.002571,0.001490,0.056361,-0.000071,  21.585
   859.0,0.002575,0.001493,0.056358,-0.000032,  21.588
   860.0,0.002570,0.001493,0.056513,-0.000057,  21.591
   861.0,0.002591,0.001496,0.056464,-0.000032,  21.587
   862.0,0.002583,0.001494,0.056768,-0.000019,  21.586
   863.0,0.002599,0.001504,0.056892,-0.000057,  21.585
   864.0,0.002603,0.001487,0.056955,-0.000008,  21.582
   865.0,0.002598,0.001495,0.057076,-0.000046,  21.586
   866.0,0.002597,0.001496,0.057107,-0.000032,  21.579
   867.0,0.002620,0.001510,0.057272,-0.000022,  21.579
   868.0,0.002620,0.001516,0.057282,-0.000008,  21.574
   869.0,0.002615,0.001509,0.057388,-0.000008,  21.567
   870.0,0.002635,0.001512,0.057497,-0.000032,  21.569
   871.0,0.002638,0.001513,0.057336,-0.000071,  21.566
   872.0,0.002630,0.001522,0.057637,-0.000019,  21.567
   873.0,0.002659,0.001525,0.057569,0.000006,  21.565
   874.0,0.002650,0.001522,0.057856,0.000006,  21.564
   875.0,0.002658,0.001531,0.057902,-0.000008,  21.563
   876.0,0.002683,0.001525,0.058002,-0.000046,  21.561
   877.0,0.002662,0.001536,0.058099,-0.000005,  21.567
   878.0,0.002665,0.001531,0.058190,-0.000043,  21.564
   879.0,0.002653,0.001544,0.058218,-0.000057,  21.564
   880.0,0.002648,0.001533,0.058078,-0.000019,  21.562
   881.0,0.002652,0.001537,0.056763,-0.000057,  21.558
   882.0,0.002652,0.001524,0.057910,-0.000057,  21.565
   883.0,0.002676,0.001525,0.058371,-0.000057,  21.561
   884.0,0.002681,0.001520,0.058561,-0.000019,  21.564
   885.0,0.002672,0.001524,0.058534,-0.000057,  21.559
   886.0,0.002684,0.001533,0.058646,-0.000060,  21.558
   887.0,0.002684,0.001533,0.058474,-0.000071,  21.564
   888.0,0.002679,0.001533,0.058718,-0.000032,  21.567
   889.0,0.002684,0.001534,0.058749,-0.000085,  21.565
   890.0,0.002691,0.001536,0.058877,-0.000046,  21.568
   891.0,0.002702,0.001542,0.058918,-0.000046,  21.571
   892.0,0.002711,0.001533,0.058790,-0.000032,  21.574
   893.0,0.002710,0.001538,0.058971,-0.000060,  21.578
   894.0,0.002698,0.001535,0.059137,-0.000046,  21.582
   895.0,0.002701,0.001534,0.059168,-0.000022,  21.584
   896.0,0.002704,0.001540,0.059247,-0.000046,  21.584
   897.0,0.002712,0.001552,0.059109,-0.000060,  21.587
   898.0,0.002727,0.001563,0.059491,-0.000071,  21.590
   899.0,0.002739,0.001563,0.059525,-0.000008,  21.594
   900.0,0.002738,0.001552,0.059338,-0.000022,  21.590
   901.0,0.002733,0.001570,0.059535,-0.000074,  21.598
   902.0,0.002754,0.001568,0.059717,0.000003,  21.597
   903.0,0.002750,0.001568,0.059895,-0.000071,  21.598
   904.0,0.002762,0.001567,0.060008,-0.000032,  21.601
   905.0,0.002758,0.001564,0.060005,-0.000046,  21.594
   906.0,0.002762,0.001575,0.059877,-0.000071,  21.596
   907.0,0.002769,0.001576,0.060058,-0.000032,  21.591
   908.0,0.002768,0.001572,0.060065,-0.000022,  21.587
   909.0,0.002763,0.001574,0.060087,-0.000022,  21.592
   910.0,0.002771,0.001580,0.060322,-0.000022,  21.583
   911.0,0.002779,0.001575,0.060093,-0.000022,  21.585
   912.0,0.002791,0.001580,0.060397,-0.000022,  21.582
   913.0,0.002790,0.001580,0.060564,-0.000046,  21.583
   914.0,0.002790,0.001587,0.060642,-0.000071,  21.580
   915.0,0.002807,0.001596,0.060674,-0.000060,  21.578
   916.0,0.002798,0.001592,0.060752,-0.000036,  21.575
   917.0,0.002831,0.001580,0.060642,-0.000046,  21.578
   918.0,0.002806,0.001583,0.060824,-0.000046,  21.580
   919.0,0.002810,0.001587,0.060868,-0.000085,  21.578
   920.0,0.002817,0.001587,0.060843,-0.000032,  21.576
   921.0,0.002820,0.001584,0.060994,-0.000060,  21.570
   922.0,0.002824,0.001587,0.061069,-0.000071,  21.567
   923.0,0.002858,0.001604,0.061170,-0.000032,  21.569
   924.0,0.002840,0.001591,0.061507,-0.000046,  21.567
   925.0,0.002832,0.001606,0.061051,-0.000032,  21.566
   926.0,0.002831,0.001614,0.061422,-0.000032,  21.568
   927.0,0.002851,0.001618,0.061466,-0.000032,  21.568
   928.0,0.002850,0.001610,0.061633,-0.000057,  21.562
   929.0,0.002861,0.001617,0.061746,-0.000019,  21.560
   930.0,0.002861,0.001620,0.061777,-0.000071,  21.560
   931.0,0.002869,0.001632,0.061765,-0.000032,  21.553
   932.0,0.002880,0.001626,0.061944,-0.000032,  21.552
   933.0,0.002884,0.001625,0.062010,-0.000008,  21.556
   934.0,0.002884,0.001636,0.061995,-0.000032,  21.553
   935.0,0.002887,0.001649,0.062108,-0.000008,  21.551
   936.0,0.002891,0.001643,0.061944,-0.000032,  21.553
   937.0,0.002898,0.001645,0.062253,-0.000008,  21.552
   938.0,0.002890,0.001631,0.062458,-0.000057,  21.551
   939.0,0.002874,0.001637,0.062395,-0.000032,  21.555
   940.0,0.002886,0.001622,0.062452,-0.000032,  21.552
   941.0,0.002881,0.001631,0.062496,-0.000071,  21.554
   942.0,0.002897,0.001636,0.062619,0.000020,  21.552
   943.0,0.002897,0.001647,0.062676,-0.000022,  21.551
   944.0,0.002892,0.001649,0.062796,-0.000071,  21.555
   945.0,0.002901,0.001645,0.062682,-0.000008,  21.551
   946.0,0.002909,0.001651,0.062736,-0.000046,  21.550
   947.0,0.002900,0.001647,0.062745,-0.000032,  21.551
   948.0,0.002908,0.001648,0.062894,-0.000008,  21.550
   949.0,0.002908,0.001636,0.063007,-0.000057,  21.553
   950.0,0.002912,0.001652,0.062988,-0.000032,  21.560
   951.0,0.002917,0.001645,0.062906,0.000031,  21.561
   952.0,0.002917,0.001644,0.063099,-0.000071,  21.560
   953.0,0.002932,0.001653,0.063124,-0.000019,  21.560
   954.0,0.002932,0.001650,0.062427,-0.000046,  21.564
   955.0,0.002943,0.001647,0.061460,-0.000005,  21.563
   956.0,0.002939,0.001658,0.062654,-0.000043,  21.568
   957.0,0.002939,0.001654,0.063001,-0.000029,  21.570
   958.0,0.002955,0.001658,0.063355,-0.000071,  21.570
   959.0,0.002950,0.001654,0.060356,-0.000071,  21.574
   960.0,0.002950,0.001652,0.062654,-0.000022,  21.579
   961.0,0.002957,0.001655,0.063168,-0.000046,  21.578
   962.0,0.002954,0.001661,0.063326,-0.000008,  21.574
   963.0,0.002961,0.001664,0.063567,-0.000008,  21.575
   964.0,0.002960,0.001666,0.063668,-0.000022,  21.577
   965.0,0.002959,0.001665,0.063617,-0.000046,  21.571
   966.0,0.002964,0.001664,0.063487,-0.000019,  21.575
   967.0,0.002964,0.001657,0.063737,-0.000019,  21.578
   968.0,0.002963,0.001673,0.063896,0.000006,  21.576
   969.0,0.002982,0.001671,0.064032,0.000020,  21.578
   970.0,0.002986,0.001677,0.064114,-0.000057,  21.576
   971.0,0.002981,0.001677,0.063972,-0.000008,  21.576
   972.0,0.002990,0.001680,0.064165,-0.000032,  21.573
   973.0,0.002981,0.001669,0.064165,0.000006,  21.575
   974.0,0.002985,0.001684,0.064158,-0.000019,  21.570
   975.0,0.002989,0.001682,0.064060,-0.000019,  21.576
   976.0,0.002996,0.001688,0.064304,-0.000029,  21.573
   977.0,0.003000,0.001687,0.064221,-0.000057,  21.574
   978.0,0.003014,0.001686,0.064431,-0.000029,  21.569
   979.0,0.003014,0.001697,0.064669,-0.000043,  21.575
   980.0,0.003026,0.001703,0.062770,-0.000019,  21.568
   981.0,0.003018,0.001700,0.064152,-0.000043,  21.573
   982.0,0.003018,0.001706,0.064548,-0.000005,  21.572
   983.0,0.003027,0.001706,0.064725,0.000020,  21.571
   984.0,0.003011,0.001699,0.064738,-0.000029,  21.565
   985.0,0.003019,0.001697,0.064808,-0.000005,  21.570
   986.0,0.003019,0.001684,0.064684,-0.000043,  21.565
   987.0,0.003007,0.001689,0.064624,-0.000046,  21.564
   988.0,0.003019,0.001689,0.064554,0.000006,  21.565
   989.0,0.003016,0.001688,0.064665,0.000087,  21.561
   990.0,0.003007,0.001685,0.064773,-0.000008,  21.566
   991.0,0.003012,0.001688,0.064786,-0.000032,  21.566
   992.0,0.003016,0.001681,0.064795,-0.000022,  21.570
   993.0,0.003019,0.001688,0.064856,-0.000022,  21.572
   994.0,0.003030,0.001689,0.064440,-0.000032,  21.576
   995.0,0.003026,0.001692,0.064611,-0.000022,  21.575
   996.0,0.003030,0.001688,0.064783,-0.000022,  21.579
   997.0,0.003038,0.001696,0.064725,0.000017,  21.583
   998.0,0.003033,0.001696,0.064919,0.000006,  21.582
   999.0,0.003034,0.001702,0.064954,-0.000008,  21.581
  1000.0,0.003026,0.001707,0.064605,-0.000071,  21.588
  1001.0,0.003037,0.001698,0.064836,-0.000005,  21.583
  1002.0,0.003045,0.001693,0.064833,-0.000005,  21.586
  1003.0,0.003037,0.001704,0.065040,-0.000043,  21.585
  1004.0,0.003038,0.001707,0.064935,-0.000032,  21.589
  1005.0,0.003038,0.001703,0.065132,-0.000019,  21.590
  1006.0,0.003044,0.001704,0.065097,0.000084,  21.592
  1007.0,0.003048,0.001715,0.065132,0.000031,  21.593
  1008.0,0.003044,0.001703,0.065090,-0.000043,  21.595
  1009.0,0.003051,0.001715,0.064963,0.000006,  21.593
  1010.0,0.003048,0.001714,0.065198,0.000020,  21.590
  1011.0,0.003048,0.001707,0.065204,0.000045,  21.593
  1012.0,0.003056,0.001710,0.064877,-0.000032,  21.594
  1013.0,0.003056,0.001704,0.064982,-0.000008,  21.592
  1014.0,0.003051,0.001711,0.065096,0.000006,  21.594
  1015.0,0.003060,0.001702,0.065341,-0.000008,  21.594
  1016.0,0.003068,0.001711,0.065363,0.000006,  21.594
  1017.0,0.003064,0.001707,0.065395,0.000006,  21.594
  1018.0,0.003072,0.001712,0.065465,-0.000032,  21.593
  1019.0,0.003059,0.001712,0.065430,-0.000071,  21.592
  1020.0,0.003059,0.001717,0.065287,-0.000032,  21.594
  1021.0,0.003075,0.001707,0.065427,-0.000057,  21.594
  1022.0,0.003070,0.001714,0.065427,-0.000019,  21.594
  1023.0,0.003067,0.001715,0.063130,0.000020,  21.591
  1024.0,0.003067,0.001704,0.064820,0.000020,  21.588
  1025.0,0.003066,0.001707,0.065150,-0.000032,  21.589
  1026.0,0.003075,0.001701,0.065439,0.000006,  21.593
  1027.0,0.003074,0.001715,0.065563,0.000020,  21.587
  1028.0,0.003086,0.001715,0.065554,0.000020,  21.588
  1029.0,0.003082,0.001711,0.065493,0.000045,  21.587
  1030.0,0.003081,0.001712,0.065337,-0.000005,  21.585
  1031.0,0.003090,0.001716,0.065509,0.000006,  21.584
  1032.0,0.003086,0.001723,0.065570,-0.000019,  21.584
  1033.0,0.003081,0.001729,0.065662,0.000034,  21.583
  1034.0,0.003088,0.001723,0.065579,-0.000043,  21.586
  1035.0,0.003092,0.001722,0.065659,-0.000029,  21.580
  1036.0,0.003097,0.001729,0.065636,-0.000029,  21.582
  1037.0,0.003093,0.001732,0.065729,-0.000043,  21.583
  1038.0,0.003085,0.001730,0.065773,-0.000043,  21.581
  1039.0,0.003088,0.001727,0.065738,-0.000043,  21.581
  1040.0,0.003097,0.001716,0.065773,-0.000029,  21.579
  1041.0,0.003092,0.001727,0.065668,0.000006,  21.585
  1042.0,0.003092,0.001722,0.065738,0.000006,  21.588
  1043.0,0.003088,0.001721,0.065280,-0.000057,  21.588
  1044.0,0.003097,0.001716,0.064810,-0.000005,  21.590
  1045.0,0.003097,0.001723,0.065334,0.000020,  21.588
  1046.0,0.003092,0.001726,0.065483,-0.000043,  21.587
  1047.0,0.003097,0.001722,0.065620,-0.000019,  21.587
  1048.0,0.003090,0.001734,0.065366,-0.000032,  21.585
  1049.0,0.003092,0.001729,0.065572,-0.000005,  21.589
  1050.0,0.003108,0.001723,0.065744,-0.000005,  21.585
  1051.0,0.003096,0.001734,0.065818,-0.000029,  21.585
  1052.0,0.003097,0.001727,0.065783,-0.000005,  21.585
  1053.0,0.003101,0.001722,0.065830,-0.000005,  21.583
  1054.0,0.003092,0.001722,0.065847,-0.000005,  21.582
  1055.0,0.003104,0.001719,0.065795,-0.000005,  21.581
  1056.0,0.003104,0.001718,0.065786,-0.000043,  21.583
  1057.0,0.003100,0.001732,0.065773,-0.000005,  21.587
  1058.0,0.003103,0.001714,0.065827,0.000006,  21.586
  1059.0,0.003100,0.001719,0.065799,0.000020,  21.589
  1060.0,0.003096,0.001720,0.065805,0.000006,  21.588
  1061.0,0.003097,0.001726,0.065747,-0.000032,  21.589
  1062.0,0.003096,0.001718,0.065757,-0.000029,  21.590
  1063.0,0.003100,0.001726,0.065827,-0.000008,  21.591
  1064.0,0.003101,0.001728,0.065830,-0.000032,  21.592
  1065.0,0.003092,0.001742,0.065757,-0.000043,  21.589
  1066.0,0.003092,0.001735,0.065582,-0.000005,  21.589
  1067.0,0.003092,0.001723,0.065700,-0.000029,  21.593
  1068.0,0.003096,0.001731,0.065907,0.000020,  21.593
  1069.0,0.003101,0.001726,0.065716,-0.000019,  21.592
  1070.0,0.003088,0.001711,0.065792,-0.000032,  21.594
  1071.0,0.003097,0.001719,0.065919,-0.000043,  21.591
  1072.0,0.003122,0.001722,0.065932,-0.000043,  21.590
  1073.0,0.003101,0.001711,0.065665,-0.000019,  21.594
  1074.0,0.003104,0.001715,0.065623,-0.000019,  21.594
  1075.0,0.003108,0.001707,0.065706,-0.000008,  21.591
  1076.0,0.003100,0.001718,0.065821,-0.000008,  21.594
  1077.0,0.003112,0.001732,0.065786,-0.000022,  21.595
  1078.0,0.003107,0.001714,0.065563,-0.000071,  21.595
  1079.0,0.003108,0.001729,0.065760,0.000006,  21.595
  1080.0,0.003104,0.001726,0.065655,-0.000008,  21.600
  1081.0,0.003100,0.001722,0.065611,-0.000019,  21.598
  1082.0,0.003112,0.001717,0.065585,0.000020,  21.594
  1083.0,0.003115,0.001721,0.065735,-0.000005,  21.598
  1084.0,0.003107,0.001725,0.065783,0.000006,  21.593
  1085.0,0.003107,0.001721,0.065795,0.000006,  21.593
  1086.0,0.003107,0.001722,0.065432,0.000045,  21.601
  1087.0,0.003107,0.001722,0.065521,0.000006,  21.602
  1088.0,0.003103,0.001729,0.065677,0.000006,  21.595
  1089.0,0.003107,0.001732,0.065830,-0.000005,  21.595
  1090.0,0.003115,0.001735,0.065910,-0.000005,  21.592
  1091.0,0.003127,0.001734,0.065875,-0.000043,  21.590
  1092.0,0.003118,0.001734,0.065849,0.000009,  21.594
  1093.0,0.003127,0.001740,0.065897,0.000009,  21.590
  1094.0,0.003127,0.001733,0.065910,-0.000005,  21.591
  1095.0,0.003118,0.001731,0.065722,0.000006,  21.593
  1096.0,0.003119,0.001734,0.065942,0.000006,  21.592
  1097.0,0.003114,0.001734,0.065872,0.000006,  21.590
  1098.0,0.003114,0.001734,0.065696,0.000020,  21.590
  1099.0,0.003107,0.001724,0.065929,-0.000057,  21.589
  1100.0,0.003114,0.001733,0.065709,-0.000019,  21.590
  1101.0,0.003114,0.001729,0.065792,-0.000019,  21.593
  1102.0,0.003103,0.001732,0.065731,-0.000029,  21.591
  1103.0,0.003111,0.001726,0.065652,-0.000032,  21.591
  1104.0,0.003114,0.001726,0.065760,0.000020,  21.593
  1105.0,0.003114,0.001737,0.065652,-0.000005,  21.593
  1106.0,0.003123,0.001735,0.065932,0.000009,  21.587
  1107.0,0.003130,0.001729,0.065849,0.000020,  21.588
  1108.0,0.003118,0.001743,0.065779,-0.000057,  21.587
  1109.0,0.003130,0.001745,0.065964,-0.000005,  21.590
  1110.0,0.003127,0.001742,0.062379,-0.000029,  21.587
  1111.0,0.003119,0.001735,0.064978,-0.000005,  21.584
  1112.0,0.003131,0.001735,0.065467,-0.000005,  21.586
  1113.0,0.003131,0.001730,0.065929,-0.000029,  21.584
  1114.0,0.003128,0.001722,0.066012,-0.000005,  21.585
  1115.0,0.003127,0.001721,0.065954,0.000020,  21.591
  1116.0,0.003111,0.001724,0.065840,-0.000043,  21.589
  1117.0,0.003123,0.001728,0.065827,-0.000005,  21.594
  1118.0,0.003107,0.001730,0.065907,-0.000029,  21.596
  1119.0,0.003107,0.001716,0.065907,-0.000043,  21.592
  1120.0,0.003115,0.001732,0.065907,-0.000029,  21.595
  1121.0,0.003096,0.001722,0.065830,-0.000029,  21.592
  1122.0,0.003104,0.001719,0.065853,-0.000008,  21.591
  1123.0,0.003104,0.001715,0.063041,-0.000032,  21.593
  1124.0,0.003096,0.001727,0.065029,-0.000032,  21.593
  1125.0,0.003104,0.001718,0.065477,0.000006,  21.592
  1126.0,0.003104,0.001715,0.065662,0.000020,  21.594
  1127.0,0.003096,0.001715,0.065811,0.000006,  21.593
  1128.0,0.003101,0.001710,0.065789,0.000031,  21.595
  1129.0,0.003101,0.001711,0.065802,-0.000032,  21.601
  1130.0,0.003088,0.001708,0.065652,0.000006,  21.602
  1131.0,0.003097,0.001708,0.065990,0.000006,  21.599
  1132.0,0.003100,0.001707,0.065713,0.000006,  21.599
  1133.0,0.003101,0.001711,0.065691,0.000020,  21.597
  1134.0,0.003104,0.001700,0.065713,-0.000043,  21.598
  1135.0,0.003100,0.001706,0.065353,-0.000019,  21.598
  1136.0,0.003097,0.001714,0.065334,-0.000019,  21.600
  1137.0,0.003092,0.001706,0.065497,-0.000029,  21.601
  1138.0,0.003092,0.001709,0.065497,-0.000005,  21.598
  1139.0,0.003092,0.001701,0.065452,0.000009,  21.602
  1140.0,0.003100,0.001707,0.065535,-0.000029,  21.602
  1141.0,0.003092,0.001710,0.065325,-0.000032,  21.604
  1142.0,0.003093,0.001713,0.065351,-0.000032,  21.600
  1143.0,0.003092,0.001719,0.065306,-0.000029,  21.604
  1144.0,0.003093,0.001710,0.065386,-0.000005,  21.603
  1145.0,0.003093,0.001717,0.065201,-0.000046,  21.601
  1146.0,0.003082,0.001722,0.065192,0.000006,  21.603
  1147.0,0.003094,0.001712,0.065344,0.000020,  21.603
  1148.0,0.003098,0.001705,0.065274,-0.000032,  21.603
  1149.0,0.003098,0.001716,0.065208,-0.000008,  21.603
  1150.0,0.003091,0.001709,0.065084,-0.000008,  21.606
  1151.0,0.003077,0.001710,0.064922,-0.000032,  21.602
  1152.0,0.003090,0.001712,0.065412,-0.000019,  21.603
  1153.0,0.003078,0.001709,0.065399,-0.000029,  21.603
  1154.0,0.003074,0.001706,0.065122,-0.000043,  21.601
  1155.0,0.003078,0.001707,0.064995,-0.000019,  21.598
  1156.0,0.003082,0.001702,0.064871,-0.000029,  21.594
  1157.0,0.003095,0.001708,0.064976,0.000020,  21.591
  1158.0,0.003093,0.001707,0.064887,-0.000032,  21.594
  1159.0,0.003083,0.001713,0.064979,-0.000015,  21.589
  1160.0,0.003078,0.001709,0.064050,0.000020,  21.588
  1161.0,0.003071,0.001699,0.064190,-0.000005,  21.586
  1162.0,0.003063,0.001708,0.064488,-0.000005,  21.584
  1163.0,0.003051,0.001694,0.064697,-0.000005,  21.584
  1164.0,0.003060,0.001690,0.064640,-0.000029,  21.582
  1165.0,0.003051,0.001684,0.064656,0.000009,  21.583
  1166.0,0.003048,0.001688,0.064532,-0.000022,  21.581
  1167.0,0.003051,0.001688,0.064615,-0.000019,  21.579
  1168.0,0.003056,0.001688,0.064612,0.000006,  21.581
  1169.0,0.003053,0.001676,0.064523,0.000020,  21.577
  1170.0,0.003061,0.001675,0.064466,0.000020,  21.578
  1171.0,0.003053,0.001675,0.064536,-0.000005,  21.570
  1172.0,0.003049,0.001684,0.064342,-0.000029,  21.573
  1173.0,0.003048,0.001692,0.064237,-0.000005,  21.570
  1174.0,0.003053,0.001679,0.064272,-0.000043,  21.570
  1175.0,0.003048,0.001680,0.064342,-0.000008,  21.567
  1176.0,0.003048,0.001682,0.064006,0.000020,  21.569
  1177.0,0.003034,0.001685,0.064171,-0.000005,  21.564
  1178.0,0.003022,0.001680,0.063895,-0.000005,  21.566
  1179.0,0.003027,0.001670,0.064120,-0.000043,  21.566
  1180.0,0.003027,0.001664,0.063823,-0.000043,  21.566
  1181.0,0.003022,0.001666,0.063953,-0.000032,  21.567
  1182.0,0.003023,0.001657,0.063816,0.000006,  21.572
  1183.0,0.003011,0.001660,0.063851,-0.000043,  21.571
  1184.0,0.003023,0.001667,0.063829,0.000006,  21.570
  1185.0,0.003023,0.001658,0.063855,-0.000019,  21.568
  1186.0,0.003014,0.001663,0.063646,-0.000043,  21.571
  1187.0,0.003023,0.001673,0.063674,-0.000019,  21.571
  1188.0,0.003035,0.001678,0.063744,-0.000029,  21.572
  1189.0,0.003026,0.001680,0.063880,-0.000005,  21.574
  1190.0,0.003023,0.001674,0.063826,0.000020,  21.572
  1191.0,0.003024,0.001670,0.063978,0.000059,  21.581
  1192.0,0.003028,0.001672,0.063817,0.000020,  21.581
  1193.0,0.003020,0.001669,0.063804,0.000020,  21.580
  1194.0,0.003024,0.001662,0.063665,-0.000019,  21.580
  1195.0,0.003028,0.001666,0.063371,0.000045,  21.582
  1196.0,0.003020,0.001672,0.063545,0.000020,  21.580
  1197.0,0.003020,0.001664,0.063497,0.000006,  21.584
  1198.0,0.003024,0.001662,0.063522,-0.000005,  21.587
  1199.0,0.003017,0.001662,0.061451,-0.000005,  21.586
  1200.0,0.003024,0.001669,0.062922,-0.000019,  21.587
  1201.0,0.003016,0.001660,0.063358,0.000034,  21.588
  1202.0,0.003007,0.001655,0.063497,-0.000019,  21.588
  1203.0,0.003012,0.001666,0.063219,0.000006,  21.591
  1204.0,0.003012,0.001662,0.063418,-0.000057,  21.584
  1205.0,0.003020,0.001672,0.063472,0.000020,  21.585
  1206.0,0.003020,0.001673,0.063462,-0.000005,  21.588
  1207.0,0.003019,0.001669,0.063279,-0.000029,  21.585
  1208.0,0.003022,0.001672,0.063428,0.000009,  21.585
  1209.0,0.003023,0.001675,0.063434,0.000009,  21.586
  1210.0,0.003014,0.001670,0.063466,0.000034,  21.580
  1211.0,0.003023,0.001674,0.063387,-0.000005,  21.579
  1212.0,0.003016,0.001668,0.063374,-0.000005,  21.575
  1213.0,0.003003,0.001665,0.063168,-0.000015,  21.572
  1214.0,0.003008,0.001655,0.063630,0.000023,  21.569
  1215.0,0.003001,0.001655,0.063276,-0.000029,  21.570
  1216.0,0.002992,0.001665,0.063254,0.000009,  21.569
  1217.0,0.002997,0.001664,0.063172,0.000023,  21.568
  1218.0,0.002989,0.001651,0.063118,-0.000015,  21.569
  1219.0,0.002986,0.001647,0.063029,0.000009,  21.568
  1220.0,0.002990,0.001654,0.062928,0.000009,  21.566
  1221.0,0.002977,0.001648,0.062951,0.000009,  21.570
  1222.0,0.002986,0.001648,0.061667,0.000009,  21.572
  1223.0,0.002979,0.001647,0.061781,-0.000029,  21.566
  1224.0,0.002974,0.001654,0.062461,-0.000005,  21.570
  1225.0,0.002991,0.001657,0.062591,-0.000005,  21.574
  1226.0,0.002996,0.001649,0.062808,-0.000029,  21.573
  1227.0,0.002971,0.001640,0.062799,-0.000005,  21.571
  1228.0,0.002980,0.001640,0.062799,0.000020,  21.569
  1229.0,0.002988,0.001647,0.062629,0.000009,  21.577
  1230.0,0.002980,0.001641,0.062575,0.000020,  21.573
  1231.0,0.002967,0.001650,0.062509,-0.000032,  21.576
  1232.0,0.002948,0.001634,0.062509,-0.000019,  21.576
  1233.0,0.002956,0.001634,0.062398,-0.000019,  21.581
  1234.0,0.002937,0.001631,0.062237,0.000031,  21.580
  1235.0,0.002953,0.001630,0.062181,-0.000005,  21.580
  1236.0,0.002945,0.001620,0.059207,0.000006,  21.579
  1237.0,0.002941,0.001633,0.061394,-0.000043,  21.587
  1238.0,0.002965,0.001620,0.061765,0.000006,  21.586
  1239.0,0.002972,0.001642,0.061913,-0.000005,  21.588
  1240.0,0.002976,0.001649,0.062244,-0.000005,  21.591
  1241.0,0.002976,0.001657,0.062149,0.000034,  21.590
  1242.0,0.002986,0.001650,0.062345,-0.000015,  21.592
  1243.0,0.002993,0.001661,0.062354,0.000048,  21.593
  1244.0,0.002977,0.001663,0.062354,-0.000015,  21.588
  1245.0,0.002977,0.001653,0.062379,-0.000001,  21.583
  1246.0,0.002970,0.001650,0.062436,0.000013,  21.579
  1247.0,0.002959,0.001640,0.062370,-0.000001,  21.575
  1248.0,0.002963,0.001627,0.062357,0.000034,  21.573
  1249.0,0.002947,0.001625,0.059619,0.000009,  21.570
  1250.0,0.002956,0.001637,0.061428,-0.000015,  21.569
  1251.0,0.002947,0.001626,0.061875,0.000034,  21.567
  1252.0,0.002944,0.001628,0.061979,0.000034,  21.566
  1253.0,0.002936,0.001619,0.061947,0.000009,  21.561
  1254.0,0.002940,0.001616,0.061916,-0.000005,  21.563
  1255.0,0.002932,0.001615,0.061708,0.000020,  21.563
  1256.0,0.002932,0.001630,0.061799,-0.000005,  21.565
  1257.0,0.002935,0.001621,0.062159,0.000034,  21.564
  1258.0,0.002943,0.001619,0.061938,0.000045,  21.567
  1259.0,0.002928,0.001626,0.061815,0.000045,  21.573
  1260.0,0.002924,0.001625,0.061566,0.000020,  21.573
  1261.0,0.002911,0.001623,0.061611,0.000034,  21.573
  1262.0,0.002916,0.001613,0.061639,0.000009,  21.577
  1263.0,0.002921,0.001602,0.061478,-0.000005,  21.579
  1264.0,0.002900,0.001625,0.061472,-0.000019,  21.579
  1265.0,0.002905,0.001610,0.061280,0.000034,  21.580
  1266.0,0.002901,0.001610,0.061271,0.000009,  21.586
  1267.0,0.002892,0.001600,0.061220,0.000009,  21.585
  1268.0,0.002901,0.001606,0.061214,0.000020,  21.589
  1269.0,0.002896,0.001618,0.061003,-0.000005,  21.589
  1270.0,0.002897,0.001600,0.061107,0.000009,  21.588
  1271.0,0.002897,0.001594,0.061107,0.000020,  21.587
  1272.0,0.002878,0.001597,0.061098,-0.000032,  21.589
  1273.0,0.002890,0.001598,0.061091,0.000006,  21.593
  1274.0,0.002882,0.001595,0.060978,0.000006,  21.596
  1275.0,0.002874,0.001599,0.060749,0.000006,  21.598
  1276.0,0.002879,0.001590,0.060843,-0.000008,  21.598
  1277.0,0.002882,0.001608,0.060868,0.000020,  21.599
  1278.0,0.002903,0.001604,0.060903,0.000020,  21.602
  1279.0,0.002908,0.001600,0.060972,0.000020,  21.594
  1280.0,0.002899,0.001603,0.060849,0.000006,  21.600
  1281.0,0.002907,0.001597,0.060630,0.000006,  21.601
  1282.0,0.002910,0.001595,0.060699,-0.000005,  21.599
  1283.0,0.002901,0.001602,0.060708,-0.000005,  21.594
  1284.0,0.002906,0.001612,0.060774,0.000034,  21.595
  1285.0,0.002898,0.001625,0.060774,0.000048,  21.595
  1286.0,0.002881,0.001609,0.060717,0.000034,  21.589
  1287.0,0.002895,0.001609,0.060683,0.000023,  21.595
  1288.0,0.002891,0.001607,0.060711,-0.000001,  21.598
  1289.0,0.002880,0.001601,0.060674,0.000059,  21.600
  1290.0,0.002875,0.001591,0.060645,0.000059,  21.597
  1291.0,0.002867,0.001602,0.060598,0.000020,  21.607
  1292.0,0.002875,0.001594,0.060636,0.000006,  21.606
  1293.0,0.002871,0.001595,0.060429,0.000006,  21.605
  1294.0,0.002884,0.001597,0.060488,0.000048,  21.606
  1295.0,0.002871,0.001593,0.060206,0.000020,  21.608
  1296.0,0.002867,0.001598,0.060391,0.000048,  21.611
  1297.0,0.002868,0.001607,0.060450,0.000009,  21.610
  1298.0,0.002863,0.001604,0.060322,0.000034,  21.608
  1299.0,0.002863,0.001598,0.060187,0.000009,  21.615
  1300.0,0.002865,0.001601,0.060196,-0.000005,  21.615
  1301.0,0.002865,0.001602,0.060174,-0.000005,  21.614
  1302.0,0.002865,0.001595,0.060162,0.000009,  21.616
  1303.0,0.002854,0.001600,0.060190,0.000009,  21.618
  1304.0,0.002854,0.001596,0.060250,-0.000001,  21.620
  1305.0,0.002838,0.001585,0.060162,0.000023,  21.620
  1306.0,0.002834,0.001580,0.060108,0.000048,  21.618
  1307.0,0.002822,0.001566,0.060124,-0.000029,  21.622
  1308.0,0.002820,0.001558,0.060202,0.000009,  21.616
  1309.0,0.002823,0.001554,0.059770,-0.000019,  21.618
  1310.0,0.002818,0.001556,0.059914,-0.000005,  21.616
  1311.0,0.002827,0.001554,0.059845,-0.000005,  21.611
  1312.0,0.002820,0.001554,0.059748,-0.000029,  21.605
  1313.0,0.002804,0.001554,0.059510,0.000045,  21.605
  1314.0,0.002820,0.001546,0.059535,0.000045,  21.601
  1315.0,0.002811,0.001553,0.059582,0.000006,  21.590
  1316.0,0.002800,0.001549,0.059563,-0.000005,  21.589
  1317.0,0.002793,0.001546,0.059516,-0.000043,  21.582
  1318.0,0.002800,0.001563,0.059585,-0.000019,  21.582
  1319.0,0.002817,0.001553,0.059450,-0.000019,  21.583
  1320.0,0.002821,0.001555,0.059462,-0.000043,  21.582
  1321.0,0.002820,0.001565,0.059256,-0.000005,  21.574
  1322.0,0.002821,0.001569,0.059369,-0.000005,  21.580
  1323.0,0.002824,0.001566,0.059506,0.000009,  21.573
  1324.0,0.002816,0.001566,0.059303,0.000034,  21.567
  1325.0,0.002821,0.001567,0.059359,-0.000005,  21.567
  1326.0,0.002817,0.001569,0.059318,-0.000019,  21.564
  1327.0,0.002805,0.001556,0.059171,0.000059,  21.564
  1328.0,0.002829,0.001556,0.059309,-0.000029,  21.568
  1329.0,0.002811,0.001547,0.059346,0.000020,  21.566
  1330.0,0.002803,0.001543,0.058915,-0.000008,  21.567
  1331.0,0.002786,0.001549,0.058955,0.000006,  21.568
  1332.0,0.002791,0.001541,0.059027,0.000006,  21.575
  1333.0,0.002784,0.001530,0.058974,-0.000008,  21.571
  1334.0,0.002774,0.001519,0.058836,-0.000032,  21.573
  1335.0,0.002790,0.001524,0.058680,-0.000008,  21.567
  1336.0,0.002787,0.001515,0.058686,0.000006,  21.572
  1337.0,0.002774,0.001525,0.058708,0.000006,  21.573
  1338.0,0.002779,0.001523,0.058742,-0.000008,  21.572
  1339.0,0.002775,0.001530,0.058374,0.000031,  21.576
  1340.0,0.002783,0.001525,0.058596,0.000034,  21.579
  1341.0,0.002756,0.001528,0.058664,-0.000005,  21.579
  1342.0,0.002759,0.001528,0.058642,-0.000019,  21.581
  1343.0,0.002756,0.001521,0.056945,-0.000008,  21.579
  1344.0,0.002757,0.001514,0.057900,0.000031,  21.576
  1345.0,0.002752,0.001517,0.056545,0.000045,  21.577
  1346.0,0.002752,0.001522,0.057648,0.000031,  21.577
  1347.0,0.002765,0.001512,0.057975,0.000045,  21.572
  1348.0,0.002757,0.001513,0.058031,0.000045,  21.569
  1349.0,0.002748,0.001511,0.055387,0.000006,  21.573
  1350.0,0.002748,0.001515,0.057448,0.000034,  21.569
  1351.0,0.002748,0.001502,0.057875,0.000006,  21.566
  1352.0,0.002749,0.001509,0.058034,-0.000008,  21.572
  1353.0,0.002741,0.001509,0.057772,0.000020,  21.572
  1354.0,0.002742,0.001509,0.057968,0.000006,  21.569
  1355.0,0.002754,0.001516,0.058074,0.000006,  21.573
  1356.0,0.002746,0.001507,0.058005,0.000020,  21.573
  1357.0,0.002747,0.001507,0.058089,-0.000008,  21.578
  1358.0,0.002742,0.001504,0.057996,0.000006,  21.580
  1359.0,0.002753,0.001504,0.058008,0.000020,  21.580
  1360.0,0.002749,0.001519,0.057874,0.000034,  21.583
  1361.0,0.002756,0.001513,0.057806,-0.000005,  21.586
  1362.0,0.002757,0.001520,0.057930,0.000006,  21.585
  1363.0,0.002757,0.001532,0.057905,0.000084,  21.586
  1364.0,0.002748,0.001530,0.057890,-0.000005,  21.583
  1365.0,0.002757,0.001520,0.057983,-0.000005,  21.577
  1366.0,0.002741,0.001530,0.057983,-0.000029,  21.576
  1367.0,0.002757,0.001532,0.058074,-0.000005,  21.573
  1368.0,0.002765,0.001524,0.057881,0.000009,  21.572
  1369.0,0.002756,0.001513,0.057915,0.000020,  21.577
  1370.0,0.002757,0.001523,0.057918,0.000020,  21.572
  1371.0,0.002741,0.001508,0.057762,-0.000029,  21.575
  1372.0,0.002741,0.001514,0.057662,-0.000019,  21.578
  1373.0,0.002754,0.001511,0.057787,-0.000008,  21.585
  1374.0,0.002762,0.001519,0.057911,-0.000032,  21.588
  1375.0,0.002765,0.001520,0.057731,0.000020,  21.590
  1376.0,0.002760,0.001534,0.057821,0.000006,  21.592
  1377.0,0.002773,0.001530,0.057865,0.000034,  21.597
  1378.0,0.002774,0.001531,0.057849,-0.000019,  21.597
  1379.0,0.002762,0.001531,0.057886,-0.000043,  21.596
  1380.0,0.002758,0.001531,0.057830,-0.000005,  21.600
  1381.0,0.002746,0.001516,0.057868,0.000009,  21.599
  1382.0,0.002733,0.001514,0.057802,-0.000029,  21.602
  1383.0,0.002726,0.001512,0.057736,0.000020,  21.598
  1384.0,0.002731,0.001504,0.057419,-0.000005,  21.597
  1385.0,0.002715,0.001487,0.057528,-0.000029,  21.596
  1386.0,0.002723,0.001497,0.057571,-0.000005,  21.597
  1387.0,0.002723,0.001493,0.057459,-0.000019,  21.590
  1388.0,0.002715,0.001492,0.057403,0.000020,  21.593
  1389.0,0.002723,0.001491,0.057450,-0.000005,  21.589
  1390.0,0.002720,0.001479,0.057384,-0.000029,  21.589
  1391.0,0.002716,0.001483,0.057021,0.000031,  21.587
  1392.0,0.002740,0.001481,0.057306,0.000031,  21.587
  1393.0,0.002723,0.001483,0.057322,0.000006,  21.587
  1394.0,0.002732,0.001493,0.057219,0.000020,  21.585
  1395.0,0.002728,0.001490,0.057253,0.000034,  21.586
  1396.0,0.002723,0.001500,0.057138,0.000059,  21.591
  1397.0,0.002723,0.001507,0.057138,0.000020,  21.593
  1398.0,0.002716,0.001500,0.057163,-0.000008,  21.594
  1399.0,0.002704,0.001497,0.057151,0.000045,  21.591
  1400.0,0.002709,0.001487,0.057197,0.000059,  21.588
  1401.0,0.002716,0.001489,0.056803,-0.000043,  21.591
  1402.0,0.002728,0.001482,0.057039,0.000034,  21.595
  1403.0,0.002717,0.001490,0.055897,0.000009,  21.591
  1404.0,0.002716,0.001498,0.056706,0.000009,  21.596
  1405.0,0.002712,0.001497,0.056811,-0.000005,  21.594
  1406.0,0.002709,0.001493,0.056889,-0.000029,  21.599
  1407.0,0.002700,0.001493,0.056877,-0.000019,  21.598
  1408.0,0.002709,0.001484,0.056923,-0.000032,  21.600
  1409.0,0.002709,0.001490,0.056082,-0.000057,  21.605
  1410.0,0.002725,0.001490,0.055188,-0.000019,  21.610
  1411.0,0.002721,0.001496,0.056284,0.000006,  21.610
  1412.0,0.002716,0.001493,0.056631,-0.000057,  21.611
  1413.0,0.002717,0.001495,0.056734,0.000006,  21.609
  1414.0,0.002713,0.001496,0.056858,0.000009,  21.614
  1415.0,0.002717,0.001489,0.056911,-0.000019,  21.609
  1416.0,0.002713,0.001474,0.056880,0.000020,  21.618
  1417.0,0.002713,0.001477,0.056880,0.000009,  21.615
  1418.0,0.002698,0.001478,0.056790,0.000009,  21.616
  1419.0,0.002698,0.001476,0.056737,-0.000005,  21.616
  1420.0,0.002685,0.001478,0.056749,-0.000029,  21.618
  1421.0,0.002694,0.001479,0.056678,-0.000005,  21.612
  1422.0,0.002698,0.001487,0.056668,-0.000032,  21.613
  1423.0,0.002699,0.001486,0.056727,0.000006,  21.606
  1424.0,0.002699,0.001494,0.056671,0.000006,  21.608
  1425.0,0.002695,0.001469,0.056603,0.000059,  21.604
  1426.0,0.002699,0.001476,0.056615,0.000006,  21.603
  1427.0,0.002691,0.001479,0.056606,0.000020,  21.607
  1428.0,0.002674,0.001481,0.056528,0.000020,  21.605
  1429.0,0.002683,0.001476,0.056575,0.000020,  21.601
  1430.0,0.002679,0.001474,0.056609,0.000020,  21.604
  1431.0,0.002674,0.001460,0.056621,0.000070,  21.599
  1432.0,0.002688,0.001461,0.056466,0.000028,  21.604
  1433.0,0.002688,0.001465,0.055985,0.000045,  21.599
  1434.0,0.002679,0.001471,0.055267,-0.000019,  21.604
  1435.0,0.002688,0.001470,0.056078,0.000006,  21.606
  1436.0,0.002691,0.001477,0.056094,0.000006,  21.608
  1437.0,0.002686,0.001475,0.056252,0.000084,  21.605
  1438.0,0.002691,0.001467,0.056388,0.000045,  21.605
  1439.0,0.002695,0.001484,0.056488,-0.000019,  21.607
  1440.0,0.002702,0.001487,0.056432,0.000034,  21.612
  1441.0,0.002698,0.001485,0.056410,0.000048,  21.613
  1442.0,0.002693,0.001479,0.056419,0.000034,  21.617
  1443.0,0.002698,0.001491,0.056609,0.000009,  21.621
  1444.0,0.002693,0.001497,0.056522,-0.000029,  21.622
  1445.0,0.002698,0.001492,0.056541,0.000009,  21.624
  1446.0,0.002699,0.001491,0.056475,0.000009,  21.624
  1447.0,0.002699,0.001494,0.056500,-0.000043,  21.622
  1448.0,0.002712,0.001483,0.056453,-0.000005,  21.626
  1449.0,0.002703,0.001475,0.056509,0.000059,  21.627
  1450.0,0.002690,0.001487,0.056478,0.000020,  21.628
  1451.0,0.002691,0.001496,0.056274,0.000020,  21.624
  1452.0,0.002699,0.001489,0.056258,0.000048,  21.627
  1453.0,0.002715,0.001489,0.056451,0.000087,  21.628
  1454.0,0.002703,0.001502,0.056485,0.000059,  21.627
  1455.0,0.002707,0.001509,0.056497,0.000006,  21.625
  1456.0,0.002707,0.001508,0.056453,0.000020,  21.629
  1457.0,0.002703,0.001498,0.056385,0.000048,  21.628
  1458.0,0.002707,0.001495,0.056578,0.000112,  21.628
  1459.0,0.002700,0.001502,0.056385,0.000048,  21.627
  1460.0,0.002703,0.001491,0.056546,0.000087,  21.626
  1461.0,0.002707,0.001498,0.056723,0.000073,  21.624
  1462.0,0.002707,0.001492,0.056689,0.000073,  21.621
  1463.0,0.002707,0.001493,0.056655,0.000020,  21.624
  1464.0,0.002707,0.001504,0.056789,0.000034,  21.624
  1465.0,0.002711,0.001509,0.054933,0.000062,  21.627
  1466.0,0.002712,0.001507,0.055970,0.000009,  21.623
  1467.0,0.002717,0.001499,0.056509,0.000048,  21.621
  1468.0,0.002708,0.001493,0.056599,0.000048,  21.623
  1469.0,0.002707,0.001491,0.056575,0.000048,  21.619
  1470.0,0.002705,0.001497,0.056578,0.000048,  21.623
  1471.0,0.002700,0.001487,0.056388,0.000048,  21.621
  1472.0,0.002703,0.001493,0.056546,0.000073,  21.615
  1473.0,0.002696,0.001503,0.056466,0.000034,  21.613
  1474.0,0.002703,0.001500,0.056568,0.000023,  21.616
  1475.0,0.002688,0.001493,0.056503,0.000023,  21.609
  1476.0,0.002676,0.001488,0.056242,-0.000001,  21.609
  1477.0,0.002703,0.001478,0.056360,0.000048,  21.605
  1478.0,0.002682,0.001464,0.056462,0.000034,  21.604
  1479.0,0.002674,0.001471,0.056381,0.000048,  21.604
  1480.0,0.002674,0.001471,0.056282,0.000034,  21.607
  1481.0,0.002667,0.001470,0.056279,-0.000043,  21.610
  1482.0,0.002670,0.001467,0.056168,0.000098,  21.609
  1483.0,0.002665,0.001471,0.056183,0.000059,  21.604
  1484.0,0.002669,0.001468,0.056251,0.000009,  21.612
  1485.0,0.002668,0.001473,0.056239,0.000084,  21.612
  1486.0,0.002676,0.001464,0.056239,0.000070,  21.611
  1487.0,0.002691,0.001477,0.056307,0.000062,  21.615
  1488.0,0.002685,0.001480,0.056170,0.000034,  21.614
  1489.0,0.002681,0.001486,0.056046,0.000020,  21.615
  1490.0,0.002681,0.001465,0.055879,0.000034,  21.610
  1491.0,0.002657,0.001465,0.056064,0.000059,  21.609
  1492.0,0.002657,0.001457,0.055749,0.000034,  21.611
  1493.0,0.002648,0.001470,0.055189,0.000031,  21.605
  1494.0,0.002657,0.001467,0.055786,0.000045,  21.601
  1495.0,0.002645,0.001463,0.055956,0.000045,  21.601
  1496.0,0.002665,0.001470,0.056011,0.000045,  21.599
  1497.0,0.002658,0.001466,0.056043,0.000045,  21.594
  1498.0,0.002657,0.001460,0.056021,0.000034,  21.593
  1499.0,0.002657,0.001467,0.055683,0.000045,  21.591
  1500.0,0.002665,0.001464,0.055912,0.000045,  21.587
  1501.0,0.002673,0.001461,0.055968,0.000073,  21.589
  1502.0,0.002669,0.001473,0.055980,0.000098,  21.591
  1503.0,0.002669,0.001460,0.056408,0.000048,  21.591
  1504.0,0.002662,0.001474,0.056061,0.000034,  21.591
  1505.0,0.002658,0.001457,0.055971,0.000034,  21.592
  1506.0,0.002671,0.001455,0.055881,-0.000005,  21.593
  1507.0,0.002646,0.001455,0.055680,0.000045,  21.600
  1508.0,0.002651,0.001454,0.055794,0.000020,  21.598
  1509.0,0.002676,0.001462,0.055738,0.000031,  21.601
  1510.0,0.002659,0.001454,0.055899,0.000031,  21.598
  1511.0,0.002651,0.001461,0.055806,0.000045,  21.604
  1512.0,0.002646,0.001457,0.055785,0.000045,  21.604
  1513.0,0.002662,0.001460,0.055896,0.000031,  21.601
  1514.0,0.002662,0.001456,0.055840,0.000006,  21.599
  1515.0,0.002665,0.001461,0.055695,0.000095,  21.602
  1516.0,0.002653,0.001463,0.055630,0.000070,  21.602
  1517.0,0.002653,0.001470,0.055751,0.000031,  21.602
  1518.0,0.002662,0.001461,0.055785,0.000056,  21.600
  1519.0,0.002658,0.001452,0.055850,0.000017,  21.601
  1520.0,0.002670,0.001463,0.055704,0.000031,  21.602
  1521.0,0.002658,0.001466,0.055760,0.000006,  21.604
  1522.0,0.002662,0.001465,0.055466,0.000034,  21.601
  1523.0,0.002676,0.001470,0.055612,0.000020,  21.605
  1524.0,0.002669,0.001469,0.055689,0.000034,  21.603
  1525.0,0.002669,0.001481,0.055670,0.000034,  21.604
  1526.0,0.002669,0.001468,0.056085,0.000048,  21.604
  1527.0,0.002669,0.001474,0.055782,0.000034,  21.602
  1528.0,0.002661,0.001471,0.055825,0.000020,  21.599
  1529.0,0.002673,0.001474,0.055918,0.000020,  21.604
  1530.0,0.002668,0.001485,0.055813,0.000084,  21.606
  1531.0,0.002672,0.001478,0.055847,-0.000032,  21.604
  1532.0,0.002684,0.001490,0.055903,0.000031,  21.606
  1533.0,0.002675,0.001478,0.056002,0.000006,  21.605
  1534.0,0.002679,0.001491,0.055965,0.000059,  21.606
  1535.0,0.002675,0.001484,0.056058,0.000009,  21.604
  1536.0,0.002667,0.001486,0.056058,0.000034,  21.607
  1537.0,0.002675,0.001487,0.055931,0.000098,  21.605
  1538.0,0.002695,0.001481,0.056055,0.000059,  21.608
  1539.0,0.002695,0.001482,0.054392,0.000073,  21.604
  1540.0,0.002695,0.001488,0.055427,0.000098,  21.609
  1541.0,0.002703,0.001481,0.055780,0.000045,  21.605
  1542.0,0.002699,0.001490,0.055975,0.000045,  21.607
  1543.0,0.002691,0.001484,0.056561,0.000045,  21.602
  1544.0,0.002691,0.001488,0.056062,0.000073,  21.607
  1545.0,0.002695,0.001487,0.056275,0.000098,  21.602
  1546.0,0.002678,0.001483,0.056319,0.000017,  21.602
  1547.0,0.002690,0.001481,0.056096,0.000059,  21.606
  1548.0,0.002683,0.001498,0.056176,0.000045,  21.603
  1549.0,0.002683,0.001489,0.056220,0.000045,  21.602
  1550.0,0.002712,0.001486,0.056059,0.000045,  21.602
  1551.0,0.002700,0.001490,0.056034,0.000020,  21.603
  1552.0,0.002703,0.001491,0.056226,0.000020,  21.602
  1553.0,0.002707,0.001481,0.056363,0.000059,  21.601
  1554.0,0.002717,0.001483,0.056248,0.000034,  21.605
  1555.0,0.002686,0.001491,0.056375,0.000034,  21.603
  1556.0,0.002690,0.001491,0.056204,0.000020,  21.603
  1557.0,0.002690,0.001493,0.055969,0.000020,  21.604
  1558.0,0.002716,0.001490,0.056071,0.000059,  21.603
  1559.0,0.002708,0.001484,0.056319,0.000059,  21.603
  1560.0,0.002707,0.001490,0.056273,0.000045,  21.607
  1561.0,0.002699,0.001485,0.056344,0.000045,  21.606
  1562.0,0.002700,0.001483,0.056307,0.000073,  21.604
  1563.0,0.002703,0.001479,0.056363,-0.000019,  21.605
  1564.0,0.002703,0.001480,0.056375,0.000034,  21.611
  1565.0,0.002707,0.001495,0.056350,0.000087,  21.607
  1566.0,0.002698,0.001495,0.056307,0.000059,  21.609
  1567.0,0.002722,0.001503,0.056207,0.000034,  21.608
  1568.0,0.002700,0.001487,0.056204,-0.000005,  21.608
  1569.0,0.002703,0.001485,0.056251,0.000034,  21.609
  1570.0,0.002700,0.001495,0.056251,0.000098,  21.609
  1571.0,0.002686,0.001486,0.056226,0.000031,  21.608
  1572.0,0.002699,0.001488,0.056105,0.000109,  21.608
  1573.0,0.002699,0.001488,0.056207,0.000087,  21.607
  1574.0,0.002702,0.001494,0.056251,0.000020,  21.607
  1575.0,0.002699,0.001484,0.056204,0.000034,  21.608
  1576.0,0.002699,0.001489,0.056363,-0.000005,  21.603
  1577.0,0.002699,0.001492,0.056282,0.000020,  21.605
  1578.0,0.002695,0.001494,0.056263,0.000048,  21.605
  1579.0,0.002711,0.001486,0.056239,0.000045,  21.602
  1580.0,0.002711,0.001495,0.056124,0.000045,  21.602
  1581.0,0.002707,0.001493,0.056186,0.000045,  21.603
  1582.0,0.002711,0.001491,0.056425,0.000059,  21.601
  1583.0,0.002702,0.001488,0.056437,0.000020,  21.599
  1584.0,0.002695,0.001493,0.056413,0.000084,  21.602
  1585.0,0.002707,0.001494,0.056335,0.000084,  21.599
  1586.0,0.002707,0.001492,0.056338,0.000045,  21.598
  1587.0,0.002711,0.001489,0.056381,0.000059,  21.600
  1588.0,0.002711,0.001484,0.056403,0.000059,  21.599
  1589.0,0.002702,0.001490,0.056360,0.000031,  21.599
  1590.0,0.002702,0.001497,0.056357,0.000045,  21.601
  1591.0,0.002702,0.001504,0.056413,0.000070,  21.601
  1592.0,0.002710,0.001498,0.056347,0.000045,  21.603
  1593.0,0.002719,0.001506,0.056276,0.000070,  21.602
  1594.0,0.002722,0.001496,0.056252,0.000059,  21.606
  1595.0,0.002726,0.001492,0.056398,0.000059,  21.604
  1596.0,0.002729,0.001492,0.056410,0.000073,  21.602
  1597.0,0.002729,0.001495,0.056097,0.000059,  21.605
  1598.0,0.002733,0.001505,0.055357,0.000045,  21.606
  1599.0,0.002726,0.001499,0.056230,0.000098,  21.604
  1600.0,0.002733,0.001496,0.056528,0.000070,  21.604
  1601.0,0.002729,0.001493,0.056575,0.000070,  21.603
  1602.0,0.002713,0.001496,0.056516,0.000056,  21.604
  1603.0,0.002721,0.001480,0.056311,0.000020,  21.606
  1604.0,0.002721,0.001482,0.056618,0.000031,  21.606
  1605.0,0.002725,0.001496,0.056652,0.000045,  21.610
  1606.0,0.002733,0.001501,0.056674,0.000045,  21.606
  1607.0,0.002737,0.001498,0.056606,0.000056,  21.604
  1608.0,0.002737,0.001490,0.056550,0.000017,  21.604
  1609.0,0.002737,0.001500,0.056628,0.000045,  21.602
  1610.0,0.002733,0.001498,0.056718,0.000056,  21.601
  1611.0,0.002733,0.001492,0.056761,0.000109,  21.600
  1612.0,0.002733,0.001494,0.056600,0.000084,  21.597
  1613.0,0.002729,0.001492,0.056659,0.000045,  21.602
  1614.0,0.002737,0.001493,0.056792,0.000045,  21.600
  1615.0,0.002740,0.001494,0.056883,0.000056,  21.599
  1616.0,0.002744,0.001501,0.056588,0.000031,  21.603
  1617.0,0.002751,0.001513,0.056899,0.000045,  21.608
  1618.0,0.002760,0.001512,0.057042,0.000059,  21.607
  1619.0,0.002763,0.001515,0.056800,0.000006,  21.604
  1620.0,0.002774,0.001520,0.057095,0.000070,  21.607
  1621.0,0.002759,0.001523,0.057111,0.000045,  21.612
  1622.0,0.002770,0.001523,0.057285,0.000073,  21.614
  1623.0,0.002793,0.001530,0.057316,0.000070,  21.612
  1624.0,0.002804,0.001541,0.057384,0.000073,  21.615
  1625.0,0.002800,0.001553,0.057615,0.000073,  21.614
  1626.0,0.002800,0.001561,0.057758,0.000087,  21.619
  1627.0,0.002814,0.001563,0.057943,0.000087,  21.628
  1628.0,0.002811,0.001574,0.058045,0.000087,  21.627
  1629.0,0.002811,0.001570,0.058042,0.000087,  21.634
  1630.0,0.002807,0.001575,0.058145,0.000073,  21.634
  1631.0,0.002807,0.001570,0.058018,0.000073,  21.637
  1632.0,0.002815,0.001558,0.058239,0.000062,  21.637
  1633.0,0.002807,0.001565,0.058286,0.000101,  21.637
  1634.0,0.002817,0.001568,0.058012,0.000098,  21.638
  1635.0,0.002817,0.001559,0.058152,0.000045,  21.636
  1636.0,0.002808,0.001556,0.058195,0.000073,  21.635
  1637.0,0.002801,0.001546,0.057959,0.000045,  21.638
  1638.0,0.002785,0.001551,0.058117,0.000087,  21.640
  1639.0,0.002785,0.001548,0.058018,0.000059,  21.640
  1640.0,0.002790,0.001539,0.057961,0.000034,  21.638
  1641.0,0.002793,0.001536,0.057996,0.000034,  21.638
  1642.0,0.002805,0.001537,0.057868,0.000045,  21.631
  1643.0,0.002792,0.001531,0.058018,0.000045,  21.632
  1644.0,0.002800,0.001534,0.057812,0.000059,  21.637
  1645.0,0.002801,0.001529,0.058064,0.000070,  21.634
  1646.0,0.002800,0.001527,0.058074,0.000045,  21.635
  1647.0,0.002803,0.001536,0.058071,0.000084,  21.627
  1648.0,0.002815,0.001536,0.058083,0.000045,  21.626
  1649.0,0.002803,0.001546,0.058171,0.000045,  21.622
  1650.0,0.002808,0.001545,0.058205,0.000084,  21.615
  1651.0,0.002812,0.001533,0.058349,0.000073,  21.612
  1652.0,0.002812,0.001539,0.058130,0.000059,  21.608
  1653.0,0.002815,0.001537,0.058314,0.000059,  21.605
  1654.0,0.002811,0.001539,0.058333,0.000059,  21.605
  1655.0,0.002818,0.001546,0.058367,0.000059,  21.602
  1656.0,0.002823,0.001537,0.058489,0.000045,  21.600
  1657.0,0.002818,0.001541,0.058156,0.000045,  21.602
  1658.0,0.002823,0.001542,0.057474,0.000084,  21.606
  1659.0,0.002828,0.001553,0.057747,0.000045,  21.603
  1660.0,0.002814,0.001545,0.058227,0.000073,  21.608
  1661.0,0.002827,0.001537,0.058555,0.000098,  21.610
  1662.0,0.002822,0.001536,0.058667,0.000045,  21.609
  1663.0,0.002827,0.001549,0.058655,0.000059,  21.611
  1664.0,0.002842,0.001540,0.058730,0.000020,  21.609
  1665.0,0.002838,0.001553,0.058742,0.000059,  21.609
  1666.0,0.002829,0.001552,0.058658,0.000059,  21.613
  1667.0,0.002834,0.001545,0.058693,0.000070,  21.611
  1668.0,0.002845,0.001552,0.058765,0.000045,  21.617
  1669.0,0.002849,0.001554,0.058912,0.000098,  21.614
  1670.0,0.002840,0.001550,0.058902,0.000059,  21.617
  1671.0,0.002848,0.001556,0.058968,0.000059,  21.621
  1672.0,0.002861,0.001559,0.058849,0.000059,  21.621
  1673.0,0.002857,0.001552,0.058987,0.000059,  21.622
  1674.0,0.002849,0.001567,0.059240,0.000098,  21.624
  1675.0,0.002854,0.001563,0.059337,0.000059,  21.616
  1676.0,0.002872,0.001561,0.059393,0.000031,  21.623
  1677.0,0.002868,0.001560,0.059425,0.000045,  21.627
  1678.0,0.002876,0.001554,0.059397,0.000045,  21.629
  1679.0,0.002859,0.001557,0.059475,0.000045,  21.625
  1680.0,0.002871,0.001561,0.059544,0.000109,  21.626
  1681.0,0.002879,0.001567,0.059553,0.000161,  21.627
  1682.0,0.002878,0.001575,0.059788,0.000123,  21.621
  1683.0,0.002890,0.001568,0.059741,0.000045,  21.622
  1684.0,0.002890,0.001567,0.059823,0.000084,  21.618
  1685.0,0.002889,0.001573,0.059888,0.000109,  21.620
  1686.0,0.002905,0.001580,0.060011,0.000109,  21.627
  1687.0,0.002900,0.001580,0.059792,0.000084,  21.628
  1688.0,0.002913,0.001590,0.059976,0.000147,  21.628
  1689.0,0.002916,0.001587,0.059980,0.000045,  21.632
  1690.0,0.002907,0.001590,0.060183,0.000098,  21.630
  1691.0,0.002908,0.001594,0.060149,0.000070,  21.630
