Run Name,AC .15
Run Date,04:30:30 PM   02-29-16
Method Name,15% isocratic
Export Format Version, 1.00
Method ID, 3024
Points/Second, 1.00
Number of Records,    960
Offset from Run Start Time,00:00:00
Run End Time,00:16:00
Time,Second
QuadTec 1, (280.0 nm), AU
QuadTec 2, (260.0 nm), AU
Gradient Pump,<Not Selected>
QuadTec 3, (214.0 nm), AU
QuadTec 4, (405.0 nm), AU
Conductivity,mS/cm
Trace 6,<Not Available>
GP Pressure,<Not Selected>
Volume,<Not Selected>
Fraction,<Not Available>
Time,QuadTec 1,QuadTec 2,QuadTec 3,QuadTec 4,Conductivity
     0.0,-0.004059,0.000000,0.006302,0.000000,  88.767
     1.0,0.000000,0.000000,0.000000,0.000000,  88.744
     2.0,0.000000,0.000000,0.000000,0.000000,  88.722
     3.0,0.000000,0.000000,0.000000,0.000000,  88.701
     4.0,-0.000027,0.000000,-0.000058,-0.000039,  88.672
     5.0,-0.000048,-0.000096,-0.000291,-0.000078,  88.660
     6.0,-0.000074,-0.000132,-0.000661,-0.000089,  88.667
     7.0,-0.000088,-0.000161,-0.000894,-0.000103,  88.683
     8.0,-0.000110,-0.000186,-0.001244,-0.000155,  88.733
     9.0,-0.000129,-0.000199,-0.001680,-0.000183,  88.791
    10.0,-0.000146,-0.000190,-0.001913,-0.000130,  88.918
    11.0,-0.000145,-0.000188,-0.002049,-0.000169,  89.005
    12.0,-0.000134,-0.000190,-0.002116,-0.000141,  89.082
    13.0,-0.000129,-0.000178,-0.002319,-0.000117,  89.163
    14.0,-0.000120,-0.000172,-0.002679,-0.000155,  89.282
    15.0,-0.000116,-0.000163,-0.002776,-0.000130,  89.339
    16.0,-0.000100,-0.000155,-0.002406,-0.000141,  89.369
    17.0,-0.000085,-0.000130,-0.002484,-0.000141,  89.384
    18.0,-0.000070,-0.000116,-0.002591,-0.000089,  89.346
    19.0,-0.000021,-0.000093,-0.002435,-0.000100,  89.321
    20.0,-0.000037,-0.000086,-0.002513,-0.000089,  89.296
    21.0,-0.000039,-0.000096,-0.002513,-0.000064,  89.249
    22.0,-0.000057,-0.000102,-0.002591,-0.000075,  89.215
    23.0,-0.000054,-0.000117,-0.002678,-0.000061,  89.183
    24.0,-0.000061,-0.000104,-0.002940,-0.000061,  89.153
    25.0,-0.000066,-0.000102,-0.002911,-0.000050,  89.071
    26.0,-0.000050,-0.000098,-0.002873,-0.000036,  89.048
    27.0,-0.000050,-0.000092,-0.002960,-0.000022,  89.009
    28.0,-0.000051,-0.000095,-0.002776,-0.000075,  88.985
    29.0,-0.000043,-0.000096,-0.002766,-0.000050,  88.962
    30.0,-0.000051,-0.000089,-0.002843,-0.000100,  88.942
    31.0,-0.000038,-0.000084,-0.002892,-0.000061,  88.942
    32.0,-0.000039,-0.000080,-0.002979,-0.000061,  88.935
    33.0,-0.000032,-0.000080,-0.002805,-0.000072,  88.939
    34.0,-0.000027,-0.000084,-0.002776,-0.000047,  88.945
    35.0,-0.000000,-0.000079,-0.002572,-0.000047,  88.955
    36.0,-0.000006,-0.000064,-0.002601,-0.000036,  88.965
    37.0,-0.000023,-0.000070,-0.002611,-0.000022,  88.976
    38.0,-0.000016,-0.000063,-0.002475,-0.000086,  88.989
    39.0,-0.000016,-0.000068,-0.002446,-0.000072,  89.006
    40.0,-0.000028,-0.000049,-0.002534,-0.000022,  89.019
    41.0,-0.000024,-0.000054,-0.002641,-0.000036,  89.041
    42.0,-0.000028,-0.000049,-0.002718,-0.000075,  89.053
    43.0,-0.000020,-0.000046,-0.002737,-0.000086,  89.111
    44.0,-0.000017,-0.000057,-0.002689,-0.000072,  89.116
    45.0,-0.000017,-0.000060,-0.002669,-0.000033,  89.118
    46.0,-0.000016,-0.000052,-0.002874,-0.000072,  89.129
    47.0,-0.000021,-0.000063,-0.002669,-0.000058,  89.131
    48.0,-0.000016,-0.000070,-0.002659,-0.000033,  89.128
    49.0,-0.000007,-0.000062,-0.002766,-0.000072,  89.140
    50.0,-0.000011,-0.000074,-0.002795,-0.000033,  89.128
    51.0,0.000011,-0.000064,-0.002533,-0.000047,  89.134
    52.0,0.000001,-0.000066,-0.002669,-0.000033,  89.131
    53.0,0.000005,-0.000048,-0.002504,-0.000033,  89.120
    54.0,0.000008,-0.000034,-0.002446,-0.000072,  89.109
    55.0,-0.000004,-0.000017,-0.002321,-0.000072,  89.091
    56.0,0.000007,-0.000001,-0.002117,-0.000061,  89.071
    57.0,0.000018,0.000013,-0.002400,-0.000100,  89.053
    58.0,0.000025,0.000009,-0.001973,-0.000047,  89.019
    59.0,0.000022,0.000028,-0.001769,-0.000022,  88.977
    60.0,0.000036,0.000044,-0.001333,-0.000047,  88.868
    61.0,0.000066,0.000060,-0.001013,-0.000022,  88.785
    62.0,0.000080,0.000090,-0.000772,-0.000100,  88.680
    63.0,0.000104,0.000123,-0.000062,-0.000086,  88.496
    64.0,0.000155,0.000187,0.000943,-0.000047,  88.312
    65.0,0.000192,0.000258,0.001705,-0.000072,  88.048
    66.0,0.000217,0.000305,0.002613,-0.000033,  87.769
    67.0,0.000305,0.000438,0.003632,-0.000005,  87.385
    68.0,0.000381,0.000558,0.004723,0.000037,  86.933
    69.0,0.000492,0.000702,0.005876,0.000118,  86.354
    70.0,0.000634,0.000855,0.007141,0.000188,  85.730
    71.0,0.000810,0.001047,0.008318,0.000205,  84.969
    72.0,0.000929,0.001218,0.009429,0.000341,  84.050
    73.0,0.001043,0.001337,0.010444,0.000369,  83.092
    74.0,0.001164,0.001502,0.011623,0.000456,  81.945
    75.0,0.001351,0.001685,0.012694,0.000607,  80.753
    76.0,0.001452,0.001784,0.013242,0.000557,  79.418
    77.0,0.001543,0.001959,0.014030,0.000677,  78.014
    78.0,0.001591,0.001971,0.014472,0.000683,  76.510
    79.0,0.001661,0.002019,0.014932,0.000753,  74.947
    80.0,0.001661,0.002056,0.015177,0.000764,  73.313
    81.0,0.001633,0.002043,0.015032,0.000711,  71.656
    82.0,0.001721,0.002095,0.015114,0.000767,  69.957
    83.0,0.001615,0.002060,0.014963,0.000803,  68.261
    84.0,0.001656,0.002044,0.014731,0.000750,  66.589
    85.0,0.001629,0.002037,0.014470,0.000803,  64.909
    86.0,0.001615,0.001964,0.014038,0.000747,  63.246
    87.0,0.001560,0.001882,0.013829,0.000708,  61.621
    88.0,0.001511,0.001826,0.013074,0.000663,  59.998
    89.0,0.001509,0.001753,0.012766,0.000733,  58.468
    90.0,0.001509,0.001741,0.012263,0.000719,  56.956
    91.0,0.001462,0.001631,0.011601,0.000719,  55.499
    92.0,0.001433,0.001605,0.011283,0.000705,  54.085
    93.0,0.001403,0.001570,0.010673,0.000705,  52.711
    94.0,0.001378,0.001500,0.009654,0.000691,  51.397
    95.0,0.001294,0.001429,0.007895,0.000596,  50.122
    96.0,0.001251,0.001360,0.008730,0.000646,  48.922
    97.0,0.001245,0.001413,0.008514,0.000621,  47.752
    98.0,0.001204,0.001381,0.008239,0.000579,  46.626
    99.0,0.001200,0.001331,0.007642,0.000593,  45.555
   100.0,0.001196,0.001317,0.006958,0.000593,  44.515
   101.0,0.001204,0.001291,0.006684,0.000579,  43.524
   102.0,0.001168,0.001242,0.006131,0.000593,  42.584
   103.0,0.001137,0.001222,0.005736,0.000593,  41.695
   104.0,0.001152,0.001190,0.005324,0.000632,  40.823
   105.0,0.001165,0.001202,0.004662,0.000607,  39.992
   106.0,0.001154,0.001178,0.004181,0.000593,  39.192
   107.0,0.001116,0.001129,0.004056,0.000618,  38.438
   108.0,0.001113,0.001122,0.003536,0.000579,  37.703
   109.0,0.001068,0.001090,0.002826,0.000579,  37.003
   110.0,0.001054,0.001069,0.002525,0.000579,  36.339
   111.0,0.001049,0.001068,0.002025,0.000540,  35.698
   112.0,0.001036,0.001044,0.001930,0.000579,  35.081
   113.0,0.001048,0.001053,0.001224,0.000565,  34.503
   114.0,0.001040,0.001060,0.000972,0.000551,  33.938
   115.0,0.001040,0.001050,0.000444,0.000604,  33.405
   116.0,0.001034,0.001031,0.000163,0.000587,  32.892
   117.0,0.001021,0.000998,-0.000206,0.000565,  32.406
   118.0,0.001027,0.000986,-0.000517,0.000604,  31.935
   119.0,0.001029,0.000971,-0.001238,0.000604,  31.492
   120.0,0.001039,0.000959,-0.001314,0.000590,  31.066
   121.0,0.001027,0.000952,-0.001682,0.000579,  30.659
   122.0,0.001015,0.000943,-0.001924,0.000579,  30.278
   123.0,0.001020,0.000944,-0.002331,0.000618,  29.895
   124.0,0.000994,0.000927,-0.002758,0.000579,  29.546
   125.0,0.000994,0.000935,-0.002911,0.000579,  29.204
   126.0,0.000998,0.000916,-0.003288,0.000590,  28.877
   127.0,0.000978,0.000932,-0.003636,0.000526,  28.568
   128.0,0.001002,0.000930,-0.003799,0.000579,  28.263
   129.0,0.001012,0.000940,-0.005999,0.000579,  27.977
   130.0,0.001002,0.000937,-0.005025,0.000565,  27.709
   131.0,0.001002,0.000922,-0.004879,0.000618,  27.446
   132.0,0.001006,0.000917,-0.005110,0.000607,  27.202
   133.0,0.001010,0.000911,-0.005331,0.000582,  26.960
   134.0,0.001010,0.000921,-0.005542,0.000607,  26.733
   135.0,0.001010,0.000913,-0.005656,0.000607,  26.518
   136.0,0.001015,0.000914,-0.005974,0.000593,  26.308
   137.0,0.001007,0.000907,-0.006243,0.000607,  26.103
   138.0,0.001005,0.000913,-0.006309,0.000582,  25.914
   139.0,0.001008,0.000917,-0.006732,0.000607,  25.733
   140.0,0.001005,0.000918,-0.006837,0.000607,  25.564
   141.0,0.001005,0.000912,-0.007028,0.000621,  25.397
   142.0,0.000994,0.000904,-0.007249,0.000632,  25.234
   143.0,0.001008,0.000912,-0.007344,0.000607,  25.078
   144.0,0.001008,0.000905,-0.007631,0.000607,  24.935
   145.0,0.001001,0.000908,-0.007918,0.000593,  24.791
   146.0,0.001005,0.000904,-0.008119,0.000621,  24.657
   147.0,0.001017,0.000887,-0.008051,0.000657,  24.530
   148.0,0.001019,0.000894,-0.008280,0.000685,  24.409
   149.0,0.001002,0.000896,-0.008672,0.000632,  24.289
   150.0,0.001007,0.000882,-0.008548,0.000657,  24.171
   151.0,0.001014,0.000882,-0.008824,0.000685,  24.070
   152.0,0.001002,0.000874,-0.008929,0.000632,  23.962
   153.0,0.000996,0.000879,-0.009454,0.000632,  23.865
   154.0,0.000995,0.000873,-0.009578,0.000604,  23.765
   155.0,0.000987,0.000865,-0.009654,0.000657,  23.676
   156.0,0.001000,0.000873,-0.009558,0.000685,  23.587
   157.0,0.000995,0.000867,-0.009672,0.000660,  23.502
   158.0,0.000998,0.000883,-0.009748,0.000699,  23.426
   159.0,0.000998,0.000887,-0.009891,0.000685,  23.352
   160.0,0.000994,0.000887,-0.009853,0.000632,  23.276
   161.0,0.000989,0.000873,-0.010014,0.000671,  23.213
   162.0,0.000980,0.000886,-0.009948,0.000646,  23.142
   163.0,0.000997,0.000893,-0.010233,0.000646,  23.085
   164.0,0.000994,0.000888,-0.010214,0.000607,  23.020
   165.0,0.001006,0.000886,-0.010223,0.000621,  22.964
   166.0,0.001006,0.000886,-0.010395,0.000646,  22.905
   167.0,0.001007,0.000880,-0.010546,0.000607,  22.850
   168.0,0.000991,0.000884,-0.010404,0.000646,  22.804
   169.0,0.001003,0.000893,-0.010461,0.000709,  22.756
   170.0,0.001007,0.000894,-0.010613,0.000685,  22.711
   171.0,0.001011,0.000884,-0.010812,0.000671,  22.663
   172.0,0.001019,0.000867,-0.011002,0.000685,  22.623
   173.0,0.001007,0.000882,-0.010803,0.000646,  22.585
   174.0,0.000995,0.000876,-0.010822,0.000671,  22.550
   175.0,0.001003,0.000875,-0.010803,0.000607,  22.519
   176.0,0.000998,0.000864,-0.010841,0.000621,  22.488
   177.0,0.001000,0.000859,-0.010878,0.000646,  22.456
   178.0,0.001000,0.000865,-0.011049,0.000607,  22.424
   179.0,0.000995,0.000870,-0.011268,0.000646,  22.397
   180.0,0.001003,0.000870,-0.011362,0.000646,  22.370
   181.0,0.000987,0.000870,-0.011154,0.000621,  22.346
   182.0,0.000987,0.000861,-0.011116,0.000646,  22.314
   183.0,0.001000,0.000865,-0.011144,0.000607,  22.291
   184.0,0.001004,0.000870,-0.011068,0.000621,  22.262
   185.0,0.000992,0.000868,-0.011116,0.000695,  22.241
   186.0,0.001003,0.000866,-0.011087,0.000657,  22.216
   187.0,0.001011,0.000869,-0.011144,0.000681,  22.189
   188.0,0.000998,0.000867,-0.011324,0.000671,  22.169
   189.0,0.001002,0.000870,-0.011239,0.000671,  22.146
   190.0,0.000995,0.000869,-0.011448,0.000695,  22.130
   191.0,0.001003,0.000877,-0.011201,0.000657,  22.109
   192.0,0.000995,0.000876,-0.011315,0.000618,  22.090
   193.0,0.000995,0.000864,-0.011362,0.000657,  22.073
   194.0,0.001003,0.000866,-0.011485,0.000671,  22.060
   195.0,0.000995,0.000862,-0.011391,0.000671,  22.044
   196.0,0.000992,0.000863,-0.011533,0.000671,  22.032
   197.0,0.000984,0.000862,-0.011457,0.000671,  22.014
   198.0,0.000992,0.000864,-0.011400,0.000671,  21.998
   199.0,0.000996,0.000871,-0.011561,0.000685,  21.984
   200.0,0.000984,0.000873,-0.011571,0.000632,  21.978
   201.0,0.000984,0.000873,-0.011533,0.000671,  21.963
   202.0,0.000996,0.000873,-0.011495,0.000671,  21.949
   203.0,0.000996,0.000868,-0.014552,0.000667,  21.926
   204.0,0.001009,0.000868,-0.012649,0.000657,  21.916
   205.0,0.001013,0.000876,-0.011978,0.000657,  21.900
   206.0,0.001000,0.000877,-0.011921,0.000671,  21.887
   207.0,0.001020,0.000880,-0.011789,0.000671,  21.875
   208.0,0.001029,0.000896,-0.011760,0.000660,  21.867
   209.0,0.001020,0.000891,-0.011675,0.000685,  21.855
   210.0,0.001029,0.000883,-0.011561,0.000685,  21.856
   211.0,0.001029,0.000881,-0.011694,0.000660,  21.855
   212.0,0.001021,0.000877,-0.011485,0.000685,  21.845
   213.0,0.001021,0.000868,-0.011675,0.000685,  21.844
   214.0,0.000998,0.000855,-0.011495,0.000685,  21.840
   215.0,0.001007,0.000854,-0.011637,0.000657,  21.836
   216.0,0.000993,0.000843,-0.014598,0.000632,  21.834
   217.0,0.000997,0.000843,-0.012706,0.000671,  21.826
   218.0,0.000997,0.000853,-0.012063,0.000685,  21.826
   219.0,0.001001,0.000858,-0.011845,0.000646,  21.820
   220.0,0.000996,0.000870,-0.011694,0.000685,  21.816
   221.0,0.001017,0.000872,-0.011694,0.000671,  21.813
   222.0,0.001001,0.000863,-0.011627,0.000632,  21.804
   223.0,0.001017,0.000881,-0.011694,0.000632,  21.799
   224.0,0.001008,0.000872,-0.011495,0.000593,  21.796
   225.0,0.000997,0.000876,-0.011618,0.000632,  21.795
   226.0,0.001023,0.000880,-0.011523,0.000632,  21.789
   227.0,0.000997,0.000880,-0.011722,0.000618,  21.781
   228.0,0.000997,0.000890,-0.011713,0.000632,  21.779
   229.0,0.001007,0.000896,-0.011646,0.000607,  21.774
   230.0,0.001009,0.000881,-0.011618,0.000632,  21.774
   231.0,0.001018,0.000876,-0.011590,0.000632,  21.763
   232.0,0.001008,0.000875,-0.011741,0.000632,  21.758
   233.0,0.000997,0.000871,-0.011751,0.000632,  21.756
   234.0,0.000993,0.000866,-0.011788,0.000607,  21.743
   235.0,0.001001,0.000858,-0.011741,0.000618,  21.735
   236.0,0.000992,0.000849,-0.011646,0.000657,  21.725
   237.0,0.000989,0.000837,-0.011722,0.000657,  21.721
   238.0,0.000976,0.000828,-0.011751,0.000632,  21.714
   239.0,0.000968,0.000824,-0.011675,0.000671,  21.709
   240.0,0.000989,0.000840,-0.011684,0.000685,  21.705
   241.0,0.000980,0.000839,-0.011807,0.000671,  21.706
   242.0,0.000985,0.000846,-0.011722,0.000632,  21.702
   243.0,0.000976,0.000846,-0.011589,0.000579,  21.699
   244.0,0.000984,0.000848,-0.011523,0.000604,  21.698
   245.0,0.000989,0.000850,-0.011656,0.000643,  21.695
   246.0,0.000980,0.000856,-0.011324,0.000618,  21.699
   247.0,0.000987,0.000854,-0.011495,0.000618,  21.695
   248.0,0.000987,0.000854,-0.011665,0.000579,  21.698
   249.0,0.000991,0.000854,-0.011798,0.000632,  21.693
   250.0,0.000987,0.000851,-0.011751,0.000632,  21.697
   251.0,0.000984,0.000850,-0.011845,0.000593,  21.690
   252.0,0.000984,0.000840,-0.011656,0.000632,  21.686
   253.0,0.000973,0.000839,-0.011694,0.000607,  21.683
   254.0,0.000964,0.000819,-0.011694,0.000579,  21.679
   255.0,0.000961,0.000821,-0.011741,0.000604,  21.679
   256.0,0.000947,0.000831,-0.011855,0.000565,  21.675
   257.0,0.000959,0.000830,-0.011637,0.000604,  21.671
   258.0,0.000961,0.000844,-0.011656,0.000604,  21.674
   259.0,0.000959,0.000841,-0.011665,0.000565,  21.674
   260.0,0.000967,0.000842,-0.011571,0.000604,  21.674
   261.0,0.000963,0.000841,-0.011646,0.000579,  21.672
   262.0,0.000958,0.000835,-0.011646,0.000565,  21.668
   263.0,0.000956,0.000832,-0.011618,0.000604,  21.670
   264.0,0.000952,0.000827,-0.011618,0.000579,  21.671
   265.0,0.000956,0.000824,-0.011684,0.000565,  21.676
   266.0,0.000948,0.000827,-0.011874,0.000565,  21.675
   267.0,0.000944,0.000824,-0.011713,0.000565,  21.675
   268.0,0.000940,0.000828,-0.011779,0.000604,  21.680
   269.0,0.000948,0.000834,-0.011741,0.000579,  21.678
   270.0,0.000940,0.000824,-0.011864,0.000551,  21.683
   271.0,0.000945,0.000834,-0.011940,0.000629,  21.684
   272.0,0.000958,0.000839,-0.011874,0.000551,  21.687
   273.0,0.000946,0.000839,-0.011845,0.000551,  21.691
   274.0,0.000953,0.000833,-0.011997,0.000565,  21.691
   275.0,0.000957,0.000840,-0.011987,0.000551,  21.694
   276.0,0.000953,0.000845,-0.012110,0.000551,  21.692
   277.0,0.000953,0.000841,-0.011968,0.000551,  21.691
   278.0,0.000957,0.000849,-0.011855,0.000565,  21.692
   279.0,0.000968,0.000844,-0.011874,0.000604,  21.685
   280.0,0.000964,0.000843,-0.011807,0.000579,  21.689
   281.0,0.000959,0.000854,-0.012054,0.000579,  21.679
   282.0,0.000968,0.000839,-0.011902,0.000618,  21.679
   283.0,0.000968,0.000836,-0.011836,0.000618,  21.673
   284.0,0.000968,0.000837,-0.011751,0.000618,  21.671
   285.0,0.000969,0.000836,-0.011807,0.000579,  21.672
   286.0,0.000968,0.000837,-0.011684,0.000565,  21.668
   287.0,0.000968,0.000855,-0.011694,0.000629,  21.670
   288.0,0.000952,0.000858,-0.011713,0.000643,  21.665
   289.0,0.000951,0.000865,-0.011627,0.000604,  21.662
   290.0,0.000952,0.000868,-0.011722,0.000643,  21.657
   291.0,0.000961,0.000868,-0.011741,0.000643,  21.648
   292.0,0.000970,0.000867,-0.011788,0.000643,  21.645
   293.0,0.000958,0.000848,-0.011732,0.000657,  21.642
   294.0,0.000945,0.000845,-0.011732,0.000604,  21.632
   295.0,0.000976,0.000848,-0.011722,0.000653,  21.621
   296.0,0.000958,0.000846,-0.011561,0.000643,  21.622
   297.0,0.000962,0.000850,-0.011665,0.000590,  21.606
   298.0,0.000962,0.000846,-0.011940,0.000629,  21.596
   299.0,0.000962,0.000847,-0.011807,0.000629,  21.595
   300.0,0.000965,0.000845,-0.011741,0.000629,  21.594
   301.0,0.000962,0.000862,-0.011703,0.000615,  21.591
   302.0,0.000980,0.000894,-0.011371,0.000604,  21.585
   303.0,0.000958,0.000876,-0.011324,0.000615,  21.578
   304.0,0.000928,0.000846,-0.011305,0.000615,  21.577
   305.0,0.000921,0.000825,-0.011429,0.000562,  21.571
   306.0,0.000918,0.000832,-0.011334,0.000587,  21.569
   307.0,0.000918,0.000827,-0.011296,0.000601,  21.569
   308.0,0.000929,0.000828,-0.011315,0.000601,  21.568
   309.0,0.000945,0.000839,-0.011391,0.000562,  21.566
   310.0,0.000936,0.000840,-0.011391,0.000523,  21.568
   311.0,0.000932,0.000835,-0.011163,0.000548,  21.570
   312.0,0.000952,0.000835,-0.011144,0.000537,  21.565
   313.0,0.000943,0.000835,-0.011021,0.000537,  21.565
   314.0,0.000952,0.000849,-0.010688,0.000562,  21.566
   315.0,0.000945,0.000841,-0.010821,0.000615,  21.569
   316.0,0.000940,0.000838,-0.010954,0.000587,  21.565
   317.0,0.000932,0.000842,-0.011116,0.000615,  21.570
   318.0,0.000928,0.000831,-0.012961,0.000576,  21.573
   319.0,0.000924,0.000835,-0.011628,0.000601,  21.577
   320.0,0.000925,0.000838,-0.011486,0.000615,  21.574
   321.0,0.000929,0.000837,-0.011173,0.000576,  21.577
   322.0,0.000929,0.000835,-0.010992,0.000601,  21.578
   323.0,0.000925,0.000835,-0.012904,0.000612,  21.583
   324.0,0.000934,0.000840,-0.011438,0.000639,  21.583
   325.0,0.000925,0.000823,-0.011059,0.000626,  21.582
   326.0,0.000912,0.000823,-0.011087,0.000639,  21.582
   327.0,0.000913,0.000807,-0.010917,0.000636,  21.583
   328.0,0.000925,0.000804,-0.010784,0.000587,  21.577
   329.0,0.000914,0.000804,-0.010831,0.000626,  21.579
   330.0,0.000918,0.000813,-0.010907,0.000584,  21.579
   331.0,0.000918,0.000817,-0.010964,0.000573,  21.576
   332.0,0.000906,0.000814,-0.010926,0.000626,  21.577
   333.0,0.000914,0.000803,-0.010822,0.000626,  21.576
   334.0,0.000917,0.000810,-0.010822,0.000587,  21.574
   335.0,0.000909,0.000820,-0.010869,0.000626,  21.579
   336.0,0.000913,0.000814,-0.010936,0.000587,  21.578
   337.0,0.000913,0.000808,-0.010850,0.000639,  21.577
   338.0,0.000897,0.000808,-0.010774,0.000626,  21.575
   339.0,0.000909,0.000809,-0.011012,0.000587,  21.578
   340.0,0.000918,0.000807,-0.010831,0.000639,  21.580
   341.0,0.000918,0.000823,-0.010812,0.000626,  21.581
   342.0,0.000909,0.000822,-0.010812,0.000587,  21.582
   343.0,0.000918,0.000820,-0.011012,0.000639,  21.585
   344.0,0.000918,0.000819,-0.011078,0.000626,  21.591
   345.0,0.000918,0.000823,-0.013696,0.000639,  21.587
   346.0,0.000918,0.000814,-0.011978,0.000626,  21.591
   347.0,0.000923,0.000825,-0.012791,0.000612,  21.592
   348.0,0.000923,0.000820,-0.011382,0.000650,  21.595
   349.0,0.000918,0.000807,-0.011021,0.000612,  21.599
   350.0,0.000923,0.000812,-0.010831,0.000587,  21.595
   351.0,0.000930,0.000817,-0.010717,0.000639,  21.603
   352.0,0.000930,0.000825,-0.010746,0.000626,  21.604
   353.0,0.000934,0.000831,-0.010641,0.000639,  21.605
   354.0,0.000935,0.000839,-0.010337,0.000626,  21.604
   355.0,0.000932,0.000842,-0.010831,0.000587,  21.605
   356.0,0.000943,0.000837,-0.010746,0.000639,  21.608
   357.0,0.000943,0.000846,-0.010689,0.000626,  21.604
   358.0,0.000963,0.000858,-0.010793,0.000587,  21.612
   359.0,0.000975,0.000856,0.000000,0.000639,  21.613
   360.0,0.000000,0.000000,0.000000,0.000000,  21.611
   361.0,0.000000,0.000000,0.000000,0.000000,  21.608
   362.0,0.000000,0.000000,0.000000,0.000000,  21.610
   363.0,0.000000,0.000000,0.000000,0.000000,  21.608
   364.0,0.000006,-0.000005,0.000038,0.000053,  21.611
   365.0,-0.000003,-0.000003,0.000000,-0.000025,  21.608
   366.0,-0.000007,0.000000,0.000000,-0.000050,  21.605
   367.0,-0.000016,0.000008,-0.000247,0.000003,  21.610
   368.0,-0.000024,0.000015,-0.000171,-0.000011,  21.605
   369.0,-0.000023,0.000014,-0.000257,-0.000050,  21.610
   370.0,-0.000031,0.000010,-0.000361,0.000003,  21.607
   371.0,-0.000035,-0.000008,-0.000219,-0.000011,  21.606
   372.0,-0.000040,-0.000015,-0.000057,-0.000050,  21.605
   373.0,-0.000047,-0.000024,-0.000171,-0.000011,  21.612
   374.0,-0.000039,-0.000021,-0.000285,-0.000050,  21.612
   375.0,-0.000055,-0.000019,-0.000162,0.000003,  21.608
   376.0,-0.000058,-0.000016,-0.000038,-0.000011,  21.613
   377.0,-0.000050,-0.000020,0.000047,-0.000050,  21.612
   378.0,-0.000051,-0.000025,0.000047,0.000003,  21.613
   379.0,-0.000042,-0.000016,-0.000247,-0.000011,  21.615
   380.0,-0.000055,-0.000026,-0.000181,-0.000050,  21.617
   381.0,-0.000063,-0.000019,0.000066,-0.000011,  21.615
   382.0,-0.000039,-0.000022,-0.000057,-0.000011,  21.616
   383.0,-0.000028,-0.000029,-0.000038,0.000000,  21.615
   384.0,-0.000044,-0.000020,0.000019,0.000000,  21.613
   385.0,-0.000044,-0.000021,-0.000114,0.000000,  21.616
   386.0,-0.000052,-0.000037,-0.000276,0.000028,  21.616
   387.0,-0.000061,-0.000031,-0.000171,0.000014,  21.614
   388.0,-0.000072,-0.000030,-0.000114,0.000028,  21.614
   389.0,-0.000077,-0.000032,-0.000047,0.000025,  21.617
   390.0,-0.000072,-0.000043,-0.000133,0.000039,  21.614
   391.0,-0.000065,-0.000038,-0.000285,0.000014,  21.613
   392.0,-0.000077,-0.000027,-0.000238,0.000000,  21.611
   393.0,-0.000072,-0.000041,-0.000209,-0.000025,  21.611
   394.0,-0.000073,-0.000039,-0.000361,-0.000011,  21.610
   395.0,-0.000073,-0.000040,-0.000190,-0.000025,  21.606
   396.0,-0.000065,-0.000034,-0.000190,-0.000025,  21.608
   397.0,-0.000069,-0.000027,-0.000219,0.000014,  21.604
   398.0,-0.000072,-0.000035,-0.000199,-0.000039,  21.599
   399.0,-0.000080,-0.000045,-0.000266,-0.000039,  21.594
   400.0,-0.000073,-0.000046,0.000105,-0.000039,  21.592
   401.0,-0.000072,-0.000050,-0.000076,-0.000064,  21.587
   402.0,-0.000077,-0.000046,-0.000190,-0.000011,  21.580
   403.0,-0.000073,-0.000043,-0.000304,0.000014,  21.582
   404.0,-0.000069,-0.000038,-0.000256,0.000028,  21.581
   405.0,-0.000057,-0.000034,-0.000152,0.000028,  21.570
   406.0,-0.000053,-0.000045,-0.000171,0.000039,  21.567
   407.0,-0.000062,-0.000028,-0.000124,0.000000,  21.566
   408.0,-0.000069,-0.000038,-0.001792,0.000000,  21.565
   409.0,-0.000057,-0.000028,-0.001423,0.000000,  21.566
   410.0,-0.000049,-0.000008,-0.000769,0.000014,  21.564
   411.0,-0.000046,-0.000014,-0.000209,0.000000,  21.565
   412.0,-0.000038,-0.000009,0.000085,0.000000,  21.563
   413.0,-0.000035,0.000002,0.000361,0.000014,  21.563
   414.0,-0.000030,-0.000005,0.000342,0.000014,  21.562
   415.0,-0.000019,-0.000000,0.000466,0.000028,  21.563
   416.0,-0.000020,0.000018,0.000589,0.000014,  21.567
   417.0,-0.000013,0.000014,-0.002151,0.000028,  21.566
   418.0,-0.000003,0.000021,-0.000077,0.000028,  21.569
   419.0,0.000015,0.000033,0.000684,0.000014,  21.569
   420.0,0.000031,0.000050,0.001017,0.000028,  21.570
   421.0,0.000058,0.000058,0.001179,0.000028,  21.572
   422.0,0.000069,0.000063,0.001541,0.000025,  21.571
   423.0,0.000086,0.000090,0.001989,0.000000,  21.569
   424.0,0.000103,0.000112,0.002275,0.000000,  21.564
   425.0,0.000138,0.000136,-0.000269,0.000028,  21.563
   426.0,0.000175,0.000156,0.001997,0.000053,  21.560
   427.0,0.000193,0.000190,0.003135,0.000039,  21.551
   428.0,0.000234,0.000225,0.003796,0.000028,  21.551
   429.0,0.000271,0.000250,0.002539,0.000042,  21.546
   430.0,0.000309,0.000273,0.004351,0.000028,  21.536
   431.0,0.000358,0.000308,0.005331,0.000028,  21.526
   432.0,0.000398,0.000346,0.005957,0.000014,  21.511
   433.0,0.000420,0.000381,0.006302,0.000000,  21.497
   434.0,0.000464,0.000406,0.007085,0.000014,  21.484
   435.0,0.000505,0.000456,0.007781,-0.000014,  21.469
   436.0,0.000560,0.000492,0.008400,-0.000039,  21.451
   437.0,0.000611,0.000522,0.009196,-0.000011,  21.436
   438.0,0.000674,0.000577,0.010159,-0.000011,  21.424
   439.0,0.000714,0.000620,0.010790,-0.000050,  21.401
   440.0,0.000773,0.000672,0.011697,0.000003,  21.377
   441.0,0.000837,0.000746,0.012507,-0.000011,  21.361
   442.0,0.000895,0.000799,0.013705,0.000003,  21.338
   443.0,0.000974,0.000854,0.014509,0.000042,  21.310
   444.0,0.001032,0.000916,0.015303,0.000042,  21.285
   445.0,0.001094,0.000970,0.016397,0.000095,  21.250
   446.0,0.001168,0.001023,0.017394,0.000095,  21.217
   447.0,0.001230,0.001085,0.018453,0.000056,  21.183
   448.0,0.001285,0.001151,0.019565,0.000056,  21.151
   449.0,0.001344,0.001211,0.020629,0.000056,  21.106
   450.0,0.001407,0.001277,0.021562,0.000070,  21.067
   451.0,0.001481,0.001331,0.022723,0.000084,  21.023
   452.0,0.001540,0.001387,0.023987,0.000109,  20.978
   453.0,0.001623,0.001447,0.025436,0.000123,  20.929
   454.0,0.001706,0.001503,0.026868,0.000123,  20.879
   455.0,0.001748,0.001546,0.028201,0.000098,  20.820
   456.0,0.001802,0.001593,0.029735,0.000123,  20.765
   457.0,0.001846,0.001642,0.031182,0.000084,  20.706
   458.0,0.001914,0.001684,0.032687,0.000098,  20.639
   459.0,0.001966,0.001714,0.033742,0.000098,  20.570
   460.0,0.002005,0.001750,0.034262,0.000084,  20.500
   461.0,0.002073,0.001791,0.035150,0.000081,  20.418
   462.0,0.002121,0.001796,0.035468,0.000081,  20.333
   463.0,0.002172,0.001814,0.035511,0.000056,  20.251
   464.0,0.002242,0.001843,0.035109,0.000081,  20.155
   465.0,0.002310,0.001869,0.032876,0.000039,  20.053
   466.0,0.002359,0.001896,0.032792,0.000000,  19.945
   467.0,0.002496,0.001926,0.031713,0.000025,  19.841
   468.0,0.002598,0.001971,0.030388,0.000011,  19.736
   469.0,0.002738,0.002032,0.029208,-0.000006,  19.625
   470.0,0.002912,0.002095,0.027970,-0.000031,  19.516
   471.0,0.003124,0.002170,0.026968,-0.000070,  19.412
   472.0,0.003352,0.002268,0.026392,-0.000031,  19.311
   473.0,0.003610,0.002397,0.026292,-0.000031,  19.233
   474.0,0.003869,0.002548,0.026928,-0.000056,  19.164
   475.0,0.004228,0.002726,0.028396,-0.000006,  19.113
   476.0,0.004605,0.002919,0.030399,-0.000056,  19.089
   477.0,0.005032,0.003135,0.032696,-0.000017,  19.089
   478.0,0.005504,0.003377,0.036016,-0.000042,  19.111
   479.0,0.006025,0.003643,0.040143,-0.000056,  19.159
   480.0,0.006594,0.003896,0.044961,-0.000042,  19.232
   481.0,0.007206,0.004220,0.050540,-0.000042,  19.333
   482.0,0.007875,0.004556,0.056350,-0.000028,  19.457
   483.0,0.008425,0.004927,0.062988,0.000025,  19.591
   484.0,0.009191,0.005319,0.069981,0.000025,  19.749
   485.0,0.009998,0.005758,0.077197,0.000025,  19.922
   486.0,0.010844,0.006217,0.083904,0.000025,  20.108
   487.0,0.011723,0.006674,0.092252,-0.000014,  20.299
   488.0,0.012659,0.007105,0.100812,0.000025,  20.493
   489.0,0.013647,0.007581,0.109778,0.000025,  20.686
   490.0,0.014680,0.008118,0.119324,0.000000,  20.883
   491.0,0.015654,0.008672,0.128850,0.000053,  21.076
   492.0,0.016587,0.009238,0.138928,0.000039,  21.266
   493.0,0.017690,0.009845,0.149153,0.000000,  21.452
   494.0,0.018813,0.010429,0.159459,0.000039,  21.642
   495.0,0.019974,0.011044,0.165791,0.000000,  21.816
   496.0,0.021121,0.011655,0.177832,0.000053,  21.988
   497.0,0.022252,0.012123,0.188323,0.000039,  22.152
   498.0,0.023406,0.012756,0.199044,0.000000,  22.313
   499.0,0.024508,0.013335,0.209514,0.000067,  22.465
   500.0,0.025589,0.013929,0.219739,0.000053,  22.604
   501.0,0.026443,0.014496,0.229589,0.000028,  22.749
   502.0,0.027481,0.015052,0.238728,0.000067,  22.874
   503.0,0.028496,0.015568,0.248009,0.000053,  22.999
   504.0,0.029465,0.016078,0.254972,0.000081,  23.119
   505.0,0.030394,0.016579,0.263691,0.000067,  23.222
   506.0,0.031310,0.016967,0.271955,0.000056,  23.320
   507.0,0.032151,0.017413,0.279672,0.000095,  23.417
   508.0,0.032966,0.017849,0.287168,0.000106,  23.498
   509.0,0.033649,0.018263,0.294217,0.000067,  23.571
   510.0,0.034335,0.018668,0.300840,0.000081,  23.639
   511.0,0.035064,0.019047,0.307045,0.000067,  23.695
   512.0,0.035741,0.019407,0.312782,0.000081,  23.745
   513.0,0.036383,0.019756,0.317710,0.000067,  23.787
   514.0,0.036987,0.020075,0.323414,0.000028,  23.817
   515.0,0.037587,0.020315,0.328512,0.000081,  23.842
   516.0,0.038144,0.020608,0.333427,0.000106,  23.858
   517.0,0.038698,0.020895,0.338233,0.000106,  23.876
   518.0,0.039096,0.021169,0.342639,0.000120,  23.881
   519.0,0.039611,0.021432,0.346924,0.000106,  23.875
   520.0,0.040077,0.021689,0.350954,0.000081,  23.872
   521.0,0.040516,0.021924,0.354458,0.000106,  23.860
   522.0,0.040952,0.022141,0.358116,0.000106,  23.843
   523.0,0.041359,0.022337,0.361538,0.000120,  23.824
   524.0,0.041743,0.022536,0.365089,0.000106,  23.798
   525.0,0.042148,0.022747,0.368350,0.000106,  23.772
   526.0,0.042488,0.022947,0.371396,0.000120,  23.742
   527.0,0.042812,0.023150,0.374705,0.000106,  23.710
   528.0,0.043157,0.023335,0.377399,0.000081,  23.677
   529.0,0.043497,0.023513,0.380277,0.000106,  23.650
   530.0,0.043806,0.023681,0.382728,0.000120,  23.608
   531.0,0.044111,0.023811,0.385432,0.000169,  23.578
   532.0,0.044403,0.023951,0.387977,0.000092,  23.544
   533.0,0.044705,0.024115,0.390296,0.000106,  23.505
   534.0,0.044977,0.024266,0.392757,0.000106,  23.466
   535.0,0.045181,0.024412,0.394770,0.000106,  23.435
   536.0,0.045446,0.024548,0.396792,0.000106,  23.405
   537.0,0.045686,0.024685,0.399119,0.000106,  23.371
   538.0,0.045940,0.024806,0.400722,0.000106,  23.340
   539.0,0.046160,0.024912,0.402734,0.000120,  23.301
   540.0,0.046369,0.025019,0.404417,0.000106,  23.268
   541.0,0.046594,0.025129,0.406263,0.000106,  23.236
   542.0,0.046786,0.025242,0.407744,0.000134,  23.203
   543.0,0.046970,0.025351,0.409723,0.000120,  23.177
   544.0,0.047121,0.025458,0.411494,0.000134,  23.143
   545.0,0.047301,0.025543,0.412877,0.000120,  23.113
   546.0,0.047473,0.025619,0.414246,0.000134,  23.088
   547.0,0.047625,0.025713,0.415351,0.000134,  23.057
   548.0,0.047781,0.025799,0.416799,0.000130,  23.023
   549.0,0.047937,0.025873,0.417991,0.000144,  22.993
   550.0,0.048068,0.025937,0.418732,0.000144,  22.966
   551.0,0.048195,0.026023,0.419942,0.000144,  22.939
   552.0,0.048331,0.026087,0.421064,0.000144,  22.911
   553.0,0.048417,0.026139,0.422076,0.000158,  22.882
   554.0,0.048528,0.026197,0.423103,0.000158,  22.854
   555.0,0.048618,0.026238,0.423695,0.000134,  22.826
   556.0,0.048725,0.026285,0.424278,0.000183,  22.798
   557.0,0.048812,0.026336,0.425127,0.000158,  22.772
   558.0,0.048893,0.026376,0.425918,0.000158,  22.748
   559.0,0.048968,0.026409,0.426682,0.000106,  22.722
   560.0,0.049038,0.026453,0.427135,0.000134,  22.700
   561.0,0.049103,0.026494,0.427860,0.000172,  22.677
   562.0,0.049132,0.026527,0.428308,0.000144,  22.651
   563.0,0.049198,0.026557,0.428716,0.000158,  22.630
   564.0,0.049230,0.026576,0.428977,0.000158,  22.607
   565.0,0.049272,0.026596,0.429315,0.000081,  22.589
   566.0,0.049313,0.026610,0.429644,0.000134,  22.571
   567.0,0.049321,0.026628,0.429839,0.000120,  22.547
   568.0,0.049341,0.026637,0.430011,0.000120,  22.522
   569.0,0.049353,0.026646,0.429915,0.000134,  22.499
   570.0,0.049362,0.026659,0.430184,0.000120,  22.473
   571.0,0.049358,0.026659,0.430049,0.000134,  22.453
   572.0,0.049366,0.026655,0.430123,0.000120,  22.436
   573.0,0.049358,0.026656,0.429975,0.000134,  22.417
   574.0,0.049341,0.026659,0.430123,0.000134,  22.401
   575.0,0.049329,0.026646,0.430104,0.000120,  22.385
   576.0,0.049304,0.026631,0.429848,0.000134,  22.370
   577.0,0.049288,0.026615,0.429496,0.000172,  22.354
   578.0,0.049259,0.026608,0.429408,0.000172,  22.338
   579.0,0.049235,0.026591,0.428871,0.000172,  22.317
   580.0,0.049189,0.026570,0.428422,0.000158,  22.306
   581.0,0.049152,0.026536,0.427941,0.000134,  22.293
   582.0,0.049103,0.026521,0.427700,0.000172,  22.276
   583.0,0.049037,0.026478,0.427408,0.000172,  22.256
   584.0,0.048972,0.026459,0.427065,0.000172,  22.240
   585.0,0.048910,0.026419,0.426383,0.000172,  22.229
   586.0,0.048844,0.026373,0.425848,0.000172,  22.213
   587.0,0.048766,0.026331,0.425232,0.000172,  22.195
   588.0,0.048696,0.026300,0.424360,0.000172,  22.182
   589.0,0.048619,0.026258,0.423736,0.000134,  22.166
   590.0,0.048541,0.026206,0.422968,0.000172,  22.151
   591.0,0.048446,0.026151,0.422236,0.000172,  22.138
   592.0,0.048356,0.026112,0.421515,0.000172,  22.124
   593.0,0.048245,0.026056,0.420573,0.000172,  22.111
   594.0,0.048138,0.026001,0.419561,0.000158,  22.098
   595.0,0.048024,0.025934,0.418604,0.000172,  22.091
   596.0,0.047933,0.025870,0.417811,0.000158,  22.077
   597.0,0.047810,0.025799,0.416568,0.000158,  22.069
   598.0,0.047704,0.025735,0.415737,0.000134,  22.060
   599.0,0.047556,0.025666,0.414808,0.000183,  22.052
   600.0,0.047425,0.025608,0.413674,0.000197,  22.042
   601.0,0.047294,0.025550,0.412494,0.000158,  22.036
   602.0,0.047151,0.025481,0.411238,0.000144,  22.031
   603.0,0.047007,0.025395,0.410143,0.000144,  22.020
   604.0,0.046856,0.025309,0.409002,0.000158,  22.012
   605.0,0.046741,0.025233,0.407679,0.000208,  22.005
   606.0,0.046586,0.025145,0.406341,0.000144,  22.002
   607.0,0.046443,0.025068,0.404745,0.000144,  21.993
   608.0,0.046288,0.025002,0.403705,0.000120,  21.990
   609.0,0.046121,0.024902,0.402369,0.000172,  21.982
   610.0,0.045962,0.024822,0.401133,0.000172,  21.972
   611.0,0.045786,0.024740,0.399691,0.000172,  21.961
   612.0,0.045611,0.024654,0.397949,0.000172,  21.956
   613.0,0.045448,0.024556,0.396262,0.000172,  21.947
   614.0,0.045289,0.024446,0.394506,0.000172,  21.936
   615.0,0.045110,0.024338,0.393217,0.000172,  21.931
   616.0,0.044897,0.024244,0.391725,0.000134,  21.922
   617.0,0.044722,0.024144,0.390547,0.000186,  21.910
   618.0,0.044531,0.024041,0.388907,0.000172,  21.900
   619.0,0.044332,0.023928,0.387106,0.000172,  21.892
   620.0,0.044133,0.023835,0.384946,0.000172,  21.884
   621.0,0.043925,0.023722,0.383191,0.000158,  21.874
   622.0,0.043751,0.023601,0.381231,0.000172,  21.867
   623.0,0.043564,0.023491,0.379977,0.000172,  21.858
   624.0,0.043349,0.023376,0.378266,0.000158,  21.854
   625.0,0.043100,0.023253,0.376383,0.000134,  21.846
   626.0,0.042901,0.023134,0.374762,0.000158,  21.841
   627.0,0.042691,0.023016,0.373239,0.000158,  21.827
   628.0,0.042459,0.022917,0.371403,0.000158,  21.819
   629.0,0.042229,0.022811,0.369318,0.000144,  21.814
   630.0,0.042023,0.022701,0.367331,0.000144,  21.804
   631.0,0.041825,0.022591,0.365187,0.000158,  21.794
   632.0,0.041627,0.022469,0.363416,0.000144,  21.786
   633.0,0.041401,0.022358,0.361500,0.000197,  21.781
   634.0,0.041171,0.022234,0.359418,0.000197,  21.775
   635.0,0.040925,0.022103,0.357862,0.000158,  21.768
   636.0,0.040699,0.021969,0.355639,0.000158,  21.764
   637.0,0.040469,0.021866,0.353676,0.000158,  21.758
   638.0,0.040228,0.021754,0.351641,0.000172,  21.756
   639.0,0.039986,0.021614,0.349503,0.000172,  21.754
   640.0,0.039789,0.021495,0.347375,0.000158,  21.754
   641.0,0.039535,0.021358,0.345308,0.000172,  21.747
   642.0,0.039302,0.021222,0.343200,0.000158,  21.742
   643.0,0.039061,0.021092,0.341038,0.000095,  21.738
   644.0,0.038804,0.020957,0.339167,0.000172,  21.735
   645.0,0.038535,0.020824,0.336924,0.000158,  21.733
   646.0,0.038294,0.020712,0.334635,0.000158,  21.729
   647.0,0.038033,0.020573,0.332487,0.000158,  21.725
   648.0,0.037801,0.020444,0.330131,0.000130,  21.718
   649.0,0.037602,0.020304,0.327943,0.000130,  21.717
   650.0,0.037337,0.020174,0.325849,0.000158,  21.716
   651.0,0.037081,0.020026,0.323673,0.000183,  21.712
   652.0,0.036817,0.019894,0.321836,0.000158,  21.704
   653.0,0.036561,0.019759,0.319679,0.000183,  21.703
   654.0,0.036302,0.019621,0.317603,0.000144,  21.692
   655.0,0.036038,0.019507,0.315113,0.000158,  21.691
   656.0,0.035787,0.019361,0.313078,0.000130,  21.692
   657.0,0.035520,0.019223,0.310818,0.000144,  21.689
   658.0,0.035272,0.019077,0.308600,0.000158,  21.688
   659.0,0.035029,0.018941,0.306247,0.000144,  21.687
   660.0,0.034762,0.018796,0.303898,0.000158,  21.688
   661.0,0.034503,0.018655,0.301714,0.000144,  21.687
   662.0,0.034238,0.018500,0.299418,0.000144,  21.686
   663.0,0.033975,0.018379,0.297323,0.000130,  21.683
   664.0,0.033722,0.018238,0.295003,0.000183,  21.683
   665.0,0.033465,0.018095,0.292630,0.000144,  21.679
   666.0,0.033191,0.017957,0.290271,0.000158,  21.678
   667.0,0.032981,0.017810,0.288163,0.000144,  21.676
   668.0,0.032712,0.017660,0.285909,0.000144,  21.675
   669.0,0.032447,0.017504,0.283577,0.000144,  21.673
   670.0,0.032174,0.017364,0.281329,0.000106,  21.671
   671.0,0.031900,0.017230,0.279229,0.000158,  21.664
   672.0,0.031624,0.017080,0.276780,0.000144,  21.665
   673.0,0.031343,0.016972,0.274547,0.000144,  21.659
   674.0,0.031074,0.016817,0.272168,0.000158,  21.656
   675.0,0.030815,0.016677,0.270057,0.000144,  21.650
   676.0,0.030574,0.016553,0.267710,0.000144,  21.648
   677.0,0.030346,0.016409,0.265463,0.000158,  21.646
   678.0,0.030074,0.016268,0.262979,0.000106,  21.646
   679.0,0.029827,0.016135,0.260757,0.000158,  21.643
   680.0,0.029564,0.015979,0.258916,0.000130,  21.648
   681.0,0.029289,0.015842,0.256602,0.000144,  21.652
   682.0,0.029014,0.015720,0.254149,0.000144,  21.652
   683.0,0.028747,0.015570,0.251885,0.000155,  21.653
   684.0,0.028493,0.015430,0.249618,0.000116,  21.654
   685.0,0.028237,0.015291,0.247305,0.000144,  21.656
   686.0,0.028011,0.015132,0.245052,0.000183,  21.656
   687.0,0.027748,0.015006,0.242615,0.000144,  21.657
   688.0,0.027494,0.014853,0.240287,0.000183,  21.657
   689.0,0.027239,0.014728,0.238554,0.000144,  21.655
   690.0,0.026982,0.014587,0.236388,0.000158,  21.657
   691.0,0.026732,0.014473,0.234056,0.000169,  21.659
   692.0,0.026471,0.014327,0.231782,0.000130,  21.654
   693.0,0.026206,0.014194,0.228977,0.000144,  21.650
   694.0,0.025995,0.014060,0.227098,0.000169,  21.647
   695.0,0.025745,0.013918,0.224956,0.000144,  21.639
   696.0,0.025488,0.013779,0.222720,0.000183,  21.632
   697.0,0.025243,0.013641,0.220783,0.000183,  21.631
   698.0,0.024986,0.013514,0.218870,0.000158,  21.626
   699.0,0.024738,0.013381,0.216740,0.000183,  21.627
   700.0,0.024480,0.013272,0.214437,0.000144,  21.618
   701.0,0.024212,0.013124,0.212264,0.000144,  21.617
   702.0,0.023976,0.012993,0.210009,0.000130,  21.613
   703.0,0.023770,0.012858,0.207629,0.000144,  21.615
   704.0,0.023537,0.012733,0.205614,0.000144,  21.616
   705.0,0.023286,0.012602,0.203463,0.000092,  21.615
   706.0,0.023033,0.012477,0.201684,0.000144,  21.615
   707.0,0.022802,0.012340,0.199688,0.000130,  21.612
   708.0,0.022571,0.012254,0.197606,0.000144,  21.613
   709.0,0.022327,0.012118,0.195435,0.000144,  21.605
   710.0,0.022088,0.011985,0.193514,0.000155,  21.598
   711.0,0.021848,0.011861,0.191354,0.000144,  21.594
   712.0,0.021667,0.011734,0.189362,0.000144,  21.592
   713.0,0.021439,0.011610,0.187212,0.000208,  21.587
   714.0,0.021208,0.011502,0.185249,0.000144,  21.589
   715.0,0.020980,0.011369,0.183477,0.000183,  21.577
   716.0,0.020746,0.011233,0.181578,0.000144,  21.577
   717.0,0.020495,0.011120,0.179265,0.000144,  21.572
   718.0,0.020260,0.010993,0.177232,0.000169,  21.578
   719.0,0.020042,0.010872,0.175313,0.000144,  21.575
   720.0,0.019847,0.010741,0.173260,0.000144,  21.575
   721.0,0.019635,0.010626,0.171509,0.000194,  21.574
   722.0,0.019405,0.010505,0.169483,0.000194,  21.579
   723.0,0.019170,0.010384,0.167449,0.000208,  21.583
   724.0,0.018964,0.010261,0.165878,0.000183,  21.586
   725.0,0.018753,0.010164,0.163944,0.000144,  21.590
   726.0,0.018522,0.010065,0.162073,0.000169,  21.593
   727.0,0.018312,0.009943,0.160000,0.000144,  21.592
   728.0,0.018098,0.009816,0.158101,0.000144,  21.596
   729.0,0.017887,0.009693,0.156102,0.000155,  21.600
   730.0,0.017715,0.009589,0.154506,0.000116,  21.598
   731.0,0.017493,0.009473,0.152604,0.000166,  21.601
   732.0,0.017283,0.009349,0.150934,0.000155,  21.599
   733.0,0.017077,0.009240,0.149385,0.000183,  21.605
   734.0,0.016862,0.009139,0.147654,0.000180,  21.608
   735.0,0.016677,0.009048,0.145765,0.000208,  21.605
   736.0,0.016470,0.008942,0.143962,0.000183,  21.609
   737.0,0.016268,0.008835,0.142366,0.000208,  21.611
   738.0,0.016105,0.008727,0.140481,0.000222,  21.614
   739.0,0.015905,0.008621,0.138847,0.000183,  21.618
   740.0,0.015708,0.008509,0.136963,0.000169,  21.619
   741.0,0.015510,0.008411,0.135326,0.000183,  21.613
   742.0,0.015304,0.008306,0.134106,0.000208,  21.616
   743.0,0.015106,0.008212,0.132373,0.000222,  21.617
   744.0,0.014919,0.008126,0.130595,0.000183,  21.615
   745.0,0.014721,0.008025,0.128937,0.000208,  21.618
   746.0,0.014540,0.007915,0.127205,0.000194,  21.617
   747.0,0.014400,0.007818,0.125728,0.000169,  21.615
   748.0,0.014214,0.007715,0.124138,0.000194,  21.617
   749.0,0.014031,0.007623,0.122467,0.000155,  21.615
   750.0,0.013841,0.007524,0.120889,0.000155,  21.614
   751.0,0.013671,0.007430,0.119671,0.000116,  21.612
   752.0,0.013489,0.007340,0.118016,0.000130,  21.609
   753.0,0.013322,0.007256,0.116659,0.000155,  21.611
   754.0,0.013157,0.007158,0.114835,0.000116,  21.603
   755.0,0.012980,0.007069,0.113583,0.000116,  21.604
   756.0,0.012847,0.006981,0.112006,0.000194,  21.602
   757.0,0.012688,0.006895,0.110726,0.000194,  21.593
   758.0,0.012510,0.006799,0.109100,0.000180,  21.591
   759.0,0.012353,0.006711,0.107828,0.000141,  21.593
   760.0,0.012178,0.006608,0.106446,0.000127,  21.592
   761.0,0.012004,0.006525,0.104977,0.000180,  21.587
   762.0,0.011857,0.006457,0.103669,0.000194,  21.587
   763.0,0.011695,0.006377,0.102296,0.000141,  21.588
   764.0,0.011521,0.006286,0.101082,0.000180,  21.588
   765.0,0.011411,0.006202,0.099295,0.000194,  21.591
   766.0,0.011262,0.006112,0.098156,0.000102,  21.592
   767.0,0.011112,0.006029,0.096801,0.000127,  21.596
   768.0,0.010945,0.005949,0.095857,0.000089,  21.593
   769.0,0.010790,0.005872,0.094523,0.000127,  21.591
   770.0,0.010660,0.005778,0.093273,0.000127,  21.588
   771.0,0.010516,0.005720,0.091877,0.000141,  21.589
   772.0,0.010361,0.005652,0.090611,0.000180,  21.582
   773.0,0.010219,0.005571,0.089316,0.000166,  21.587
   774.0,0.010092,0.005480,0.088021,0.000127,  21.586
   775.0,0.009965,0.005413,0.086933,0.000166,  21.584
   776.0,0.009828,0.005349,0.085649,0.000166,  21.586
   777.0,0.009688,0.005286,0.084356,0.000166,  21.585
   778.0,0.009570,0.005201,0.083425,0.000194,  21.584
   779.0,0.009434,0.005129,0.082275,0.000141,  21.589
   780.0,0.009298,0.005074,0.081198,0.000166,  21.581
   781.0,0.009184,0.005014,0.080140,0.000180,  21.581
   782.0,0.009040,0.004939,0.078733,0.000141,  21.585
   783.0,0.008921,0.004864,0.077789,0.000180,  21.580
   784.0,0.008829,0.004804,0.076654,0.000180,  21.580
   785.0,0.008693,0.004734,0.075479,0.000180,  21.581
   786.0,0.008578,0.004670,0.074516,0.000141,  21.581
   787.0,0.008462,0.004603,0.073602,0.000141,  21.580
   788.0,0.008322,0.004544,0.072584,0.000180,  21.582
   789.0,0.008203,0.004494,0.071614,0.000194,  21.579
   790.0,0.008091,0.004418,0.070642,0.000155,  21.577
   791.0,0.007984,0.004375,0.067794,0.000180,  21.579
   792.0,0.007894,0.004312,0.068024,0.000194,  21.577
   793.0,0.007783,0.004249,0.067184,0.000141,  21.582
   794.0,0.007671,0.004196,0.066279,0.000155,  21.583
   795.0,0.007574,0.004138,0.065524,0.000141,  21.583
   796.0,0.007457,0.004077,0.064686,0.000180,  21.582
   797.0,0.007345,0.004033,0.063739,0.000194,  21.584
   798.0,0.007244,0.003964,0.062800,0.000127,  21.588
   799.0,0.007141,0.003906,0.061879,0.000180,  21.586
   800.0,0.007035,0.003848,0.060988,0.000194,  21.593
   801.0,0.006958,0.003801,0.060021,0.000141,  21.589
   802.0,0.006848,0.003738,0.058970,0.000169,  21.591
   803.0,0.006732,0.003683,0.058444,0.000141,  21.591
   804.0,0.006640,0.003622,0.057643,0.000180,  21.596
   805.0,0.006555,0.003580,0.056777,0.000194,  21.593
   806.0,0.006473,0.003545,0.055740,0.000141,  21.590
   807.0,0.006371,0.003507,0.055067,0.000180,  21.589
   808.0,0.006274,0.003454,0.054282,0.000194,  21.595
   809.0,0.006191,0.003399,0.053495,0.000099,  21.590
   810.0,0.006098,0.003338,0.052749,0.000152,  21.596
   811.0,0.006005,0.003286,0.051777,0.000166,  21.593
   812.0,0.005928,0.003246,0.051026,0.000205,  21.594
   813.0,0.005835,0.003194,0.050486,0.000166,  21.589
   814.0,0.005750,0.003143,0.049631,0.000166,  21.589
   815.0,0.005669,0.003111,0.049051,0.000205,  21.590
   816.0,0.005576,0.003069,0.048352,0.000180,  21.589
   817.0,0.005501,0.003016,0.047586,0.000180,  21.589
   818.0,0.005431,0.002979,0.046695,0.000219,  21.585
   819.0,0.005353,0.002941,0.046138,0.000166,  21.587
   820.0,0.005271,0.002903,0.045299,0.000205,  21.585
   821.0,0.005189,0.002860,0.044601,0.000166,  21.587
   822.0,0.005111,0.002816,0.044156,0.000127,  21.588
   823.0,0.005045,0.002773,0.043528,0.000166,  21.588
   824.0,0.004959,0.002739,0.042812,0.000194,  21.587
   825.0,0.004881,0.002688,0.041925,0.000141,  21.587
   826.0,0.004803,0.002649,0.041417,0.000180,  21.592
   827.0,0.004744,0.002608,0.040899,0.000194,  21.592
   828.0,0.004689,0.002576,0.040304,0.000180,  21.590
   829.0,0.004615,0.002539,0.039283,0.000141,  21.594
   830.0,0.004543,0.002510,0.036874,0.000141,  21.588
   831.0,0.004466,0.002459,0.037742,0.000180,  21.593
   832.0,0.004387,0.002425,0.037659,0.000194,  21.593
   833.0,0.004307,0.002394,0.037122,0.000141,  21.592
   834.0,0.004249,0.002356,0.036829,0.000191,  21.590
   835.0,0.004191,0.002317,0.036314,0.000205,  21.591
   836.0,0.004126,0.002275,0.035663,0.000177,  21.592
   837.0,0.004064,0.002239,0.034990,0.000191,  21.589
   838.0,0.003992,0.002215,0.034360,0.000205,  21.593
   839.0,0.003943,0.002194,0.034033,0.000216,  21.591
   840.0,0.003887,0.002156,0.033458,0.000244,  21.587
   841.0,0.003832,0.002129,0.032945,0.000191,  21.591
   842.0,0.003764,0.002093,0.032454,0.000205,  21.594
   843.0,0.003708,0.002055,0.031850,0.000194,  21.591
   844.0,0.003652,0.002010,0.031243,0.000180,  21.595
   845.0,0.003608,0.001988,0.030818,0.000219,  21.589
   846.0,0.003537,0.001948,0.030214,0.000233,  21.594
   847.0,0.003490,0.001916,0.029870,0.000219,  21.592
   848.0,0.003434,0.001890,0.029236,0.000194,  21.598
   849.0,0.003367,0.001870,0.028706,0.000152,  21.595
   850.0,0.003327,0.001847,0.028468,0.000205,  21.595
   851.0,0.003268,0.001809,0.028064,0.000166,  21.594
   852.0,0.003219,0.001791,0.027711,0.000180,  21.592
   853.0,0.003183,0.001769,0.027224,0.000219,  21.593
   854.0,0.003126,0.001745,0.026748,0.000194,  21.597
   855.0,0.003094,0.001726,0.026119,0.000219,  21.599
   856.0,0.003042,0.001693,0.025696,0.000219,  21.599
   857.0,0.002999,0.001674,0.025507,0.000180,  21.597
   858.0,0.002955,0.001646,0.025156,0.000219,  21.597
   859.0,0.002910,0.001631,0.024714,0.000194,  21.606
   860.0,0.002858,0.001590,0.024332,0.000180,  21.603
   861.0,0.002818,0.001571,0.023869,0.000219,  21.607
   862.0,0.002769,0.001554,0.023558,0.000205,  21.607
   863.0,0.002740,0.001545,0.023147,0.000152,  21.604
   864.0,0.002712,0.001533,0.022837,0.000152,  21.606
   865.0,0.002663,0.001508,0.022304,0.000166,  21.607
   866.0,0.002623,0.001479,0.021720,0.000152,  21.599
   867.0,0.002582,0.001461,0.021715,0.000166,  21.600
   868.0,0.002537,0.001450,0.021385,0.000127,  21.598
   869.0,0.002509,0.001419,0.020936,0.000166,  21.596
   870.0,0.002464,0.001400,0.020696,0.000166,  21.592
   871.0,0.002431,0.001370,0.020440,0.000127,  21.584
   872.0,0.002394,0.001333,0.020031,0.000152,  21.582
   873.0,0.002341,0.001329,0.019774,0.000166,  21.580
   874.0,0.002313,0.001316,0.019314,0.000152,  21.579
   875.0,0.002288,0.001289,0.018905,0.000166,  21.577
   876.0,0.002267,0.001271,0.018899,0.000127,  21.579
   877.0,0.002226,0.001261,0.018681,0.000152,  21.576
   878.0,0.002189,0.001254,0.018124,0.000166,  21.578
   879.0,0.002159,0.001240,0.018057,0.000127,  21.577
   880.0,0.002133,0.001224,0.017750,0.000166,  21.582
   881.0,0.002104,0.001213,0.017573,0.000194,  21.586
   882.0,0.002078,0.001198,0.017276,0.000180,  21.592
   883.0,0.002045,0.001177,0.016908,0.000180,  21.593
   884.0,0.002007,0.001169,0.016782,0.000127,  21.596
   885.0,0.001977,0.001155,0.016515,0.000166,  21.595
   886.0,0.001940,0.001138,0.016339,0.000166,  21.597
   887.0,0.001919,0.001114,0.016052,0.000127,  21.595
   888.0,0.001894,0.001103,0.015827,0.000166,  21.600
   889.0,0.001860,0.001084,0.015600,0.000166,  21.598
   890.0,0.001838,0.001059,0.015305,0.000166,  21.602
   891.0,0.001801,0.001037,0.015128,0.000166,  21.595
   892.0,0.001768,0.001019,0.014842,0.000127,  21.598
   893.0,0.001746,0.001009,0.014507,0.000180,  21.597
   894.0,0.001720,0.001002,0.014322,0.000194,  21.595
   895.0,0.001706,0.000984,0.014046,0.000141,  21.593
   896.0,0.001680,0.000979,0.013880,0.000180,  21.594
   897.0,0.001657,0.000965,0.013585,0.000166,  21.587
   898.0,0.001636,0.000950,0.013389,0.000166,  21.586
   899.0,0.001610,0.000929,0.012956,0.000205,  21.587
   900.0,0.001584,0.000921,0.012879,0.000166,  21.582
   901.0,0.001562,0.000903,0.012732,0.000205,  21.584
   902.0,0.001532,0.000892,0.012310,0.000166,  21.581
   903.0,0.001503,0.000871,0.012303,0.000166,  21.578
   904.0,0.001481,0.000866,0.012108,0.000191,  21.572
   905.0,0.001455,0.000851,0.011834,0.000166,  21.574
   906.0,0.001437,0.000836,0.011560,0.000152,  21.571
   907.0,0.001411,0.000825,0.011316,0.000191,  21.573
   908.0,0.001401,0.000812,0.011042,0.000205,  21.574
   909.0,0.001379,0.000807,0.011024,0.000191,  21.567
   910.0,0.001364,0.000793,0.010633,0.000166,  21.576
   911.0,0.001349,0.000786,0.010654,0.000152,  21.570
   912.0,0.001307,0.000775,0.010469,0.000191,  21.571
   913.0,0.001297,0.000777,0.010333,0.000166,  21.569
   914.0,0.001282,0.000757,0.010217,0.000152,  21.577
   915.0,0.001268,0.000744,0.010061,0.000191,  21.574
   916.0,0.001254,0.000743,0.009916,0.000205,  21.579
   917.0,0.001231,0.000735,0.009721,0.000191,  21.572
   918.0,0.001209,0.000729,0.009663,0.000138,  21.577
   919.0,0.001187,0.000712,0.009195,0.000138,  21.581
   920.0,0.001176,0.000703,0.009284,0.000191,  21.577
   921.0,0.001162,0.000702,0.009051,0.000166,  21.581
   922.0,0.001143,0.000689,0.009003,0.000152,  21.582
   923.0,0.001130,0.000683,0.008887,0.000191,  21.582
   924.0,0.001110,0.000675,0.008459,0.000166,  21.582
   925.0,0.001095,0.000674,0.007876,0.000191,  21.586
   926.0,0.001085,0.000666,0.008149,0.000166,  21.584
   927.0,0.001058,0.000652,0.008374,0.000152,  21.592
   928.0,0.001044,0.000643,0.008209,0.000205,  21.592
   929.0,0.001038,0.000642,0.008015,0.000244,  21.597
   930.0,0.001018,0.000638,0.007723,0.000205,  21.600
   931.0,0.001019,0.000641,0.007529,0.000205,  21.602
   932.0,0.001001,0.000614,0.007667,0.000166,  21.603
   933.0,0.000981,0.000597,0.007347,0.000205,  21.607
   934.0,0.000971,0.000581,0.007502,0.000205,  21.608
   935.0,0.000952,0.000578,0.007387,0.000152,  21.606
   936.0,0.000937,0.000586,0.007252,0.000244,  21.610
   937.0,0.000938,0.000574,0.007116,0.000244,  21.609
   938.0,0.000919,0.000578,0.006835,0.000205,  21.607
   939.0,0.000920,0.000581,0.006903,0.000205,  21.609
   940.0,0.000916,0.000559,0.006875,0.000166,  21.608
   941.0,0.000897,0.000570,0.006826,0.000205,  21.608
   942.0,0.000887,0.000564,0.006643,0.000205,  21.607
   943.0,0.000860,0.000551,0.006691,0.000166,  21.602
   944.0,0.000854,0.000545,0.006634,0.000244,  21.601
   945.0,0.000850,0.000535,0.006469,0.000244,  21.600
   946.0,0.000838,0.000516,0.006412,0.000205,  21.597
   947.0,0.000828,0.000525,0.006306,0.000244,  21.592
   948.0,0.000824,0.000524,0.006200,0.000244,  21.589
   949.0,0.000808,0.000515,0.006055,0.000191,  21.585
   950.0,0.000806,0.000506,0.006123,0.000166,  21.583
   951.0,0.000790,0.000504,0.006007,0.000166,  21.585
   952.0,0.000772,0.000482,0.005940,0.000205,  21.585
   953.0,0.000777,0.000486,0.005834,0.000166,  21.593
   954.0,0.000763,0.000489,0.005767,0.000152,  21.588
   955.0,0.000755,0.000482,0.005603,0.000191,  21.585
   956.0,0.000741,0.000475,0.005420,0.000166,  21.587
   957.0,0.000729,0.000464,0.005536,0.000191,  21.588
   958.0,0.000726,0.000472,0.005343,0.000191,  21.588
   959.0,0.000722,0.000468,0.005266,0.000152,  21.587
