Run Name,ac .12
Run Date,04:02:26 PM   02-29-16
Method Name,12% isocratic
Export Format Version, 1.00
Method ID, 3023
Points/Second, 1.00
Number of Records,   1298
Offset from Run Start Time,00:00:00
Run End Time,00:21:42
Time,Second
QuadTec 1, (280.0 nm), AU
QuadTec 2, (260.0 nm), AU
Gradient Pump,<Not Selected>
QuadTec 3, (214.0 nm), AU
QuadTec 4, (405.0 nm), AU
Conductivity,mS/cm
Trace 6,<Not Available>
GP Pressure,<Not Selected>
Volume,<Not Selected>
Fraction,<Not Available>
Time,QuadTec 1,QuadTec 2,QuadTec 3,QuadTec 4,Conductivity
     0.0,-0.009405,-0.005003,-0.066116,-0.000209,  80.807
     1.0,-0.009405,-0.005013,-0.065611,-0.000195,  80.996
     2.0,-0.009421,-0.005017,-0.065246,-0.000259,  81.092
     3.0,-0.009428,-0.005012,-0.065187,-0.000171,  81.175
     4.0,-0.011663,-0.005020,-0.065307,-0.000181,  81.296
     5.0,0.000000,0.000000,-0.065409,-0.000273,  81.426
     6.0,0.000000,0.000000,0.000000,-0.000220,  81.612
     7.0,0.000000,0.000000,0.000000,0.000000,  81.787
     8.0,0.000061,0.000000,0.000000,0.000000,  82.024
     9.0,0.000000,0.000041,0.000446,0.000000,  82.228
    10.0,-0.000092,-0.000022,-0.000136,0.000000,  82.511
    11.0,-0.000198,-0.000058,-0.000842,0.000039,  82.792
    12.0,-0.000268,-0.000122,-0.001982,0.000000,  83.072
    13.0,-0.000318,-0.000174,-0.002744,-0.000067,  83.343
    14.0,-0.000378,-0.000209,-0.003581,-0.000092,  83.543
    15.0,-0.000397,-0.000230,-0.004177,-0.000067,  83.774
    16.0,-0.000426,-0.000243,-0.004686,-0.000092,  83.933
    17.0,-0.000462,-0.000251,-0.004897,-0.000130,  84.148
    18.0,-0.000468,-0.000266,-0.005376,-0.000130,  84.308
    19.0,-0.000479,-0.000257,-0.005635,-0.000130,  84.461
    20.0,-0.000498,-0.000257,-0.005730,-0.000078,  84.564
    21.0,-0.000509,-0.000255,-0.005912,-0.000117,  84.657
    22.0,-0.000513,-0.000257,-0.006075,-0.000117,  84.755
    23.0,-0.000502,-0.000255,-0.005950,-0.000064,  84.774
    24.0,-0.000509,-0.000229,-0.006045,-0.000089,  84.810
    25.0,-0.000524,-0.000219,-0.006141,-0.000036,  84.852
    26.0,-0.000536,-0.000220,-0.006017,-0.000008,  84.940
    27.0,-0.000534,-0.000207,-0.006122,-0.000047,  85.025
    28.0,-0.000534,-0.000217,-0.006199,0.000003,  85.145
    29.0,-0.000522,-0.000222,-0.006160,0.000017,  85.226
    30.0,-0.000522,-0.000217,-0.006294,-0.000008,  85.330
    31.0,-0.000529,-0.000200,-0.006343,-0.000008,  85.430
    32.0,-0.000540,-0.000211,-0.006371,-0.000033,  85.573
    33.0,-0.000545,-0.000223,-0.006582,-0.000033,  85.665
    34.0,-0.000552,-0.000238,-0.006342,-0.000022,  85.758
    35.0,-0.000551,-0.000226,-0.006629,-0.000033,  85.873
    36.0,-0.000551,-0.000223,-0.006543,0.000031,  85.960
    37.0,-0.000574,-0.000230,-0.006466,0.000031,  86.040
    38.0,-0.000572,-0.000242,-0.006495,0.000006,  86.123
    39.0,-0.000572,-0.000240,-0.006485,0.000017,  86.252
    40.0,-0.000555,-0.000229,-0.006437,-0.000033,  86.337
    41.0,-0.000550,-0.000227,-0.006648,-0.000033,  86.399
    42.0,-0.000555,-0.000214,-0.006629,-0.000008,  86.429
    43.0,-0.000543,-0.000204,-0.006648,-0.000033,  86.475
    44.0,-0.000532,-0.000192,-0.006581,0.000006,  86.525
    45.0,-0.000549,-0.000192,-0.006590,0.000045,  86.601
    46.0,-0.000552,-0.000187,-0.006590,0.000006,  86.583
    47.0,-0.000553,-0.000193,-0.006495,0.000020,  86.580
    48.0,-0.000536,-0.000192,-0.006399,-0.000019,  86.607
    49.0,-0.000550,-0.000182,-0.006342,-0.000033,  86.661
    50.0,-0.000541,-0.000189,-0.006495,0.000006,  86.720
    51.0,-0.000547,-0.000176,-0.006476,-0.000005,  86.785
    52.0,-0.000556,-0.000177,-0.006323,0.000045,  86.848
    53.0,-0.000547,-0.000183,-0.006725,0.000045,  86.953
    54.0,-0.000551,-0.000192,-0.006495,0.000006,  87.010
    55.0,-0.000530,-0.000212,-0.006371,0.000045,  87.071
    56.0,-0.000539,-0.000203,-0.006237,0.000020,  87.108
    57.0,-0.000517,-0.000196,-0.006151,-0.000033,  87.124
    58.0,-0.000516,-0.000174,-0.006218,0.000006,  87.086
    59.0,-0.000513,-0.000162,-0.006036,0.000006,  87.005
    60.0,-0.000512,-0.000142,-0.006190,0.000034,  86.912
    61.0,-0.000489,-0.000128,-0.005922,0.000009,  86.763
    62.0,-0.000463,-0.000096,-0.005702,0.000009,  86.646
    63.0,-0.000430,-0.000076,-0.005521,0.000062,  86.505
    64.0,-0.000389,-0.000036,-0.005108,0.000037,  86.297
    65.0,-0.000352,0.000003,-0.004619,0.000023,  86.036
    66.0,-0.000288,0.000042,-0.004072,0.000087,  85.769
    67.0,-0.000229,0.000121,-0.003475,0.000076,  85.401
    68.0,-0.000133,0.000192,-0.002927,0.000065,  84.967
    69.0,-0.000023,0.000313,-0.002252,0.000129,  84.403
    70.0,0.000093,0.000439,-0.001510,0.000121,  83.746
    71.0,0.000242,0.000567,-0.003573,0.000173,  82.996
    72.0,0.000411,0.000711,-0.000256,0.000190,  82.142
    73.0,0.000623,0.000912,0.001445,0.000285,  81.156
    74.0,0.000774,0.001142,0.003085,0.000366,  80.031
    75.0,0.001003,0.001345,0.004523,0.000400,  78.850
    76.0,0.001205,0.001592,0.005886,0.000511,  77.503
    77.0,0.001353,0.001861,0.007145,0.000687,  76.111
    78.0,0.001623,0.002031,0.008002,0.000785,  74.588
    79.0,0.001731,0.002306,0.009229,0.000921,  73.032
    80.0,0.001880,0.002462,0.010330,0.001022,  71.422
    81.0,0.002054,0.002558,0.011386,0.001137,  69.719
    82.0,0.002091,0.002774,0.012124,0.001235,  68.009
    83.0,0.002201,0.002817,0.012592,0.001316,  66.289
    84.0,0.002190,0.002934,0.012849,0.001350,  64.587
    85.0,0.002161,0.002954,0.012914,0.001431,  62.912
    86.0,0.002141,0.002954,0.013077,0.001448,  61.218
    87.0,0.002059,0.002927,0.013189,0.001504,  59.529
    88.0,0.002091,0.002809,0.012938,0.001518,  57.873
    89.0,0.001983,0.002828,0.012909,0.001462,  56.270
    90.0,0.001956,0.002761,0.012701,0.001487,  54.695
    91.0,0.001898,0.002682,0.012351,0.001459,  53.148
    92.0,0.001791,0.002636,0.011982,0.001406,  51.656
    93.0,0.001821,0.002511,0.011613,0.001431,  50.258
    94.0,0.001684,0.002507,0.011175,0.001350,  48.916
    95.0,0.001595,0.002387,0.010759,0.001294,  47.609
    96.0,0.001565,0.002294,0.010152,0.001319,  46.398
    97.0,0.001472,0.002230,0.009606,0.001252,  45.186
    98.0,0.001439,0.002163,0.009160,0.001193,  44.057
    99.0,0.001325,0.002101,0.008755,0.001154,  42.978
   100.0,0.001336,0.002053,0.008250,0.001098,  41.925
   101.0,0.001296,0.001963,0.007597,0.001098,  40.942
   102.0,0.001226,0.001894,0.007284,0.001070,  39.964
   103.0,0.001164,0.001809,0.006653,0.001014,  39.032
   104.0,0.001061,0.001759,0.006121,0.001025,  38.147
   105.0,0.001084,0.001707,0.005727,0.000941,  37.291
   106.0,0.001031,0.001655,0.005335,0.001008,  36.492
   107.0,0.001032,0.001626,0.004973,0.000903,  35.714
   108.0,0.001009,0.001565,0.004484,0.000861,  34.977
   109.0,0.000978,0.001528,0.003747,0.000913,  34.260
   110.0,0.000965,0.001526,-0.000036,0.000858,  33.568
   111.0,0.000931,0.001478,0.001506,0.000886,  32.923
   112.0,0.000913,0.001440,0.001998,0.000858,  32.296
   113.0,0.000880,0.001411,0.001884,0.000819,  31.702
   114.0,0.000893,0.001360,0.001504,0.000805,  31.123
   115.0,0.000859,0.001360,0.001164,0.000816,  30.577
   116.0,0.000853,0.001344,0.000805,0.000805,  30.079
   117.0,0.000816,0.001294,0.000388,0.000827,  29.595
   118.0,0.000800,0.001267,-0.000049,0.000841,  29.135
   119.0,0.000797,0.001260,-0.000535,0.000735,  28.688
   120.0,0.000786,0.001239,-0.001048,0.000774,  28.250
   121.0,0.000778,0.001207,-0.001484,0.000763,  27.833
   122.0,0.000738,0.001194,-0.001763,0.000696,  27.425
   123.0,0.000716,0.001162,-0.002216,0.000749,  27.032
   124.0,0.000701,0.001135,-0.002427,0.000721,  26.651
   125.0,0.000690,0.001117,-0.002773,0.000746,  26.290
   126.0,0.000688,0.001102,-0.003139,0.000760,  25.952
   127.0,0.000675,0.001085,-0.003552,0.000721,  25.630
   128.0,0.000646,0.001073,-0.004110,0.000785,  25.322
   129.0,0.000645,0.001058,-0.004571,0.000746,  25.030
   130.0,0.000651,0.001042,-0.004840,0.000732,  24.753
   131.0,0.000635,0.001034,-0.005118,0.000707,  24.495
   132.0,0.000647,0.001009,-0.005491,0.000707,  24.248
   133.0,0.000631,0.000995,-0.005951,0.000785,  24.011
   134.0,0.000629,0.001004,-0.006286,0.000743,  23.783
   135.0,0.000617,0.000995,-0.006476,0.000718,  23.562
   136.0,0.000628,0.000985,-0.006792,0.000757,  23.356
   137.0,0.000634,0.000986,-0.007002,0.000757,  23.152
   138.0,0.000630,0.000977,-0.007546,0.000718,  22.942
   139.0,0.000610,0.000978,-0.007631,0.000732,  22.747
   140.0,0.000599,0.000958,-0.007936,0.000693,  22.553
   141.0,0.000591,0.000941,-0.008126,0.000732,  22.369
   142.0,0.000580,0.000934,-0.008316,0.000771,  22.197
   143.0,0.000564,0.000939,-0.008497,0.000746,  22.024
   144.0,0.000562,0.000937,-0.008991,0.000771,  21.858
   145.0,0.000571,0.000928,-0.009314,0.000771,  21.712
   146.0,0.000571,0.000924,-0.009494,0.000757,  21.572
   147.0,0.000559,0.000908,-0.009664,0.000729,  21.443
   148.0,0.000560,0.000908,-0.009835,0.000704,  21.314
   149.0,0.000528,0.000901,-0.010119,0.000704,  21.188
   150.0,0.000547,0.000888,-0.010517,0.000665,  21.075
   151.0,0.000548,0.000883,-0.010573,0.000662,  20.966
   152.0,0.000541,0.000873,-0.010772,0.000690,  20.857
   153.0,0.000537,0.000892,-0.010961,0.000665,  20.750
   154.0,0.000525,0.000876,-0.011103,0.000665,  20.644
   155.0,0.000532,0.000865,-0.011226,0.000729,  20.546
   156.0,0.000530,0.000858,-0.011424,0.000704,  20.441
   157.0,0.000517,0.000836,-0.011604,0.000718,  20.317
   158.0,0.000506,0.000840,-0.011707,0.000704,  20.217
   159.0,0.000516,0.000840,-0.011953,0.000701,  20.113
   160.0,0.000499,0.000819,-0.011981,0.000715,  20.015
   161.0,0.000500,0.000815,-0.012471,0.000637,  19.931
   162.0,0.000509,0.000789,-0.012518,0.000665,  19.849
   163.0,0.000492,0.000809,-0.012528,0.000704,  19.788
   164.0,0.000488,0.000794,-0.012603,0.000665,  19.724
   165.0,0.000495,0.000794,-0.012829,0.000665,  19.672
   166.0,0.000488,0.000802,-0.013158,0.000665,  19.627
   167.0,0.000481,0.000820,-0.013083,0.000665,  19.597
   168.0,0.000481,0.000810,-0.013525,0.000729,  19.567
   169.0,0.000481,0.000787,-0.013665,0.000729,  19.530
   170.0,0.000481,0.000795,-0.013769,0.000690,  19.490
   171.0,0.000466,0.000793,-0.013732,0.000729,  19.445
   172.0,0.000477,0.000797,-0.013919,0.000743,  19.404
   173.0,0.000469,0.000790,-0.014060,0.000729,  19.371
   174.0,0.000469,0.000793,-0.014079,0.000740,  19.318
   175.0,0.000469,0.000790,-0.014051,0.000754,  19.276
   176.0,0.000489,0.000799,-0.014098,0.000740,  19.234
   177.0,0.000480,0.000793,-0.013985,0.000729,  19.184
   178.0,0.000476,0.000790,-0.014154,0.000676,  19.145
   179.0,0.000469,0.000774,-0.014164,0.000740,  19.098
   180.0,0.000477,0.000775,-0.014379,0.000743,  19.069
   181.0,0.000477,0.000776,-0.014379,0.000690,  19.041
   182.0,0.000473,0.000794,-0.014482,0.000729,  19.033
   183.0,0.000481,0.000782,-0.014623,0.000676,  19.016
   184.0,0.000459,0.000791,-0.017288,0.000726,  19.001
   185.0,0.000470,0.000789,-0.015240,0.000701,  18.986
   186.0,0.000461,0.000776,-0.014894,0.000701,  18.979
   187.0,0.000454,0.000775,-0.014745,0.000729,  18.964
   188.0,0.000471,0.000760,-0.014941,0.000704,  18.960
   189.0,0.000479,0.000768,-0.014857,0.000662,  18.948
   190.0,0.000455,0.000760,-0.014886,0.000690,  18.929
   191.0,0.000460,0.000747,-0.015315,0.000665,  18.910
   192.0,0.000468,0.000747,-0.015325,0.000690,  18.887
   193.0,0.000453,0.000744,-0.015438,0.000715,  18.866
   194.0,0.000465,0.000751,-0.017902,0.000651,  18.845
   195.0,0.000448,0.000756,-0.016184,0.000690,  18.832
   196.0,0.000460,0.000737,-0.015774,0.000651,  18.811
   197.0,0.000464,0.000738,-0.015410,0.000662,  18.803
   198.0,0.000455,0.000745,-0.015513,0.000676,  18.793
   199.0,0.000475,0.000746,-0.015504,0.000701,  18.781
   200.0,0.000462,0.000750,-0.015504,0.000687,  18.776
   201.0,0.000466,0.000744,-0.015523,0.000701,  18.774
   202.0,0.000455,0.000735,-0.015924,0.000637,  18.765
   203.0,0.000442,0.000738,-0.015784,0.000701,  18.765
   204.0,0.000458,0.000746,-0.015700,0.000687,  18.761
   205.0,0.000453,0.000743,-0.015616,0.000662,  18.750
   206.0,0.000445,0.000750,-0.015682,0.000701,  18.748
   207.0,0.000438,0.000753,-0.015775,0.000637,  18.740
   208.0,0.000441,0.000754,-0.016008,0.000662,  18.735
   209.0,0.000456,0.000757,-0.015961,0.000701,  18.728
   210.0,0.000469,0.000758,-0.015840,0.000676,  18.723
   211.0,0.000486,0.000771,-0.015643,0.000676,  18.715
   212.0,0.000470,0.000760,-0.015559,0.000651,  18.700
   213.0,0.000473,0.000755,-0.015531,0.000651,  18.697
   214.0,0.000481,0.000755,-0.015587,0.000704,  18.697
   215.0,0.000486,0.000754,-0.015494,0.000715,  18.689
   216.0,0.000481,0.000774,-0.015345,0.000676,  18.679
   217.0,0.000481,0.000769,-0.015419,0.000729,  18.660
   218.0,0.000498,0.000776,-0.015475,0.000704,  18.644
   219.0,0.000501,0.000775,-0.015456,0.000729,  18.627
   220.0,0.000477,0.000774,-0.015512,0.000729,  18.614
   221.0,0.000470,0.000778,-0.015587,0.000690,  18.602
   222.0,0.000462,0.000759,-0.015363,0.000743,  18.594
   223.0,0.000442,0.000744,-0.015307,0.000743,  18.585
   224.0,0.000439,0.000738,-0.015447,0.000729,  18.569
   225.0,0.000444,0.000740,-0.015624,0.000792,  18.564
   226.0,0.000437,0.000753,-0.015671,0.000729,  18.555
   227.0,0.000444,0.000746,-0.015858,0.000701,  18.544
   228.0,0.000437,0.000744,-0.016073,0.000715,  18.537
   229.0,0.000449,0.000724,-0.015830,0.000637,  18.536
   230.0,0.000453,0.000736,-0.015886,0.000676,  18.532
   231.0,0.000453,0.000745,-0.015970,0.000637,  18.534
   232.0,0.000448,0.000747,-0.015933,0.000637,  18.543
   233.0,0.000444,0.000744,-0.016082,0.000687,  18.550
   234.0,0.000461,0.000744,-0.016064,0.000637,  18.558
   235.0,0.000465,0.000760,-0.015840,0.000676,  18.559
   236.0,0.000467,0.000763,-0.015980,0.000676,  18.565
   237.0,0.000472,0.000763,-0.015961,0.000676,  18.564
   238.0,0.000472,0.000767,-0.015990,0.000729,  18.561
   239.0,0.000468,0.000759,-0.016353,0.000665,  18.562
   240.0,0.000472,0.000766,-0.016473,0.000665,  18.567
   241.0,0.000475,0.000776,-0.016175,0.000687,  18.560
   242.0,0.000476,0.000772,-0.016101,0.000637,  18.556
   243.0,0.000464,0.000768,-0.016287,0.000715,  18.552
   244.0,0.000475,0.000771,-0.016035,0.000701,  18.543
   245.0,0.000471,0.000768,-0.015933,0.000701,  18.540
   246.0,0.000477,0.000776,-0.015858,0.000701,  18.534
   247.0,0.000482,0.000770,-0.015970,0.000715,  18.530
   248.0,0.000494,0.000775,-0.015848,0.000676,  18.527
   249.0,0.000505,0.000778,-0.015606,0.000729,  18.524
   250.0,0.000501,0.000790,-0.015671,0.000743,  18.523
   251.0,0.000501,0.000790,-0.015746,0.000676,  18.512
   252.0,0.000492,0.000794,-0.015708,0.000715,  18.509
   253.0,0.000501,0.000786,-0.015661,0.000704,  18.507
   254.0,0.000498,0.000795,-0.015549,0.000729,  18.515
   255.0,0.000482,0.000780,-0.015568,0.000743,  18.514
   256.0,0.000487,0.000775,-0.015643,0.000690,  18.521
   257.0,0.000483,0.000767,-0.015699,0.000704,  18.519
   258.0,0.000487,0.000763,-0.015690,0.000665,  18.530
   259.0,0.000466,0.000780,-0.015699,0.000651,  18.537
   260.0,0.000466,0.000769,-0.015653,0.000676,  18.542
   261.0,0.000462,0.000772,-0.015988,0.000665,  18.550
   262.0,0.000462,0.000753,-0.015867,0.000651,  18.544
   263.0,0.000449,0.000745,-0.015904,0.000665,  18.549
   264.0,0.000466,0.000754,-0.015867,0.000665,  18.546
   265.0,0.000453,0.000763,-0.015662,0.000690,  18.547
   266.0,0.000461,0.000760,-0.015681,0.000665,  18.545
   267.0,0.000475,0.000765,-0.015690,0.000651,  18.536
   268.0,0.000470,0.000755,-0.015727,0.000676,  18.539
   269.0,0.000475,0.000772,-0.015643,0.000665,  18.533
   270.0,0.000458,0.000777,-0.015587,0.000715,  18.535
   271.0,0.000458,0.000754,-0.015643,0.000665,  18.527
   272.0,0.000454,0.000761,-0.015569,0.000693,  18.527
   273.0,0.000458,0.000760,-0.015587,0.000690,  18.522
   274.0,0.000466,0.000759,-0.015550,0.000715,  18.522
   275.0,0.000470,0.000759,-0.015653,0.000637,  18.524
   276.0,0.000461,0.000763,-0.015587,0.000676,  18.523
   277.0,0.000454,0.000753,-0.015652,0.000637,  18.520
   278.0,0.000454,0.000752,-0.015736,0.000637,  18.515
   279.0,0.000447,0.000738,-0.015755,0.000662,  18.516
   280.0,0.000434,0.000735,-0.015709,0.000623,  18.506
   281.0,0.000426,0.000739,-0.015728,0.000676,  18.505
   282.0,0.000431,0.000747,-0.015802,0.000665,  18.498
   283.0,0.000426,0.000743,-0.015811,0.000651,  18.489
   284.0,0.000422,0.000731,-0.015700,0.000676,  18.468
   285.0,0.000426,0.000727,-0.015821,0.000637,  18.466
   286.0,0.000409,0.000723,-0.015774,0.000687,  18.448
   287.0,0.000400,0.000697,-0.015802,0.000634,  18.446
   288.0,0.000400,0.000692,-0.015746,0.000637,  18.438
   289.0,0.000416,0.000680,-0.015765,0.000662,  18.428
   290.0,0.000416,0.000681,-0.015867,0.000637,  18.427
   291.0,0.000425,0.000690,-0.015709,0.000637,  18.423
   292.0,0.000433,0.000691,-0.015737,0.000637,  18.432
   293.0,0.000438,0.000701,-0.015868,0.000637,  18.437
   294.0,0.000433,0.000705,-0.015830,0.000623,  18.447
   295.0,0.000426,0.000705,-0.015849,0.000637,  18.456
   296.0,0.000431,0.000712,-0.015783,0.000637,  18.468
   297.0,0.000422,0.000715,-0.015746,0.000690,  18.470
   298.0,0.000428,0.000712,-0.015812,0.000637,  18.481
   299.0,0.000426,0.000709,-0.015821,0.000637,  18.501
   300.0,0.000412,0.000699,-0.015915,0.000676,  18.507
   301.0,0.000412,0.000691,-0.015943,0.000637,  18.507
   302.0,0.000425,0.000705,-0.016353,0.000648,  18.512
   303.0,0.000432,0.000713,-0.016204,0.000673,  18.515
   304.0,0.000428,0.000712,-0.016344,0.000623,  18.522
   305.0,0.000409,0.000716,-0.016269,0.000687,  18.520
   306.0,0.000387,0.000715,-0.016073,0.000637,  18.526
   307.0,0.000356,0.000723,-0.015793,0.000637,  18.531
   308.0,0.000346,0.000689,-0.015699,0.000651,  18.534
   309.0,0.000335,0.000660,-0.015718,0.000609,  18.539
   310.0,0.000333,0.000654,-0.015839,0.000620,  18.540
   311.0,0.000328,0.000656,-0.015643,0.000592,  18.536
   312.0,0.000335,0.000651,-0.015680,0.000606,  18.537
   313.0,0.000363,0.000677,-0.015559,0.000617,  18.538
   314.0,0.000371,0.000680,-0.015680,0.000578,  18.536
   315.0,0.000386,0.000684,-0.016620,0.000553,  18.532
   316.0,0.000386,0.000692,-0.015642,0.000539,  18.523
   317.0,0.000394,0.000701,-0.015231,0.000567,  18.516
   318.0,0.000377,0.000706,-0.015091,0.000567,  18.510
   319.0,0.000378,0.000719,-0.015044,0.000581,  18.502
   320.0,0.000374,0.000702,-0.014904,0.000606,  18.492
   321.0,0.000367,0.000706,-0.014857,0.000542,  18.485
   322.0,0.000378,0.000703,-0.015333,0.000581,  18.481
   323.0,0.000371,0.000701,-0.015082,0.000592,  18.474
   324.0,0.000362,0.000703,-0.015063,0.000592,  18.467
   325.0,0.000362,0.000694,-0.015072,0.000567,  18.462
   326.0,0.000351,0.000688,-0.015287,0.000581,  18.461
   327.0,0.000339,0.000683,-0.015268,0.000567,  18.463
   328.0,0.000328,0.000671,-0.015212,0.000567,  18.464
   329.0,0.000319,0.000680,-0.015250,0.000581,  18.463
   330.0,0.000336,0.000663,-0.015446,0.000553,  18.465
   331.0,0.000336,0.000664,-0.015269,0.000581,  18.471
   332.0,0.000350,0.000672,-0.015138,0.000553,  18.476
   333.0,0.000349,0.000659,-0.015185,0.000567,  18.476
   334.0,0.000345,0.000668,-0.015343,0.000567,  18.481
   335.0,0.000341,0.000668,-0.015268,0.000553,  18.489
   336.0,0.000325,0.000667,-0.015128,0.000553,  18.485
   337.0,0.000342,0.000663,-0.015120,0.000553,  18.487
   338.0,0.000345,0.000656,-0.015120,0.000553,  18.488
   339.0,0.000334,0.000665,-0.015232,0.000514,  18.490
   340.0,0.000334,0.000675,-0.015316,0.000564,  18.494
   341.0,0.000330,0.000677,-0.015493,0.000539,  18.495
   342.0,0.000314,0.000658,-0.015540,0.000553,  18.492
   343.0,0.000330,0.000639,-0.015418,0.000553,  18.494
   344.0,0.000311,0.000658,-0.015531,0.000525,  18.484
   345.0,0.000319,0.000661,-0.015428,0.000525,  18.473
   346.0,0.000296,0.000652,-0.015773,0.000539,  18.463
   347.0,0.000292,0.000645,-0.015820,0.000553,  18.456
   348.0,0.000316,0.000647,-0.016397,0.000564,  18.445
   349.0,0.000319,0.000659,-0.015904,0.000525,  18.441
   350.0,0.000327,0.000667,-0.015764,0.000525,  18.439
   351.0,0.000342,0.000661,-0.015596,0.000564,  18.430
   352.0,0.000325,0.000661,-0.015661,0.000539,  18.434
   353.0,0.000325,0.000676,-0.015661,0.000525,  18.432
   354.0,0.000335,0.000675,-0.015708,0.000575,  18.434
   355.0,0.000327,0.000675,-0.015596,0.000525,  18.439
   356.0,0.000323,0.000677,-0.015717,0.000603,  18.442
   357.0,0.000308,0.000665,-0.015838,0.000564,  18.445
   358.0,0.000301,0.000659,-0.015615,0.000553,  18.446
   359.0,0.000292,0.000648,-0.015792,0.000539,  18.449
   360.0,0.000303,0.000645,-0.016081,0.000511,  18.449
   361.0,0.000303,0.000634,-0.015811,0.000483,  18.446
   362.0,0.000311,0.000632,-0.015885,0.000483,  18.442
   363.0,0.000314,0.000647,-0.015755,0.000483,  18.448
   364.0,0.000310,0.000660,-0.015755,0.000497,  18.439
   365.0,0.000000,0.000000,0.000000,0.000525,  18.441
   366.0,0.000000,0.000000,0.000000,0.000525,  18.439
   367.0,0.000000,0.000000,0.000000,0.000525,  18.443
   368.0,-0.000032,0.000000,0.000121,0.000000,  18.442
   369.0,-0.000032,-0.000017,0.000084,0.000000,  18.434
   370.0,-0.000041,-0.000026,-0.000000,0.000000,  18.436
   371.0,-0.000029,-0.000006,0.000056,0.000011,  18.433
   372.0,-0.000030,-0.000016,0.000075,-0.000028,  18.436
   373.0,-0.000026,-0.000002,0.000168,-0.000014,  18.437
   374.0,-0.000034,-0.000003,0.000047,-0.000039,  18.435
   375.0,-0.000030,0.000001,-0.000018,0.000014,  18.441
   376.0,-0.000029,0.000008,-0.000112,0.000014,  18.444
   377.0,-0.000024,-0.000019,0.000084,-0.000025,  18.443
   378.0,-0.000033,-0.000014,0.000047,-0.000025,  18.449
   379.0,-0.000044,-0.000015,0.000038,-0.000011,  18.458
   380.0,-0.000028,-0.000026,0.000103,-0.000011,  18.459
   381.0,-0.000024,-0.000017,0.000056,-0.000039,  18.459
   382.0,-0.000028,-0.000004,-0.000018,-0.000067,  18.464
   383.0,-0.000016,-0.000014,-0.000261,-0.000053,  18.474
   384.0,-0.000016,-0.000014,-0.000196,-0.000067,  18.482
   385.0,-0.000016,-0.000009,-0.000205,-0.000025,  18.489
   386.0,-0.000016,-0.000006,-0.000149,-0.000078,  18.497
   387.0,-0.000016,-0.000005,-0.000056,-0.000039,  18.503
   388.0,-0.000007,0.000004,-0.000037,-0.000025,  18.509
   389.0,-0.000016,-0.000006,-0.000075,-0.000064,  18.521
   390.0,0.000005,0.000017,-0.000298,-0.000050,  18.520
   391.0,0.000016,0.000017,-0.000121,-0.000011,  18.528
   392.0,0.000022,0.000012,0.000028,-0.000028,  18.523
   393.0,0.000023,0.000025,0.000103,-0.000025,  18.527
   394.0,0.000003,0.000026,0.000084,0.000014,  18.525
   395.0,-0.000005,0.000030,-0.000176,0.000000,  18.516
   396.0,-0.000012,0.000023,-0.000065,-0.000025,  18.516
   397.0,-0.000009,-0.000002,-0.000167,-0.000011,  18.507
   398.0,-0.000027,-0.000012,-0.000084,-0.000011,  18.501
   399.0,-0.000039,-0.000031,-0.000102,-0.000025,  18.499
   400.0,-0.000035,-0.000038,-0.000130,-0.000014,  18.486
   401.0,-0.000020,-0.000036,-0.000177,-0.000064,  18.480
   402.0,-0.000016,-0.000034,-0.000074,-0.000053,  18.474
   403.0,-0.000005,-0.000027,-0.000121,-0.000039,  18.473
   404.0,0.000000,-0.000013,-0.000046,-0.000064,  18.474
   405.0,0.000008,-0.000007,0.000019,-0.000064,  18.470
   406.0,0.000016,0.000009,0.000150,-0.000050,  18.465
   407.0,0.000011,0.000020,0.000103,-0.000050,  18.466
   408.0,0.000006,0.000034,0.000066,-0.000064,  18.470
   409.0,0.000008,0.000022,0.000131,-0.000014,  18.475
   410.0,0.000008,0.000013,0.000234,-0.000053,  18.481
   411.0,-0.000004,0.000003,0.000281,-0.000039,  18.488
   412.0,-0.000012,-0.000004,0.000010,0.000000,  18.492
   413.0,-0.000001,0.000001,0.000038,0.000000,  18.495
   414.0,-0.000005,-0.000000,0.000169,0.000039,  18.498
   415.0,0.000006,0.000016,0.000402,-0.000025,  18.511
   416.0,0.000010,0.000022,0.000412,-0.000025,  18.511
   417.0,0.000014,0.000031,0.000477,-0.000011,  18.518
   418.0,0.000014,0.000039,0.000496,0.000039,  18.520
   419.0,0.000028,0.000041,0.000599,0.000000,  18.524
   420.0,0.000044,0.000035,0.000525,-0.000050,  18.523
   421.0,0.000039,0.000057,0.000768,-0.000064,  18.530
   422.0,0.000051,0.000071,0.000927,-0.000025,  18.533
   423.0,0.000047,0.000062,0.001208,-0.000011,  18.534
   424.0,0.000058,0.000056,0.001414,-0.000050,  18.534
   425.0,0.000069,0.000050,0.001676,0.000028,  18.534
   426.0,0.000078,0.000063,0.001864,-0.000053,  18.534
   427.0,0.000100,0.000068,0.002061,-0.000092,  18.524
   428.0,0.000119,0.000095,0.002644,-0.000039,  18.512
   429.0,0.000133,0.000107,0.002672,-0.000039,  18.499
   430.0,0.000159,0.000131,0.002907,-0.000011,  18.484
   431.0,0.000189,0.000140,0.003199,-0.000025,  18.461
   432.0,0.000219,0.000168,0.003595,-0.000025,  18.445
   433.0,0.000229,0.000195,0.003840,-0.000039,  18.432
   434.0,0.000245,0.000222,0.004312,0.000003,  18.408
   435.0,0.000283,0.000241,0.004699,-0.000011,  18.392
   436.0,0.000312,0.000268,0.005323,0.000003,  18.371
   437.0,0.000333,0.000290,0.005816,0.000003,  18.355
   438.0,0.000375,0.000326,0.006242,0.000003,  18.336
   439.0,0.000416,0.000371,0.006926,0.000003,  18.321
   440.0,0.000441,0.000397,0.007429,-0.000011,  18.302
   441.0,0.000478,0.000435,0.007971,-0.000011,  18.284
   442.0,0.000517,0.000476,0.008696,-0.000011,  18.257
   443.0,0.000558,0.000506,0.009268,-0.000011,  18.235
   444.0,0.000603,0.000551,0.009813,0.000003,  18.205
   445.0,0.000642,0.000601,0.010453,0.000017,  18.188
   446.0,0.000699,0.000638,0.011336,-0.000022,  18.159
   447.0,0.000740,0.000678,0.012036,-0.000022,  18.126
   448.0,0.000797,0.000710,0.012719,-0.000022,  18.099
   449.0,0.000829,0.000756,0.013431,-0.000022,  18.060
   450.0,0.000888,0.000802,0.014319,0.000056,  18.022
   451.0,0.000936,0.000845,0.015054,-0.000011,  17.981
   452.0,0.000995,0.000898,0.015876,0.000003,  17.939
   453.0,0.001046,0.000959,0.016682,0.000017,  17.893
   454.0,0.001101,0.001027,0.017723,-0.000008,  17.841
   455.0,0.001141,0.001064,0.018943,0.000042,  17.789
   456.0,0.001150,0.001101,0.020038,-0.000022,  17.742
   457.0,0.001191,0.001136,0.020908,0.000020,  17.695
   458.0,0.001231,0.001163,0.022227,0.000056,  17.634
   459.0,0.001280,0.001202,0.023370,0.000031,  17.578
   460.0,0.001320,0.001251,0.024496,-0.000022,  17.510
   461.0,0.001379,0.001282,0.025076,0.000017,  17.447
   462.0,0.001406,0.001308,0.026519,0.000031,  17.377
   463.0,0.001435,0.001343,0.027423,-0.000033,  17.303
   464.0,0.001465,0.001359,0.028050,0.000003,  17.228
   465.0,0.001480,0.001374,0.028458,0.000017,  17.142
   466.0,0.001487,0.001379,0.028638,0.000017,  17.063
   467.0,0.001510,0.001380,0.028399,0.000017,  16.974
   468.0,0.001518,0.001368,0.027792,0.000017,  16.885
   469.0,0.001543,0.001366,0.026636,0.000017,  16.806
   470.0,0.001580,0.001365,0.023280,-0.000025,  16.716
   471.0,0.001611,0.001349,0.023037,-0.000067,  16.645
   472.0,0.001643,0.001356,0.021585,-0.000106,  16.573
   473.0,0.001683,0.001359,0.019547,-0.000056,  16.516
   474.0,0.001730,0.001362,0.017491,-0.000109,  16.467
   475.0,0.001801,0.001384,0.015423,-0.000095,  16.435
   476.0,0.001864,0.001411,0.013267,-0.000095,  16.429
   477.0,0.001949,0.001448,0.011536,-0.000095,  16.441
   478.0,0.002026,0.001474,0.010224,-0.000095,  16.474
   479.0,0.002088,0.001506,0.009220,-0.000081,  16.531
   480.0,0.002173,0.001539,0.008495,-0.000042,  16.605
   481.0,0.002254,0.001548,0.008029,-0.000078,  16.703
   482.0,0.002326,0.001577,0.007838,-0.000064,  16.819
   483.0,0.002422,0.001619,0.007952,-0.000064,  16.949
   484.0,0.002516,0.001657,0.008524,0.000000,  17.090
   485.0,0.002608,0.001719,0.009029,-0.000050,  17.251
   486.0,0.002704,0.001756,0.010099,-0.000050,  17.414
   487.0,0.002790,0.001794,0.011000,-0.000022,  17.588
   488.0,0.002905,0.001831,0.012162,-0.000022,  17.761
   489.0,0.003019,0.001883,0.011618,-0.000022,  17.942
   490.0,0.003134,0.001938,0.014221,-0.000011,  18.118
   491.0,0.003260,0.001982,0.016149,0.000003,  18.294
   492.0,0.003371,0.002039,0.017547,0.000017,  18.463
   493.0,0.003467,0.002097,0.019353,0.000017,  18.634
   494.0,0.003596,0.002144,0.021097,-0.000011,  18.794
   495.0,0.003738,0.002218,0.022730,0.000017,  18.956
   496.0,0.003867,0.002280,0.024456,0.000031,  19.099
   497.0,0.004004,0.002348,0.025744,0.000031,  19.228
   498.0,0.004142,0.002406,0.027513,0.000031,  19.345
   499.0,0.004271,0.002457,0.029177,0.000031,  19.453
   500.0,0.004419,0.002512,0.031041,0.000017,  19.556
   501.0,0.004536,0.002576,0.033013,0.000017,  19.668
   502.0,0.004666,0.002655,0.035039,0.000053,  19.768
   503.0,0.004804,0.002717,0.037060,0.000028,  19.867
   504.0,0.004937,0.002783,0.038552,0.000017,  19.969
   505.0,0.005059,0.002845,0.040300,0.000017,  20.066
   506.0,0.005182,0.002908,0.041865,-0.000011,  20.162
   507.0,0.005310,0.002959,0.043867,0.000017,  20.242
   508.0,0.005425,0.003014,0.045497,0.000017,  20.327
   509.0,0.005540,0.003080,0.047309,0.000017,  20.393
   510.0,0.005633,0.003135,0.048885,0.000003,  20.450
   511.0,0.005730,0.003183,0.050329,-0.000011,  20.501
   512.0,0.005827,0.003245,0.051665,0.000003,  20.547
   513.0,0.005923,0.003285,0.053089,-0.000011,  20.589
   514.0,0.006029,0.003336,0.053947,-0.000025,  20.622
   515.0,0.006117,0.003383,0.055137,-0.000025,  20.644
   516.0,0.006206,0.003425,0.056187,-0.000025,  20.670
   517.0,0.006293,0.003447,0.057385,-0.000064,  20.691
   518.0,0.006366,0.003484,0.058280,-0.000064,  20.696
   519.0,0.006431,0.003531,0.059331,-0.000025,  20.687
   520.0,0.006497,0.003562,0.060031,-0.000089,  20.684
   521.0,0.006571,0.003602,0.060847,-0.000064,  20.681
   522.0,0.006652,0.003636,0.061714,0.000000,  20.675
   523.0,0.006734,0.003668,0.062277,-0.000025,  20.665
   524.0,0.006796,0.003705,0.062922,-0.000025,  20.661
   525.0,0.006872,0.003750,0.063629,-0.000014,  20.646
   526.0,0.006930,0.003764,0.064300,-0.000053,  20.632
   527.0,0.007010,0.003789,0.064775,-0.000078,  20.624
   528.0,0.007062,0.003823,0.065274,0.000000,  20.602
   529.0,0.007124,0.003857,0.065725,-0.000053,  20.589
   530.0,0.007193,0.003886,0.066483,-0.000039,  20.581
   531.0,0.007247,0.003916,0.066835,-0.000131,  20.559
   532.0,0.007302,0.003949,0.067377,-0.000092,  20.531
   533.0,0.007382,0.003968,0.068213,-0.000067,  20.496
   534.0,0.007437,0.004005,0.068579,-0.000053,  20.459
   535.0,0.007497,0.004048,0.068924,-0.000053,  20.425
   536.0,0.007565,0.004091,0.069353,-0.000053,  20.394
   537.0,0.007612,0.004124,0.069654,-0.000053,  20.368
   538.0,0.007711,0.004154,0.070171,-0.000117,  20.337
   539.0,0.007774,0.004191,0.070498,-0.000092,  20.307
   540.0,0.007850,0.004232,0.070932,-0.000092,  20.271
   541.0,0.007930,0.004267,0.071312,-0.000053,  20.236
   542.0,0.007978,0.004296,0.071621,-0.000053,  20.207
   543.0,0.008041,0.004316,0.072352,-0.000067,  20.177
   544.0,0.008109,0.004353,0.072870,-0.000067,  20.142
   545.0,0.008157,0.004379,0.073426,-0.000067,  20.110
   546.0,0.008240,0.004417,0.074062,-0.000067,  20.090
   547.0,0.008287,0.004439,0.074334,-0.000144,  20.057
   548.0,0.008351,0.004483,0.074902,-0.000106,  20.030
   549.0,0.008423,0.004510,0.075334,-0.000078,  20.001
   550.0,0.008482,0.004552,0.075699,-0.000092,  19.977
   551.0,0.008537,0.004584,0.076233,-0.000131,  19.944
   552.0,0.008609,0.004613,0.076705,-0.000092,  19.922
   553.0,0.008680,0.004649,0.077234,-0.000092,  19.897
   554.0,0.008741,0.004680,0.077713,-0.000078,  19.862
   555.0,0.008797,0.004718,0.078253,-0.000106,  19.836
   556.0,0.008860,0.004752,0.078858,-0.000081,  19.799
   557.0,0.008924,0.004783,0.079249,-0.000117,  19.770
   558.0,0.008999,0.004817,0.079649,-0.000092,  19.733
   559.0,0.009085,0.004857,0.080228,-0.000092,  19.703
   560.0,0.009161,0.004889,0.078086,-0.000081,  19.673
   561.0,0.009231,0.004942,0.080398,-0.000056,  19.644
   562.0,0.009319,0.004982,0.081274,-0.000081,  19.613
   563.0,0.009391,0.005019,0.082268,-0.000067,  19.583
   564.0,0.009450,0.005061,0.082995,-0.000053,  19.561
   565.0,0.009526,0.005114,0.083614,-0.000039,  19.533
   566.0,0.009601,0.005138,0.084253,-0.000053,  19.500
   567.0,0.009667,0.005162,0.084694,-0.000067,  19.472
   568.0,0.009751,0.005201,0.085272,-0.000067,  19.448
   569.0,0.009819,0.005241,0.085932,-0.000067,  19.420
   570.0,0.009881,0.005284,0.086352,-0.000067,  19.391
   571.0,0.009969,0.005315,0.086899,-0.000067,  19.366
   572.0,0.010028,0.005342,0.087503,-0.000039,  19.343
   573.0,0.010107,0.005391,0.088253,-0.000053,  19.315
   574.0,0.010177,0.005433,0.088986,-0.000039,  19.296
   575.0,0.010256,0.005486,0.089510,-0.000039,  19.267
   576.0,0.010336,0.005541,0.090062,-0.000053,  19.247
   577.0,0.010410,0.005583,0.090747,-0.000053,  19.229
   578.0,0.010472,0.005625,0.091495,-0.000039,  19.212
   579.0,0.010548,0.005669,0.092050,-0.000025,  19.201
   580.0,0.010616,0.005697,0.092729,-0.000014,  19.186
   581.0,0.010685,0.005722,0.093193,-0.000025,  19.172
   582.0,0.010771,0.005763,0.093893,-0.000025,  19.162
   583.0,0.010854,0.005802,0.094478,-0.000039,  19.148
   584.0,0.010938,0.005862,0.095046,-0.000039,  19.136
   585.0,0.011012,0.005894,0.095581,-0.000025,  19.124
   586.0,0.011091,0.005941,0.096346,-0.000039,  19.115
   587.0,0.011179,0.005980,0.096967,-0.000025,  19.104
   588.0,0.011257,0.006020,0.097603,-0.000039,  19.090
   589.0,0.011341,0.006083,0.098441,-0.000025,  19.081
   590.0,0.011409,0.006109,0.098892,-0.000025,  19.072
   591.0,0.011479,0.006141,0.099724,-0.000039,  19.064
   592.0,0.011558,0.006178,0.100194,-0.000039,  19.048
   593.0,0.011649,0.006225,0.100863,-0.000039,  19.045
   594.0,0.011705,0.006271,0.101628,-0.000014,  19.031
   595.0,0.011808,0.006317,0.102228,-0.000067,  19.030
   596.0,0.011883,0.006351,0.102858,-0.000042,  19.020
   597.0,0.011962,0.006388,0.103408,-0.000067,  19.018
   598.0,0.012049,0.006427,0.104320,-0.000067,  19.012
   599.0,0.012111,0.006485,0.105048,-0.000081,  19.010
   600.0,0.012219,0.006524,0.105829,-0.000067,  19.004
   601.0,0.012302,0.006570,0.106584,-0.000131,  19.000
   602.0,0.012372,0.006596,0.107071,-0.000092,  18.991
   603.0,0.012484,0.006659,0.107736,-0.000078,  18.994
   604.0,0.012570,0.006720,0.108533,-0.000092,  18.985
   605.0,0.012652,0.006762,0.109403,-0.000078,  18.980
   606.0,0.012736,0.006816,0.110178,-0.000078,  18.973
   607.0,0.012808,0.006858,0.110683,-0.000078,  18.973
   608.0,0.012899,0.006909,0.111528,-0.000064,  18.970
   609.0,0.012978,0.006962,0.112337,-0.000053,  18.959
   610.0,0.013053,0.007008,0.113137,-0.000064,  18.949
   611.0,0.013161,0.007051,0.113798,-0.000050,  18.938
   612.0,0.013232,0.007106,0.114512,-0.000064,  18.925
   613.0,0.013314,0.007146,0.115213,-0.000050,  18.917
   614.0,0.013413,0.007184,0.115921,0.000003,  18.910
   615.0,0.013476,0.007222,0.116362,-0.000039,  18.903
   616.0,0.013552,0.007265,0.117156,-0.000039,  18.890
   617.0,0.013655,0.007308,0.118157,-0.000025,  18.884
   618.0,0.013733,0.007364,0.118695,-0.000064,  18.878
   619.0,0.013824,0.007409,0.119507,-0.000011,  18.869
   620.0,0.013911,0.007449,0.120208,-0.000053,  18.864
   621.0,0.014006,0.007492,0.120988,-0.000103,  18.856
   622.0,0.014102,0.007540,0.121854,-0.000050,  18.853
   623.0,0.014169,0.007586,0.122736,-0.000025,  18.845
   624.0,0.014254,0.007636,0.123515,-0.000039,  18.840
   625.0,0.014329,0.007674,0.124046,-0.000025,  18.835
   626.0,0.014412,0.007718,0.124399,-0.000025,  18.834
   627.0,0.014503,0.007764,0.125323,-0.000039,  18.829
   628.0,0.014577,0.007809,0.126159,-0.000064,  18.827
   629.0,0.014681,0.007845,0.126813,-0.000078,  18.823
   630.0,0.014769,0.007887,0.127680,-0.000064,  18.812
   631.0,0.014864,0.007927,0.128333,-0.000078,  18.800
   632.0,0.014951,0.007976,0.129226,-0.000039,  18.789
   633.0,0.015023,0.008021,0.130007,-0.000103,  18.764
   634.0,0.015095,0.008060,0.130830,-0.000064,  18.745
   635.0,0.015179,0.008114,0.131639,-0.000064,  18.730
   636.0,0.015282,0.008165,0.132390,-0.000064,  18.707
   637.0,0.015366,0.008229,0.132907,-0.000078,  18.687
   638.0,0.015449,0.008263,0.133678,-0.000064,  18.663
   639.0,0.015520,0.008307,0.134416,-0.000053,  18.633
   640.0,0.015608,0.008356,0.135063,-0.000053,  18.608
   641.0,0.015721,0.008395,0.135845,-0.000081,  18.583
   642.0,0.015794,0.008435,0.136687,-0.000028,  18.567
   643.0,0.015872,0.008480,0.137356,-0.000067,  18.551
   644.0,0.015959,0.008531,0.138142,-0.000039,  18.547
   645.0,0.016043,0.008588,0.138788,-0.000014,  18.548
   646.0,0.016138,0.008635,0.139361,-0.000078,  18.546
   647.0,0.016234,0.008691,0.140102,-0.000078,  18.551
   648.0,0.016321,0.008746,0.140652,-0.000092,  18.550
   649.0,0.016421,0.008803,0.141747,-0.000064,  18.540
   650.0,0.016501,0.008851,0.142626,-0.000078,  18.534
   651.0,0.016578,0.008906,0.143406,0.000000,  18.522
   652.0,0.016666,0.008953,0.144016,-0.000064,  18.514
   653.0,0.016745,0.008983,0.144884,-0.000050,  18.499
   654.0,0.016814,0.009019,0.145460,-0.000036,  18.472
   655.0,0.016898,0.009056,0.146114,-0.000050,  18.453
   656.0,0.016963,0.009101,0.146802,-0.000103,  18.437
   657.0,0.017063,0.009120,0.147465,-0.000025,  18.428
   658.0,0.017158,0.009162,0.148182,-0.000014,  18.419
   659.0,0.017219,0.009209,0.149049,-0.000039,  18.418
   660.0,0.017321,0.009271,0.147789,-0.000039,  18.423
   661.0,0.017394,0.009312,0.149009,-0.000039,  18.433
   662.0,0.017501,0.009364,0.150384,-0.000039,  18.444
   663.0,0.017592,0.009425,0.151462,-0.000039,  18.455
   664.0,0.017680,0.009485,0.152440,0.000000,  18.470
   665.0,0.017780,0.009537,0.153528,-0.000025,  18.481
   666.0,0.017845,0.009580,0.154230,-0.000036,  18.494
   667.0,0.017926,0.009643,0.154935,-0.000022,  18.509
   668.0,0.018006,0.009689,0.155762,0.000056,  18.523
   669.0,0.018078,0.009723,0.156503,-0.000050,  18.528
   670.0,0.018163,0.009775,0.157184,0.000003,  18.536
   671.0,0.018231,0.009810,0.157970,-0.000050,  18.547
   672.0,0.018315,0.009853,0.158439,-0.000050,  18.552
   673.0,0.018400,0.009878,0.159337,0.000028,  18.558
   674.0,0.018472,0.009914,0.160055,-0.000050,  18.566
   675.0,0.018561,0.009949,0.160874,-0.000050,  18.563
   676.0,0.018650,0.010002,0.161390,0.000003,  18.556
   677.0,0.018712,0.010034,0.162078,-0.000053,  18.541
   678.0,0.018787,0.010069,0.162775,-0.000117,  18.523
   679.0,0.018867,0.010114,0.163374,-0.000014,  18.509
   680.0,0.018942,0.010163,0.163992,-0.000067,  18.506
   681.0,0.019039,0.010228,0.164592,-0.000039,  18.506
   682.0,0.019118,0.010265,0.162183,-0.000039,  18.493
   683.0,0.019204,0.010310,0.164965,-0.000064,  18.496
   684.0,0.019273,0.010353,0.166465,-0.000050,  18.488
   685.0,0.019355,0.010379,0.167369,-0.000064,  18.481
   686.0,0.019423,0.010415,0.168075,-0.000011,  18.481
   687.0,0.019488,0.010458,0.168928,0.000003,  18.474
   688.0,0.019552,0.010494,0.169737,-0.000025,  18.476
   689.0,0.019633,0.010524,0.170271,-0.000011,  18.479
   690.0,0.019709,0.010566,0.170871,-0.000025,  18.468
   691.0,0.019794,0.010604,0.171610,-0.000025,  18.450
   692.0,0.019859,0.010645,0.172083,-0.000075,  18.425
   693.0,0.019920,0.010684,0.172917,-0.000064,  18.407
   694.0,0.019991,0.010723,0.173381,-0.000050,  18.389
   695.0,0.020072,0.010764,0.174059,0.000028,  18.375
   696.0,0.020169,0.010805,0.174776,0.000014,  18.367
   697.0,0.020238,0.010856,0.175596,-0.000039,  18.373
   698.0,0.020322,0.010904,0.176213,-0.000011,  18.382
   699.0,0.020396,0.010956,0.176709,-0.000050,  18.383
   700.0,0.020469,0.011005,0.177150,-0.000011,  18.401
   701.0,0.020534,0.011037,0.178096,-0.000050,  18.399
   702.0,0.020619,0.011069,0.178689,0.000003,  18.393
   703.0,0.020681,0.011111,0.179347,0.000003,  18.382
   704.0,0.020742,0.011150,0.179159,-0.000014,  18.371
   705.0,0.020800,0.011184,0.178409,-0.000039,  18.365
   706.0,0.020873,0.011229,0.180196,-0.000089,  18.356
   707.0,0.020946,0.011262,0.181604,-0.000064,  18.340
   708.0,0.021016,0.011289,0.182200,0.000028,  18.322
   709.0,0.021073,0.011338,0.182750,-0.000025,  18.310
   710.0,0.021139,0.011350,0.183111,-0.000050,  18.295
   711.0,0.021201,0.011384,0.183824,-0.000050,  18.279
   712.0,0.021267,0.011399,0.184472,-0.000064,  18.265
   713.0,0.021321,0.011436,0.185140,-0.000050,  18.251
   714.0,0.021389,0.011478,0.185674,-0.000092,  18.236
   715.0,0.021455,0.011499,0.186133,-0.000131,  18.232
   716.0,0.021517,0.011541,0.186564,-0.000155,  18.239
   717.0,0.021585,0.011595,0.187033,-0.000117,  18.241
   718.0,0.021647,0.011629,0.187743,-0.000117,  18.249
   719.0,0.021713,0.011657,0.188407,-0.000064,  18.243
   720.0,0.021754,0.011687,0.188906,-0.000064,  18.238
   721.0,0.021809,0.011714,0.189126,-0.000050,  18.234
   722.0,0.021871,0.011751,0.189860,-0.000050,  18.235
   723.0,0.021933,0.011782,0.190362,-0.000078,  18.228
   724.0,0.021998,0.011799,0.191000,-0.000050,  18.224
   725.0,0.022064,0.011848,0.191251,-0.000050,  18.217
   726.0,0.022131,0.011884,0.191803,-0.000078,  18.211
   727.0,0.022193,0.011925,0.192258,-0.000050,  18.205
   728.0,0.022250,0.011952,0.192899,-0.000089,  18.214
   729.0,0.022309,0.011992,0.193345,-0.000089,  18.216
   730.0,0.022355,0.012035,0.194077,-0.000036,  18.231
   731.0,0.022397,0.012064,0.194553,-0.000036,  18.235
   732.0,0.022432,0.012086,0.194972,-0.000036,  18.246
   733.0,0.022478,0.012102,0.195402,-0.000022,  18.251
   734.0,0.022532,0.012120,0.195380,-0.000036,  18.266
   735.0,0.022570,0.012147,0.196077,-0.000022,  18.275
   736.0,0.022634,0.012172,0.196607,-0.000036,  18.283
   737.0,0.022675,0.012199,0.197236,-0.000011,  18.291
   738.0,0.022723,0.012212,0.197549,-0.000061,  18.302
   739.0,0.022745,0.012241,0.197973,-0.000050,  18.311
   740.0,0.022808,0.012256,0.198386,-0.000011,  18.318
   741.0,0.022834,0.012285,0.198630,-0.000011,  18.319
   742.0,0.022871,0.012314,0.198994,-0.000025,  18.320
   743.0,0.022906,0.012326,0.199380,-0.000064,  18.327
   744.0,0.022940,0.012365,0.199785,-0.000050,  18.327
   745.0,0.023000,0.012381,0.200151,-0.000050,  18.336
   746.0,0.023038,0.012391,0.200496,-0.000036,  18.337
   747.0,0.023061,0.012404,0.200972,-0.000050,  18.355
   748.0,0.023120,0.012441,0.198919,0.000014,  18.369
   749.0,0.023162,0.012465,0.200758,-0.000011,  18.374
   750.0,0.023222,0.012490,0.201533,-0.000025,  18.379
   751.0,0.023248,0.012513,0.202129,-0.000039,  18.386
   752.0,0.023274,0.012524,0.202598,-0.000025,  18.393
   753.0,0.023321,0.012540,0.202935,-0.000050,  18.396
   754.0,0.023340,0.012562,0.203023,-0.000036,  18.401
   755.0,0.023370,0.012572,0.203279,-0.000050,  18.407
   756.0,0.023405,0.012606,0.203760,-0.000036,  18.410
   757.0,0.023447,0.012643,0.204149,-0.000022,  18.412
   758.0,0.023487,0.012670,0.204568,0.000003,  18.420
   759.0,0.023502,0.012692,0.204765,0.000017,  18.429
   760.0,0.023525,0.012701,0.205187,0.000031,  18.426
   761.0,0.023557,0.012697,0.205416,0.000031,  18.436
   762.0,0.023592,0.012713,0.205829,0.000006,  18.442
   763.0,0.023636,0.012730,0.206223,-0.000008,  18.455
   764.0,0.023635,0.012744,0.206442,-0.000008,  18.460
   765.0,0.023666,0.012774,0.206571,0.000042,  18.469
   766.0,0.023694,0.012787,0.206670,0.000028,  18.477
   767.0,0.023705,0.012778,0.205532,0.000017,  18.485
   768.0,0.023722,0.012810,0.206502,0.000003,  18.495
   769.0,0.023754,0.012810,0.206977,0.000028,  18.508
   770.0,0.023774,0.012830,0.207583,-0.000011,  18.511
   771.0,0.023796,0.012844,0.207988,0.000003,  18.520
   772.0,0.023824,0.012844,0.207832,-0.000022,  18.526
   773.0,0.023835,0.012855,0.208073,0.000056,  18.534
   774.0,0.023854,0.012858,0.207906,0.000017,  18.536
   775.0,0.023865,0.012868,0.208230,0.000045,  18.542
   776.0,0.023884,0.012882,0.208728,0.000006,  18.552
   777.0,0.023895,0.012893,0.208829,-0.000033,  18.553
   778.0,0.023915,0.012905,0.208836,-0.000019,  18.561
   779.0,0.023946,0.012914,0.209152,-0.000033,  18.565
   780.0,0.023962,0.012942,0.209447,-0.000058,  18.572
   781.0,0.023974,0.012962,0.209485,0.000020,  18.574
   782.0,0.023997,0.012965,0.209727,0.000006,  18.582
   783.0,0.024009,0.012983,0.210011,-0.000019,  18.587
   784.0,0.024012,0.013001,0.209865,0.000020,  18.587
   785.0,0.024032,0.013008,0.210159,0.000006,  18.591
   786.0,0.024036,0.013018,0.210229,-0.000058,  18.591
   787.0,0.024035,0.013033,0.210136,0.000045,  18.595
   788.0,0.024034,0.013048,0.209305,0.000020,  18.596
   789.0,0.024054,0.013039,0.210183,0.000020,  18.592
   790.0,0.024068,0.013042,0.210563,0.000045,  18.597
   791.0,0.024068,0.013047,0.210838,-0.000019,  18.595
   792.0,0.024064,0.013050,0.210775,0.000034,  18.597
   793.0,0.024064,0.013044,0.210929,0.000070,  18.597
   794.0,0.024064,0.013031,0.210806,0.000073,  18.598
   795.0,0.024047,0.013049,0.210764,0.000048,  18.599
   796.0,0.024051,0.013039,0.210866,-0.000005,  18.598
   797.0,0.024048,0.013033,0.210631,0.000034,  18.603
   798.0,0.024040,0.013020,0.210673,0.000048,  18.597
   799.0,0.024037,0.013018,0.210724,0.000048,  18.597
   800.0,0.024033,0.013027,0.210766,0.000062,  18.600
   801.0,0.024030,0.013019,0.210517,0.000048,  18.603
   802.0,0.024022,0.013008,0.210458,-0.000016,  18.606
   803.0,0.024006,0.013013,0.210202,-0.000005,  18.609
   804.0,0.024010,0.013010,0.210379,0.000020,  18.614
   805.0,0.023991,0.012990,0.210248,-0.000030,  18.618
   806.0,0.023971,0.012991,0.210269,-0.000030,  18.623
   807.0,0.023975,0.012982,0.210146,-0.000030,  18.627
   808.0,0.023972,0.012994,0.210024,-0.000005,  18.627
   809.0,0.023957,0.012986,0.210077,-0.000005,  18.632
   810.0,0.023937,0.012982,0.209914,-0.000030,  18.639
   811.0,0.023918,0.012977,0.209844,0.000037,  18.647
   812.0,0.023914,0.012958,0.209682,0.000087,  18.654
   813.0,0.023891,0.012949,0.209611,0.000062,  18.657
   814.0,0.023871,0.012947,0.209367,0.000062,  18.666
   815.0,0.023848,0.012928,0.209174,0.000048,  18.672
   816.0,0.023812,0.012931,0.209002,0.000037,  18.678
   817.0,0.023792,0.012913,0.208872,0.000034,  18.681
   818.0,0.023777,0.012895,0.208844,0.000034,  18.690
   819.0,0.023753,0.012890,0.208713,0.000023,  18.693
   820.0,0.023730,0.012872,0.208460,0.000009,  18.698
   821.0,0.023704,0.012859,0.208013,-0.000030,  18.703
   822.0,0.023681,0.012847,0.208128,0.000023,  18.704
   823.0,0.023670,0.012837,0.207908,-0.000002,  18.708
   824.0,0.023643,0.012824,0.207666,0.000051,  18.708
   825.0,0.023607,0.012814,0.207230,0.000062,  18.715
   826.0,0.023584,0.012792,0.207143,0.000126,  18.708
   827.0,0.023553,0.012793,0.206974,0.000051,  18.714
   828.0,0.023518,0.012776,0.206774,0.000051,  18.718
   829.0,0.023491,0.012745,0.206361,0.000026,  18.719
   830.0,0.023451,0.012738,0.206171,0.000065,  18.716
   831.0,0.023433,0.012716,0.205991,-0.000002,  18.721
   832.0,0.023402,0.012708,0.205620,0.000037,  18.720
   833.0,0.023364,0.012691,0.205391,0.000062,  18.723
   834.0,0.023329,0.012663,0.205151,0.000076,  18.721
   835.0,0.023298,0.012641,0.204922,0.000090,  18.718
   836.0,0.023250,0.012628,0.204552,0.000051,  18.723
   837.0,0.023219,0.012600,0.204223,0.000051,  18.726
   838.0,0.023185,0.012584,0.203851,0.000062,  18.726
   839.0,0.023167,0.012562,0.203744,0.000037,  18.720
   840.0,0.023120,0.012550,0.203314,0.000012,  18.728
   841.0,0.023077,0.012544,0.203067,0.000065,  18.725
   842.0,0.023038,0.012525,0.202710,0.000026,  18.721
   843.0,0.023007,0.012500,0.202612,0.000065,  18.731
   844.0,0.022976,0.012490,0.201954,0.000076,  18.729
   845.0,0.022922,0.012478,0.201957,0.000026,  18.730
   846.0,0.022888,0.012458,0.201580,0.000104,  18.726
   847.0,0.022853,0.012425,0.201212,0.000065,  18.731
   848.0,0.022818,0.012403,0.200836,0.000104,  18.735
   849.0,0.022780,0.012390,0.200560,0.000051,  18.736
   850.0,0.022737,0.012373,0.200263,0.000026,  18.734
   851.0,0.022679,0.012349,0.199947,0.000065,  18.736
   852.0,0.022644,0.012308,0.199552,0.000040,  18.735
   853.0,0.022614,0.012284,0.199168,0.000026,  18.740
   854.0,0.022563,0.012269,0.197626,0.000037,  18.745
   855.0,0.022513,0.012238,0.197301,0.000037,  18.747
   856.0,0.022455,0.012208,0.197511,0.000012,  18.744
   857.0,0.022384,0.012180,0.197377,0.000051,  18.745
   858.0,0.022334,0.012152,0.197192,0.000026,  18.747
   859.0,0.022296,0.012128,0.196692,0.000051,  18.747
   860.0,0.022249,0.012108,0.196261,0.000012,  18.744
   861.0,0.022234,0.012087,0.195771,0.000026,  18.743
   862.0,0.022171,0.012066,0.195568,0.000026,  18.739
   863.0,0.022103,0.012037,0.194981,0.000026,  18.741
   864.0,0.022049,0.012012,0.194277,0.000037,  18.740
   865.0,0.021995,0.011999,0.193996,0.000065,  18.736
   866.0,0.021937,0.011961,0.193549,0.000065,  18.741
   867.0,0.021883,0.011939,0.192994,0.000090,  18.742
   868.0,0.021829,0.011904,0.192635,0.000037,  18.744
   869.0,0.021787,0.011870,0.191936,0.000076,  18.744
   870.0,0.021729,0.011847,0.191656,0.000065,  18.741
   871.0,0.021671,0.011814,0.191249,0.000037,  18.745
   872.0,0.021618,0.011766,0.190688,-0.000002,  18.745
   873.0,0.021551,0.011749,0.190263,0.000090,  18.744
   874.0,0.021497,0.011719,0.189974,0.000090,  18.744
   875.0,0.021444,0.011673,0.189569,0.000065,  18.747
   876.0,0.021370,0.011649,0.188895,0.000026,  18.748
   877.0,0.021328,0.011615,0.188375,0.000040,  18.745
   878.0,0.021283,0.011581,0.187673,0.000104,  18.744
   879.0,0.021228,0.011554,0.187271,0.000065,  18.747
   880.0,0.021187,0.011525,0.186715,0.000054,  18.747
   881.0,0.021117,0.011511,0.186275,0.000051,  18.745
   882.0,0.021056,0.011471,0.185596,0.000065,  18.747
   883.0,0.020991,0.011448,0.185214,0.000065,  18.748
   884.0,0.020933,0.011416,0.184575,0.000051,  18.749
   885.0,0.020867,0.011397,0.184252,0.000026,  18.753
   886.0,0.020805,0.011368,0.183766,0.000065,  18.751
   887.0,0.020759,0.011319,0.183244,0.000090,  18.750
   888.0,0.020694,0.011293,0.182589,0.000104,  18.751
   889.0,0.020645,0.011260,0.182229,0.000104,  18.756
   890.0,0.020571,0.011231,0.181689,0.000065,  18.750
   891.0,0.020518,0.011196,0.181140,0.000079,  18.747
   892.0,0.020448,0.011164,0.180366,0.000104,  18.746
   893.0,0.020389,0.011127,0.179970,0.000104,  18.750
   894.0,0.020313,0.011091,0.179517,0.000132,  18.748
   895.0,0.020243,0.011061,0.178962,0.000093,  18.744
   896.0,0.020190,0.011037,0.178295,0.000040,  18.743
   897.0,0.020116,0.010984,0.177928,0.000093,  18.744
   898.0,0.020055,0.010947,0.177263,0.000093,  18.745
   899.0,0.019979,0.010899,0.176738,0.000093,  18.744
   900.0,0.019905,0.010880,0.176261,0.000104,  18.743
   901.0,0.019820,0.010841,0.175542,0.000079,  18.742
   902.0,0.019759,0.010799,0.174899,0.000079,  18.744
   903.0,0.019698,0.010752,0.174321,0.000054,  18.745
   904.0,0.019632,0.010720,0.173467,0.000068,  18.738
   905.0,0.019551,0.010687,0.172965,0.000054,  18.740
   906.0,0.019474,0.010640,0.172418,0.000079,  18.733
   907.0,0.019402,0.010609,0.171807,0.000068,  18.734
   908.0,0.019341,0.010571,0.171280,0.000093,  18.735
   909.0,0.019268,0.010526,0.170689,0.000079,  18.738
   910.0,0.019183,0.010507,0.170127,0.000079,  18.738
   911.0,0.019118,0.010465,0.169537,0.000040,  18.734
   912.0,0.019046,0.010418,0.168720,0.000026,  18.744
   913.0,0.019000,0.010368,0.167932,0.000054,  18.747
   914.0,0.018926,0.010338,0.167527,0.000118,  18.750
   915.0,0.018862,0.010299,0.167041,0.000040,  18.751
   916.0,0.018784,0.010270,0.166456,0.000093,  18.756
   917.0,0.018699,0.010240,0.165944,0.000093,  18.760
   918.0,0.018646,0.010196,0.165415,0.000082,  18.767
   919.0,0.018570,0.010154,0.164849,0.000093,  18.769
   920.0,0.018506,0.010125,0.164231,0.000068,  18.770
   921.0,0.018452,0.010079,0.163568,0.000093,  18.768
   922.0,0.018367,0.010045,0.162906,0.000093,  18.772
   923.0,0.018318,0.010015,0.162263,0.000093,  18.771
   924.0,0.018233,0.009981,0.161639,0.000068,  18.776
   925.0,0.018148,0.009933,0.161196,0.000107,  18.775
   926.0,0.018076,0.009897,0.160520,0.000068,  18.780
   927.0,0.018007,0.009861,0.159960,0.000132,  18.775
   928.0,0.017930,0.009827,0.159295,0.000118,  18.770
   929.0,0.017865,0.009804,0.158613,0.000132,  18.772
   930.0,0.017793,0.009762,0.158170,0.000118,  18.769
   931.0,0.017725,0.009729,0.157331,0.000068,  18.772
   932.0,0.017640,0.009685,0.156387,0.000121,  18.772
   933.0,0.017571,0.009649,0.155684,0.000121,  18.775
   934.0,0.017510,0.009600,0.155273,0.000096,  18.778
   935.0,0.017422,0.009552,0.154545,0.000082,  18.779
   936.0,0.017321,0.009510,0.153955,0.000068,  18.774
   937.0,0.017260,0.009454,0.153201,0.000054,  18.775
   938.0,0.017230,0.009404,0.152476,0.000079,  18.779
   939.0,0.017169,0.009381,0.152208,0.000040,  18.780
   940.0,0.017080,0.009360,0.151756,0.000107,  18.778
   941.0,0.016957,0.009313,0.151041,0.000121,  18.785
   942.0,0.016882,0.009264,0.150178,0.000096,  18.788
   943.0,0.016828,0.009213,0.149475,0.000121,  18.782
   944.0,0.016759,0.009196,0.149018,0.000121,  18.788
   945.0,0.016695,0.009173,0.148474,0.000082,  18.784
   946.0,0.016626,0.009140,0.147825,0.000082,  18.787
   947.0,0.016542,0.009100,0.147221,0.000096,  18.788
   948.0,0.016489,0.009056,0.146437,0.000054,  18.788
   949.0,0.016396,0.009025,0.145678,0.000068,  18.792
   950.0,0.016325,0.008992,0.145097,0.000096,  18.789
   951.0,0.016260,0.008946,0.144511,0.000082,  18.787
   952.0,0.016189,0.008914,0.143836,0.000082,  18.787
   953.0,0.016105,0.008866,0.143278,0.000057,  18.785
   954.0,0.016016,0.008816,0.142697,0.000082,  18.780
   955.0,0.015940,0.008772,0.141837,0.000107,  18.784
   956.0,0.015883,0.008713,0.141187,0.000107,  18.783
   957.0,0.015802,0.008678,0.140499,0.000107,  18.786
   958.0,0.015734,0.008636,0.139896,0.000068,  18.784
   959.0,0.015637,0.008608,0.139180,0.000107,  18.782
   960.0,0.015558,0.008572,0.138688,0.000107,  18.780
   961.0,0.015502,0.008521,0.137959,0.000107,  18.779
   962.0,0.015422,0.008480,0.137492,0.000068,  18.784
   963.0,0.015345,0.008449,0.136816,0.000068,  18.781
   964.0,0.015289,0.008414,0.134434,0.000107,  18.783
   965.0,0.015205,0.008381,0.135013,0.000121,  18.782
   966.0,0.015129,0.008328,0.134584,0.000096,  18.781
   967.0,0.015044,0.008288,0.134097,0.000135,  18.780
   968.0,0.014964,0.008244,0.133394,0.000121,  18.778
   969.0,0.014901,0.008209,0.133093,0.000149,  18.780
   970.0,0.014830,0.008172,0.132358,0.000160,  18.779
   971.0,0.014749,0.008135,0.131626,0.000096,  18.781
   972.0,0.014678,0.008093,0.130972,0.000096,  18.783
   973.0,0.014629,0.008054,0.130344,0.000096,  18.780
   974.0,0.014560,0.008012,0.129657,0.000096,  18.779
   975.0,0.014478,0.007974,0.129109,0.000110,  18.783
   976.0,0.014406,0.007936,0.128308,0.000135,  18.778
   977.0,0.014318,0.007904,0.127781,0.000096,  18.779
   978.0,0.014245,0.007864,0.126346,0.000096,  18.779
   979.0,0.014145,0.007836,0.124565,0.000124,  18.775
   980.0,0.014090,0.007791,0.125129,0.000138,  18.779
   981.0,0.014018,0.007746,0.124860,0.000135,  18.779
   982.0,0.013958,0.007701,0.124372,0.000096,  18.782
   983.0,0.013885,0.007657,0.123781,0.000121,  18.777
   984.0,0.013819,0.007609,0.123064,0.000132,  18.781
   985.0,0.013730,0.007577,0.122450,0.000096,  18.781
   986.0,0.013642,0.007526,0.121955,0.000096,  18.777
   987.0,0.013562,0.007494,0.121162,0.000071,  18.781
   988.0,0.013498,0.007453,0.120596,0.000110,  18.784
   989.0,0.013427,0.007413,0.120035,0.000124,  18.793
   990.0,0.013352,0.007384,0.119285,0.000124,  18.790
   991.0,0.013291,0.007347,0.118582,0.000124,  18.793
   992.0,0.013219,0.007305,0.118084,0.000110,  18.793
   993.0,0.013147,0.007257,0.117249,0.000124,  18.795
   994.0,0.013084,0.007232,0.116884,0.000124,  18.797
   995.0,0.012996,0.007191,0.116258,0.000057,  18.802
   996.0,0.012924,0.007145,0.115456,0.000032,  18.804
   997.0,0.012848,0.007119,0.114843,0.000082,  18.805
   998.0,0.012756,0.007063,0.114323,0.000096,  18.802
   999.0,0.012700,0.007021,0.113622,0.000110,  18.802
  1000.0,0.012624,0.006978,0.112895,0.000135,  18.804
  1001.0,0.012573,0.006933,0.112416,0.000124,  18.808
  1002.0,0.012492,0.006894,0.111811,0.000163,  18.809
  1003.0,0.012427,0.006857,0.111163,0.000110,  18.811
  1004.0,0.012364,0.006829,0.110710,0.000096,  18.809
  1005.0,0.012289,0.006798,0.109943,0.000096,  18.811
  1006.0,0.012220,0.006758,0.109477,0.000046,  18.814
  1007.0,0.012149,0.006728,0.108746,0.000085,  18.820
  1008.0,0.012072,0.006701,0.108171,0.000096,  18.815
  1009.0,0.012013,0.006642,0.107476,0.000096,  18.817
  1010.0,0.011941,0.006603,0.106859,0.000110,  18.818
  1011.0,0.011873,0.006562,0.106176,0.000124,  18.817
  1012.0,0.011798,0.006534,0.105838,0.000124,  18.818
  1013.0,0.011713,0.006494,0.105228,0.000124,  18.819
  1014.0,0.011646,0.006450,0.104409,0.000113,  18.820
  1015.0,0.011579,0.006403,0.103692,0.000113,  18.819
  1016.0,0.011519,0.006359,0.102971,0.000113,  18.818
  1017.0,0.011467,0.006326,0.102323,0.000138,  18.822
  1018.0,0.011395,0.006281,0.101836,0.000138,  18.820
  1019.0,0.011311,0.006259,0.101359,0.000085,  18.821
  1020.0,0.011232,0.006232,0.100713,0.000046,  18.826
  1021.0,0.011165,0.006178,0.100185,0.000085,  18.826
  1022.0,0.011096,0.006138,0.098000,0.000071,  18.826
  1023.0,0.011033,0.006101,0.098434,0.000163,  18.826
  1024.0,0.010975,0.006073,0.098302,0.000085,  18.827
  1025.0,0.010915,0.006035,0.098081,0.000074,  18.825
  1026.0,0.010858,0.005995,0.097421,0.000099,  18.824
  1027.0,0.010794,0.005958,0.096684,0.000124,  18.826
  1028.0,0.010730,0.005914,0.096091,0.000124,  18.824
  1029.0,0.010662,0.005895,0.095286,0.000152,  18.818
  1030.0,0.010595,0.005867,0.095057,0.000138,  18.814
  1031.0,0.010527,0.005840,0.094554,0.000099,  18.819
  1032.0,0.010463,0.005808,0.093886,0.000124,  18.816
  1033.0,0.010395,0.005761,0.093445,0.000124,  18.819
  1034.0,0.010330,0.005727,0.092774,0.000138,  18.821
  1035.0,0.010279,0.005678,0.092287,0.000124,  18.819
  1036.0,0.010207,0.005635,0.091673,0.000124,  18.817
  1037.0,0.010127,0.005607,0.090955,0.000163,  18.825
  1038.0,0.010067,0.005569,0.090522,0.000099,  18.826
  1039.0,0.010004,0.005545,0.090037,0.000060,  18.825
  1040.0,0.009931,0.005516,0.089422,0.000138,  18.825
  1041.0,0.009876,0.005488,0.088785,0.000152,  18.827
  1042.0,0.009820,0.005467,0.088335,0.000152,  18.825
  1043.0,0.009762,0.005422,0.087746,0.000124,  18.823
  1044.0,0.009696,0.005395,0.087388,0.000124,  18.819
  1045.0,0.009620,0.005348,0.086721,0.000138,  18.817
  1046.0,0.009551,0.005304,0.086092,0.000152,  18.816
  1047.0,0.009495,0.005256,0.085620,0.000113,  18.814
  1048.0,0.009427,0.005239,0.085228,0.000113,  18.813
  1049.0,0.009348,0.005204,0.084440,0.000074,  18.813
  1050.0,0.009286,0.005185,0.084066,0.000113,  18.804
  1051.0,0.009210,0.005136,0.083444,0.000138,  18.808
  1052.0,0.009157,0.005096,0.082794,0.000152,  18.803
  1053.0,0.009081,0.005038,0.081814,0.000152,  18.803
  1054.0,0.009010,0.005015,0.081717,0.000138,  18.802
  1055.0,0.008966,0.004985,0.081279,0.000124,  18.796
  1056.0,0.008889,0.004941,0.080975,0.000138,  18.795
  1057.0,0.008822,0.004893,0.078502,0.000088,  18.796
  1058.0,0.008742,0.004867,0.078908,0.000021,  18.795
  1059.0,0.008667,0.004826,0.078849,0.000060,  18.783
  1060.0,0.008611,0.004782,0.078386,0.000060,  18.784
  1061.0,0.008544,0.004746,0.077862,0.000138,  18.782
  1062.0,0.008478,0.004706,0.077220,0.000113,  18.776
  1063.0,0.008395,0.004695,0.076490,0.000088,  18.768
  1064.0,0.008312,0.004650,0.075920,0.000113,  18.769
  1065.0,0.008249,0.004599,0.074938,0.000099,  18.760
  1066.0,0.008151,0.004564,0.074679,0.000060,  18.755
  1067.0,0.008075,0.004534,0.074150,0.000113,  18.747
  1068.0,0.008001,0.004488,0.071432,0.000102,  18.743
  1069.0,0.007942,0.004436,0.072027,0.000127,  18.733
  1070.0,0.007862,0.004394,0.071901,0.000113,  18.726
  1071.0,0.007788,0.004355,0.071410,0.000074,  18.718
  1072.0,0.007717,0.004315,0.070728,0.000113,  18.710
  1073.0,0.007630,0.004278,0.070291,0.000113,  18.704
  1074.0,0.007568,0.004239,0.069473,0.000074,  18.694
  1075.0,0.007497,0.004207,0.068600,0.000113,  18.684
  1076.0,0.007420,0.004159,0.068147,0.000074,  18.680
  1077.0,0.007376,0.004126,0.067584,0.000113,  18.667
  1078.0,0.007301,0.004095,0.067039,0.000113,  18.662
  1079.0,0.007242,0.004058,0.066295,0.000074,  18.652
  1080.0,0.007195,0.004018,0.065702,0.000113,  18.644
  1081.0,0.007123,0.003990,0.065237,0.000113,  18.639
  1082.0,0.007079,0.003963,0.064820,0.000088,  18.628
  1083.0,0.007023,0.003939,0.064297,0.000113,  18.622
  1084.0,0.006962,0.003919,0.063756,0.000074,  18.612
  1085.0,0.006930,0.003884,0.062957,0.000113,  18.602
  1086.0,0.006896,0.003862,0.062504,0.000099,  18.598
  1087.0,0.006844,0.003841,0.059363,0.000074,  18.594
  1088.0,0.006790,0.003816,0.060961,0.000063,  18.589
  1089.0,0.006745,0.003785,0.061171,0.000088,  18.585
  1090.0,0.006712,0.003759,0.061016,0.000074,  18.581
  1091.0,0.006659,0.003729,0.060464,0.000113,  18.579
  1092.0,0.006617,0.003703,0.060166,0.000049,  18.578
  1093.0,0.006577,0.003682,0.059968,0.000099,  18.573
  1094.0,0.006547,0.003658,0.059537,0.000099,  18.572
  1095.0,0.006506,0.003637,0.058982,0.000074,  18.570
  1096.0,0.006474,0.003616,0.058797,0.000138,  18.572
  1097.0,0.006456,0.003602,0.058355,0.000099,  18.573
  1098.0,0.006428,0.003606,0.058025,0.000124,  18.574
  1099.0,0.006386,0.003578,0.057890,0.000124,  18.576
  1100.0,0.006336,0.003549,0.057600,0.000099,  18.575
  1101.0,0.006307,0.003528,0.057292,0.000113,  18.576
  1102.0,0.006281,0.003519,0.056873,0.000099,  18.576
  1103.0,0.006253,0.003515,0.056641,0.000102,  18.578
  1104.0,0.006228,0.003498,0.056322,0.000049,  18.580
  1105.0,0.006182,0.003475,0.056123,0.000088,  18.583
  1106.0,0.006136,0.003452,0.055620,0.000088,  18.588
  1107.0,0.006106,0.003419,0.055224,0.000138,  18.588
  1108.0,0.006061,0.003402,0.054970,0.000152,  18.591
  1109.0,0.006032,0.003397,0.054847,0.000113,  18.594
  1110.0,0.005998,0.003388,0.054475,0.000166,  18.593
  1111.0,0.005953,0.003358,0.054308,0.000166,  18.600
  1112.0,0.005928,0.003337,0.053819,0.000166,  18.602
  1113.0,0.005886,0.003319,0.053574,0.000166,  18.606
  1114.0,0.005862,0.003293,0.053367,0.000166,  18.612
  1115.0,0.005823,0.003282,0.053008,0.000138,  18.617
  1116.0,0.005795,0.003266,0.052774,0.000152,  18.619
  1117.0,0.005761,0.003247,0.052523,0.000180,  18.626
  1118.0,0.005716,0.003227,0.052303,0.000166,  18.630
  1119.0,0.005687,0.003219,0.051975,0.000116,  18.635
  1120.0,0.005646,0.003195,0.051799,0.000116,  18.640
  1121.0,0.005615,0.003163,0.051213,0.000116,  18.646
  1122.0,0.005599,0.003155,0.050951,0.000066,  18.653
  1123.0,0.005554,0.003142,0.050636,0.000141,  18.658
  1124.0,0.005517,0.003116,0.050212,0.000127,  18.664
  1125.0,0.005483,0.003106,0.050200,0.000102,  18.671
  1126.0,0.005450,0.003085,0.049813,0.000141,  18.676
  1127.0,0.005413,0.003068,0.049519,0.000116,  18.680
  1128.0,0.005385,0.003045,0.049238,0.000102,  18.687
  1129.0,0.005363,0.003007,0.049021,0.000141,  18.691
  1130.0,0.005317,0.003000,0.048416,0.000116,  18.700
  1131.0,0.005275,0.002986,0.048029,0.000077,  18.699
  1132.0,0.005246,0.002960,0.047748,0.000077,  18.704
  1133.0,0.005213,0.002959,0.047283,0.000088,  18.703
  1134.0,0.005175,0.002934,0.047003,0.000127,  18.709
  1135.0,0.005143,0.002908,0.046818,0.000074,  18.709
  1136.0,0.005118,0.002901,0.046667,0.000141,  18.716
  1137.0,0.005067,0.002875,0.046610,0.000127,  18.712
  1138.0,0.005038,0.002849,0.046018,0.000088,  18.710
  1139.0,0.005001,0.002827,0.045793,0.000138,  18.712
  1140.0,0.004955,0.002800,0.045288,0.000141,  18.712
  1141.0,0.004925,0.002788,0.045169,0.000138,  18.713
  1142.0,0.004887,0.002774,0.044866,0.000166,  18.712
  1143.0,0.004858,0.002754,0.044610,0.000127,  18.706
  1144.0,0.004821,0.002746,0.044361,0.000138,  18.710
  1145.0,0.004795,0.002727,0.043998,0.000102,  18.712
  1146.0,0.004778,0.002713,0.043591,0.000116,  18.706
  1147.0,0.004752,0.002711,0.043596,0.000077,  18.705
  1148.0,0.004734,0.002700,0.043402,0.000091,  18.710
  1149.0,0.004696,0.002694,0.043112,0.000144,  18.712
  1150.0,0.004670,0.002678,0.042896,0.000094,  18.715
  1151.0,0.004641,0.002657,0.042794,0.000133,  18.717
  1152.0,0.004607,0.002627,0.042526,0.000094,  18.723
  1153.0,0.004563,0.002627,0.042301,0.000119,  18.727
  1154.0,0.004543,0.002604,0.041633,0.000094,  18.730
  1155.0,0.004512,0.002594,0.041641,0.000108,  18.734
  1156.0,0.004471,0.002572,0.041351,0.000158,  18.741
  1157.0,0.004425,0.002558,0.041045,0.000105,  18.741
  1158.0,0.004385,0.002538,0.040726,0.000158,  18.745
  1159.0,0.004351,0.002508,0.040565,0.000158,  18.739
  1160.0,0.004322,0.002476,0.040215,0.000133,  18.739
  1161.0,0.004292,0.002469,0.039801,0.000144,  18.731
  1162.0,0.004259,0.002465,0.039317,0.000144,  18.732
  1163.0,0.004228,0.002445,0.039208,0.000144,  18.735
  1164.0,0.004199,0.002408,0.038930,0.000169,  18.735
  1165.0,0.004166,0.002371,0.038780,0.000144,  18.738
  1166.0,0.004119,0.002365,0.038537,0.000169,  18.735
  1167.0,0.004091,0.002349,0.038197,0.000116,  18.734
  1168.0,0.004066,0.002327,0.037912,0.000116,  18.734
  1169.0,0.004036,0.002324,0.037667,0.000141,  18.732
  1170.0,0.004019,0.002304,0.037434,0.000130,  18.728
  1171.0,0.003985,0.002298,0.037127,0.000105,  18.731
  1172.0,0.003943,0.002270,0.036946,0.000130,  18.733
  1173.0,0.003918,0.002259,0.036590,0.000144,  18.732
  1174.0,0.003892,0.002233,0.036194,0.000077,  18.723
  1175.0,0.003854,0.002211,0.035930,0.000116,  18.721
  1176.0,0.003816,0.002185,0.035557,0.000077,  18.722
  1177.0,0.003786,0.002164,0.035378,0.000080,  18.726
  1178.0,0.003728,0.002125,0.033089,0.000052,  18.723
  1179.0,0.003718,0.002095,0.034074,0.000038,  18.730
  1180.0,0.003660,0.002065,0.034366,0.000077,  18.732
  1181.0,0.003635,0.002045,0.034101,0.000063,  18.731
  1182.0,0.003604,0.002018,0.034156,0.000038,  18.733
  1183.0,0.003574,0.002013,0.033953,0.000077,  18.740
  1184.0,0.003553,0.002009,0.033689,0.000063,  18.738
  1185.0,0.003519,0.002017,0.033425,0.000088,  18.737
  1186.0,0.003496,0.002002,0.033233,0.000077,  18.735
  1187.0,0.003488,0.001994,0.032909,0.000063,  18.740
  1188.0,0.003465,0.001979,0.032788,0.000102,  18.746
  1189.0,0.003448,0.001969,0.032597,0.000116,  18.747
  1190.0,0.003430,0.001964,0.032550,0.000063,  18.749
  1191.0,0.003404,0.001952,0.032276,0.000102,  18.756
  1192.0,0.003383,0.001941,0.031788,0.000052,  18.755
  1193.0,0.003357,0.001922,0.031507,0.000063,  18.758
  1194.0,0.003319,0.001912,0.031398,0.000102,  18.759
  1195.0,0.003297,0.001892,0.031205,0.000077,  18.768
  1196.0,0.003275,0.001891,0.031027,0.000102,  18.769
  1197.0,0.003238,0.001858,0.030918,0.000077,  18.767
  1198.0,0.003211,0.001846,0.030565,0.000038,  18.772
  1199.0,0.003168,0.001818,0.030478,0.000052,  18.776
  1200.0,0.003151,0.001815,0.030256,-0.000011,  18.776
  1201.0,0.003125,0.001799,0.029874,0.000003,  18.777
  1202.0,0.003096,0.001794,0.029481,0.000052,  18.782
  1203.0,0.003087,0.001780,0.029463,0.000052,  18.782
  1204.0,0.003072,0.001772,0.029304,0.000091,  18.788
  1205.0,0.003041,0.001773,0.029052,0.000066,  18.789
  1206.0,0.003028,0.001757,0.028915,0.000066,  18.795
  1207.0,0.002997,0.001749,0.028643,0.000066,  18.799
  1208.0,0.002979,0.001730,0.028596,0.000066,  18.800
  1209.0,0.002940,0.001723,0.028235,0.000041,  18.803
  1210.0,0.002914,0.001698,0.028076,0.000052,  18.800
  1211.0,0.002904,0.001677,0.027867,0.000038,  18.806
  1212.0,0.002870,0.001665,0.027808,0.000077,  18.806
  1213.0,0.002849,0.001648,0.027426,0.000066,  18.805
  1214.0,0.002835,0.001632,0.027349,0.000055,  18.812
  1215.0,0.002834,0.001624,0.026979,0.000105,  18.808
  1216.0,0.002807,0.001613,0.027082,0.000080,  18.812
  1217.0,0.002785,0.001604,0.026702,0.000094,  18.813
  1218.0,0.002767,0.001596,0.026493,0.000066,  18.817
  1219.0,0.002742,0.001591,0.026335,0.000116,  18.817
  1220.0,0.002723,0.001574,0.026246,0.000130,  18.809
  1221.0,0.002708,0.001557,0.025997,0.000155,  18.811
  1222.0,0.002682,0.001565,0.025758,0.000105,  18.812
  1223.0,0.002668,0.001550,0.025519,0.000105,  18.811
  1224.0,0.002646,0.001539,0.025311,0.000080,  18.812
  1225.0,0.002638,0.001543,0.025083,0.000080,  18.814
  1226.0,0.002621,0.001533,0.025124,0.000130,  18.809
  1227.0,0.002595,0.001511,0.024826,0.000144,  18.811
  1228.0,0.002568,0.001512,0.024627,0.000105,  18.817
  1229.0,0.002550,0.001493,0.024639,0.000105,  18.815
  1230.0,0.002527,0.001472,0.024371,0.000130,  18.815
  1231.0,0.002516,0.001468,0.024214,0.000208,  18.815
  1232.0,0.002494,0.001453,0.023976,0.000183,  18.820
  1233.0,0.002471,0.001465,0.023959,0.000119,  18.823
  1234.0,0.002461,0.001451,0.023850,0.000119,  18.828
  1235.0,0.002439,0.001446,0.023552,0.000108,  18.822
  1236.0,0.002416,0.001433,0.023444,0.000197,  18.826
  1237.0,0.002406,0.001425,0.023405,0.000119,  18.826
  1238.0,0.002397,0.001414,0.023217,0.000133,  18.828
  1239.0,0.002382,0.001407,0.023060,0.000147,  18.822
  1240.0,0.002355,0.001393,0.022992,0.000122,  18.829
  1241.0,0.002337,0.001388,0.022765,0.000108,  18.829
  1242.0,0.002313,0.001386,0.022537,0.000094,  18.829
  1243.0,0.002296,0.001367,0.022370,0.000094,  18.830
  1244.0,0.002269,0.001365,0.022302,0.000108,  18.829
  1245.0,0.002259,0.001346,0.021847,0.000158,  18.833
  1246.0,0.002237,0.001344,0.021858,0.000172,  18.829
  1247.0,0.002231,0.001326,0.021790,0.000119,  18.832
  1248.0,0.002216,0.001316,0.021623,0.000105,  18.829
  1249.0,0.002199,0.001289,0.021495,0.000105,  18.831
  1250.0,0.002188,0.001284,0.021329,0.000133,  18.827
  1251.0,0.002176,0.001276,0.021211,0.000133,  18.825
  1252.0,0.002162,0.001282,0.021093,0.000186,  18.824
  1253.0,0.002126,0.001277,0.020668,0.000172,  18.825
  1254.0,0.002113,0.001268,0.020689,0.000172,  18.824
  1255.0,0.002091,0.001251,0.020711,0.000158,  18.823
  1256.0,0.002084,0.001241,0.018870,0.000119,  18.818
  1257.0,0.002066,0.001239,0.019717,0.000147,  18.819
  1258.0,0.002055,0.001234,0.019786,0.000172,  18.820
  1259.0,0.002044,0.001239,0.019935,0.000172,  18.820
  1260.0,0.002033,0.001230,0.019827,0.000094,  18.819
  1261.0,0.002011,0.001235,0.019848,0.000144,  18.816
  1262.0,0.002013,0.001212,0.019908,0.000119,  18.824
  1263.0,0.001998,0.001222,0.019820,0.000158,  18.822
  1264.0,0.001975,0.001209,0.019427,0.000119,  18.819
  1265.0,0.001961,0.001203,0.019390,0.000108,  18.821
  1266.0,0.001946,0.001190,0.019154,0.000133,  18.817
  1267.0,0.001907,0.001181,0.019086,0.000147,  18.815
  1268.0,0.001893,0.001165,0.018693,0.000108,  18.810
  1269.0,0.001882,0.001154,0.018665,0.000147,  18.813
  1270.0,0.001887,0.001159,0.018607,0.000172,  18.811
  1271.0,0.001873,0.001145,0.018481,0.000161,  18.810
  1272.0,0.001854,0.001139,0.018462,0.000158,  18.813
  1273.0,0.001841,0.001124,0.018267,0.000133,  18.813
  1274.0,0.001828,0.001133,0.017806,0.000172,  18.810
  1275.0,0.001810,0.001123,0.017621,0.000108,  18.818
  1276.0,0.001798,0.001129,0.017681,0.000161,  18.813
  1277.0,0.001783,0.001120,0.017633,0.000133,  18.815
  1278.0,0.001773,0.001121,0.017565,0.000108,  18.822
  1279.0,0.001762,0.001120,0.017351,0.000122,  18.820
  1280.0,0.001744,0.001111,0.017155,0.000147,  18.822
  1281.0,0.001750,0.001098,0.017038,0.000122,  18.825
  1282.0,0.001743,0.001091,0.017019,0.000147,  18.822
  1283.0,0.001745,0.001073,0.017079,0.000172,  18.830
  1284.0,0.001729,0.001063,0.017011,0.000250,  18.826
  1285.0,0.001714,0.001063,0.016836,0.000186,  18.832
  1286.0,0.001707,0.001063,0.017071,0.000122,  18.833
  1287.0,0.001687,0.001066,0.016788,0.000122,  18.828
  1288.0,0.001677,0.001061,0.016515,0.000161,  18.836
  1289.0,0.001654,0.001038,0.016350,0.000172,  18.835
  1290.0,0.001635,0.001040,0.016272,0.000197,  18.837
  1291.0,0.001612,0.001022,0.016283,0.000186,  18.836
  1292.0,0.001598,0.001014,0.016234,0.000161,  18.838
  1293.0,0.001595,0.001003,0.016060,0.000147,  18.841
  1294.0,0.001588,0.000995,0.015943,0.000108,  18.836
  1295.0,0.001580,0.001000,0.014224,0.000108,  18.836
  1296.0,0.001581,0.000992,0.014476,0.000147,  18.834
  1297.0,0.001554,0.000991,0.015156,0.000122,  18.835
