Run Name,29%
Run Date,03:51:22 PM   03-02-09
Method Name,29%
Export Format Version, 1.00
Method ID,  677
Points/Second, 5.00
Number of Records,   3180
Offset from Run Start Time,00:00:00
Run End Time,00:10:36
Time,Second
QuadTec 1, (280.0 nm), AU
QuadTec 2, (260.0 nm), AU
Gradient Pump,%B
QuadTec 3, (214.0 nm), AU
QuadTec 4, (405.0 nm), AU
Conductivity,mS/cm
Trace 6,<Not Available>
GP Pressure,<Not Selected>
Volume,<Not Selected>
Fraction,<Not Available>
Time,QuadTec 1,QuadTec 2,Gradient Pump,QuadTec 3,QuadTec 4,Conductivity
     0.0,0.000099,0.000000, 29,-0.000553,0.000000,  30.473
     0.2,0.000126,0.000000, 29,-0.000553,0.000000,  30.475
     0.4,0.000130,0.000000, 29,-0.000553,0.000000,  30.471
     0.6,0.000116,0.000000, 29,-0.000553,0.000000,  30.472
     0.8,0.000000,0.000000, 29,0.000000,0.000000,  30.469
     1.0,0.000000,0.000000, 29,0.000000,0.000000,  30.463
     1.2,0.000000,0.000000, 29,0.000000,0.000000,  30.462
     1.4,0.000000,0.000000, 29,0.000000,0.000000,  30.466
     1.6,0.000000,0.000000, 29,0.000000,0.000000,  30.469
     1.8,0.000000,0.000000, 29,0.000000,0.000000,  30.469
     2.0,0.000000,0.000000, 29,0.000000,0.000000,  30.467
     2.2,0.000000,0.000000, 29,0.000000,0.000000,  30.461
     2.4,0.000000,0.000000, 29,0.000000,0.000000,  30.458
     2.6,0.000000,0.000000, 29,0.000000,0.000000,  30.461
     2.8,0.000000,0.000000, 29,0.000000,0.000000,  30.454
     3.0,0.000000,0.000000, 29,0.000000,0.000000,  30.457
     3.2,0.000000,0.000000, 29,0.000000,0.000000,  30.457
     3.4,0.000000,0.000000, 29,0.000000,0.000000,  30.457
     3.6,0.000000,0.000000, 29,0.000000,0.000000,  30.459
     3.8,0.000000,0.000000, 29,0.000000,0.000000,  30.461
     4.0,0.000000,0.000019, 29,0.000000,0.000000,  30.460
     4.2,0.000015,0.000022, 29,-0.000040,0.000000,  30.455
     4.4,0.000012,0.000021, 29,-0.000069,-0.000049,  30.456
     4.6,0.000001,0.000024, 29,-0.000092,-0.000035,  30.456
     4.8,0.000004,0.000019, 29,-0.000104,-0.000035,  30.454
     5.0,-0.000004,0.000016, 29,-0.000104,-0.000035,  30.453
     5.2,-0.000001,0.000010, 29,-0.000092,-0.000035,  30.451
     5.4,-0.000005,0.000005, 29,-0.000080,-0.000022,  30.446
     5.6,-0.000013,-0.000001, 29,-0.000069,-0.000035,  30.446
     5.8,-0.000018,-0.000000, 29,-0.000056,-0.000035,  30.439
     6.0,-0.000028,-0.000000, 29,-0.000066,-0.000035,  30.437
     6.2,-0.000028,-0.000004, 29,-0.000085,-0.000049,  30.435
     6.4,-0.000028,-0.000002, 29,-0.000126,-0.000049,  30.432
     6.6,-0.000028,-0.000002, 29,-0.000131,-0.000049,  30.430
     6.8,-0.000033,-0.000004, 29,-0.000123,-0.000049,  30.427
     7.0,-0.000037,-0.000006, 29,-0.000101,-0.000049,  30.426
     7.2,-0.000047,-0.000009, 29,-0.000096,-0.000049,  30.420
     7.4,-0.000042,-0.000000, 29,-0.000110,-0.000049,  30.418
     7.6,-0.000033,0.000007, 29,-0.000116,-0.000049,  30.418
     7.8,-0.000019,0.000014, 29,-0.000094,-0.000049,  30.412
     8.0,-0.000014,0.000017, 29,-0.000076,-0.000049,  30.405
     8.2,-0.000014,0.000022, 29,-0.000042,-0.000049,  30.402
     8.4,-0.000014,0.000022, 29,-0.000031,-0.000071,  30.404
     8.6,-0.000014,0.000022, 29,-0.000026,-0.000071,  30.400
     8.8,-0.000014,0.000022, 29,-0.000031,-0.000071,  30.399
     9.0,-0.000014,0.000019, 29,-0.000029,-0.000092,  30.388
     9.2,-0.000014,0.000013, 29,-0.000033,-0.000071,  30.391
     9.4,-0.000016,0.000008, 29,-0.000034,-0.000071,  30.388
     9.6,-0.000021,0.000005, 29,-0.000053,-0.000092,  30.392
     9.8,-0.000023,0.000005, 29,-0.000096,-0.000057,  30.386
    10.0,-0.000021,0.000005, 29,-0.000153,-0.000057,  30.387
    10.2,-0.000026,0.000014, 29,-0.000148,-0.000092,  30.386
    10.4,-0.000021,0.000012, 29,-0.000130,-0.000071,  30.387
    10.6,-0.000024,0.000005, 29,-0.000100,-0.000071,  30.383
    10.8,-0.000024,-0.000002, 29,-0.000092,-0.000092,  30.380
    11.0,-0.000021,-0.000009, 29,-0.000086,-0.000071,  30.382
    11.2,-0.000021,-0.000010, 29,-0.000091,-0.000071,  30.382
    11.4,-0.000023,-0.000017, 29,-0.000106,-0.000092,  30.382
    11.6,-0.000028,-0.000021, 29,-0.000133,-0.000071,  30.378
    11.8,-0.000028,-0.000015, 29,-0.000159,-0.000071,  30.382
    12.0,-0.000028,-0.000010, 29,-0.000153,-0.000092,  30.375
    12.2,-0.000028,-0.000012, 29,-0.000145,-0.000071,  30.379
    12.4,-0.000028,-0.000011, 29,-0.000116,-0.000071,  30.379
    12.6,-0.000030,-0.000011, 29,-0.000127,-0.000092,  30.385
    12.8,-0.000027,-0.000009, 29,-0.000154,-0.000071,  30.380
    13.0,-0.000035,-0.000008, 29,-0.000190,-0.000071,  30.381
    13.2,-0.000040,-0.000001, 29,-0.000195,-0.000057,  30.377
    13.4,-0.000044,0.000001, 29,-0.000189,-0.000071,  30.380
    13.6,-0.000044,-0.000006, 29,-0.000176,-0.000071,  30.381
    13.8,-0.000042,-0.000011, 29,-0.000170,-0.000106,  30.382
    14.0,-0.000035,-0.000015, 29,-0.000164,-0.000071,  30.382
    14.2,-0.000033,-0.000013, 29,-0.000155,-0.000071,  30.378
    14.4,-0.000033,-0.000015, 29,-0.000155,-0.000071,  30.378
    14.6,-0.000033,-0.000019, 29,-0.000172,-0.000092,  30.379
    14.8,-0.000033,-0.000012, 29,-0.000190,-0.000071,  30.374
    15.0,-0.000035,-0.000012, 29,-0.000219,-0.000071,  30.372
    15.2,-0.000037,-0.000012, 29,-0.000217,-0.000092,  30.372
    15.4,-0.000042,-0.000008, 29,-0.000204,-0.000071,  30.369
    15.6,-0.000037,-0.000006, 29,-0.000170,-0.000071,  30.373
    15.8,-0.000031,-0.000004, 29,-0.000181,-0.000092,  30.376
    16.0,-0.000037,-0.000006, 29,-0.000208,-0.000071,  30.379
    16.2,-0.000034,-0.000004, 29,-0.000245,-0.000071,  30.383
    16.4,-0.000041,-0.000003, 29,-0.000271,-0.000092,  30.380
    16.6,-0.000044,-0.000005, 29,-0.000289,-0.000057,  30.387
    16.8,-0.000036,-0.000005, 29,-0.000307,-0.000057,  30.379
    17.0,-0.000034,-0.000005, 29,-0.000290,-0.000106,  30.383
    17.2,-0.000039,-0.000004, 29,-0.000267,-0.000084,  30.383
    17.4,-0.000036,-0.000003, 29,-0.000223,-0.000098,  30.384
    17.6,-0.000041,-0.000008, 29,-0.000205,-0.000134,  30.384
    17.8,-0.000044,-0.000010, 29,-0.000184,-0.000098,  30.386
    18.0,-0.000031,-0.000010, 29,-0.000169,-0.000112,  30.384
    18.2,-0.000027,-0.000012, 29,-0.000168,-0.000147,  30.383
    18.4,-0.000032,-0.000012, 29,-0.000173,-0.000098,  30.384
    18.6,-0.000034,-0.000014, 29,-0.000189,-0.000098,  30.383
    18.8,-0.000043,-0.000019, 29,-0.000191,-0.000134,  30.387
    19.0,-0.000051,-0.000021, 29,-0.000201,-0.000098,  30.385
    19.2,-0.000051,-0.000020, 29,-0.000213,-0.000084,  30.388
    19.4,-0.000053,-0.000022, 29,-0.000196,-0.000120,  30.386
    19.6,-0.000053,-0.000022, 29,-0.000178,-0.000084,  30.385
    19.8,-0.000056,-0.000026, 29,-0.000139,-0.000071,  30.384
    20.0,-0.000051,-0.000028, 29,-0.000122,-0.000106,  30.387
    20.2,-0.000051,-0.000024, 29,-0.000126,-0.000084,  30.386
    20.4,-0.000054,-0.000021, 29,-0.000124,-0.000084,  30.384
    20.6,-0.000044,-0.000019, 29,-0.000122,-0.000120,  30.387
    20.8,-0.000041,-0.000023, 29,-0.000117,-0.000084,  30.390
    21.0,-0.000044,-0.000028, 29,-0.000122,-0.000084,  30.391
    21.2,-0.000047,-0.000040, 29,-0.000121,-0.000120,  30.388
    21.4,-0.000048,-0.000044, 29,-0.000111,-0.000084,  30.385
    21.6,-0.000054,-0.000039, 29,-0.000104,-0.000084,  30.389
    21.8,-0.000054,-0.000035, 29,-0.000136,-0.000120,  30.390
    22.0,-0.000048,-0.000036, 29,-0.000187,-0.000084,  30.386
    22.2,-0.000054,-0.000032, 29,-0.000257,-0.000084,  30.386
    22.4,-0.000049,-0.000032, 29,-0.000286,-0.000106,  30.384
    22.6,-0.000041,-0.000030, 29,-0.000314,-0.000071,  30.388
    22.8,-0.000049,-0.000021, 29,-0.000333,-0.000057,  30.387
    23.0,-0.000051,-0.000015, 29,-0.000319,-0.000057,  30.386
    23.2,-0.000051,-0.000017, 29,-0.000291,-0.000043,  30.387
    23.4,-0.000056,-0.000018, 29,-0.000246,-0.000057,  30.384
    23.6,-0.000054,-0.000023, 29,-0.000229,-0.000092,  30.384
    23.8,-0.000044,-0.000023, 29,-0.000212,-0.000057,  30.389
    24.0,-0.000049,-0.000023, 29,-0.000216,-0.000057,  30.389
    24.2,-0.000054,-0.000024, 29,-0.000212,-0.000057,  30.384
    24.4,-0.000058,-0.000020, 29,-0.000207,-0.000078,  30.387
    24.6,-0.000061,-0.000019, 29,-0.000207,-0.000043,  30.383
    24.8,-0.000056,-0.000017, 29,-0.000207,-0.000043,  30.384
    25.0,-0.000046,-0.000017, 29,-0.000242,-0.000078,  30.382
    25.2,-0.000049,-0.000015, 29,-0.000299,-0.000057,  30.383
    25.4,-0.000049,-0.000017, 29,-0.000378,-0.000057,  30.384
    25.6,-0.000054,-0.000021, 29,-0.000389,-0.000092,  30.376
    25.8,-0.000054,-0.000015, 29,-0.000383,-0.000057,  30.376
    26.0,-0.000049,-0.000015, 29,-0.000349,-0.000057,  30.375
    26.2,-0.000041,-0.000017, 29,-0.000326,-0.000092,  30.372
    26.4,-0.000047,-0.000017, 29,-0.000296,-0.000057,  30.365
    26.6,-0.000047,-0.000021, 29,-0.000257,-0.000057,  30.369
    26.8,-0.000046,-0.000025, 29,-0.000236,-0.000092,  30.370
    27.0,-0.000049,-0.000033, 29,-0.000229,-0.000071,  30.368
    27.2,-0.000047,-0.000038, 29,-0.000228,-0.000071,  30.369
    27.4,-0.000039,-0.000042, 29,-0.000255,-0.000092,  30.367
    27.6,-0.000044,-0.000046, 29,-0.000305,-0.000071,  30.369
    27.8,-0.000044,-0.000044, 29,-0.000370,-0.000084,  30.372
    28.0,-0.000047,-0.000042, 29,-0.000360,-0.000120,  30.365
    28.2,-0.000049,-0.000046, 29,-0.000335,-0.000098,  30.371
    28.4,-0.000054,-0.000051, 29,-0.000279,-0.000098,  30.367
    28.6,-0.000061,-0.000055, 29,-0.000274,-0.000134,  30.369
    28.8,-0.000063,-0.000055, 29,-0.000286,-0.000084,  30.363
    29.0,-0.000068,-0.000054, 29,-0.000316,-0.000071,  30.363
    29.2,-0.000067,-0.000048, 29,-0.000319,-0.000106,  30.365
    29.4,-0.000073,-0.000042, 29,-0.000313,-0.000084,  30.369
    29.6,-0.000068,-0.000039, 29,-0.000298,-0.000084,  30.368
    29.8,-0.000062,-0.000029, 29,-0.000313,-0.000120,  30.367
    30.0,-0.000062,-0.000031, 29,-0.000349,-0.000084,  30.364
    30.2,-0.000068,-0.000034, 29,-0.000382,-0.000084,  30.361
    30.4,-0.000062,-0.000035, 29,-0.000371,-0.000120,  30.365
    30.6,-0.000067,-0.000031, 29,-0.000352,-0.000084,  30.365
    30.8,-0.000067,-0.000033, 29,-0.000314,-0.000084,  30.362
    31.0,-0.000066,-0.000033, 29,-0.000287,-0.000120,  30.366
    31.2,-0.000066,-0.000028, 29,-0.000268,-0.000084,  30.358
    31.4,-0.000071,-0.000028, 29,-0.000257,-0.000084,  30.360
    31.6,-0.000076,-0.000030, 29,-0.000254,-0.000120,  30.361
    31.8,-0.000070,-0.000034, 29,-0.000254,-0.000084,  30.363
    32.0,-0.000073,-0.000034, 29,-0.000266,-0.000098,  30.364
    32.2,-0.000081,-0.000035, 29,-0.000291,-0.000098,  30.369
    32.4,-0.000081,-0.000034, 29,-0.000315,-0.000063,  30.365
    32.6,-0.000080,-0.000032, 29,-0.000348,-0.000063,  30.371
    32.8,-0.000075,-0.000025, 29,-0.000370,-0.000063,  30.366
    33.0,-0.000060,-0.000021, 29,-0.000382,-0.000084,  30.372
    33.2,-0.000063,-0.000025, 29,-0.000383,-0.000049,  30.370
    33.4,-0.000062,-0.000026, 29,-0.000377,-0.000071,  30.372
    33.6,-0.000064,-0.000026, 29,-0.000365,-0.000071,  30.372
    33.8,-0.000067,-0.000023, 29,-0.000350,-0.000035,  30.371
    34.0,-0.000059,-0.000019, 29,-0.000345,-0.000035,  30.368
    34.2,-0.000055,-0.000025, 29,-0.000350,-0.000022,  30.376
    34.4,-0.000060,-0.000027, 29,-0.000352,-0.000035,  30.380
    34.6,-0.000055,-0.000031, 29,-0.000365,-0.000035,  30.384
    34.8,-0.000052,-0.000033, 29,-0.000361,-0.000022,  30.385
    35.0,-0.000057,-0.000040, 29,-0.000371,-0.000035,  30.381
    35.2,-0.000055,-0.000037, 29,-0.000373,-0.000035,  30.380
    35.4,-0.000057,-0.000037, 29,-0.000378,-0.000022,  30.381
    35.6,-0.000060,-0.000038, 29,-0.000376,-0.000035,  30.379
    35.8,-0.000055,-0.000038, 29,-0.000379,-0.000035,  30.382
    36.0,-0.000055,-0.000036, 29,-0.000384,-0.000022,  30.382
    36.2,-0.000058,-0.000033, 29,-0.000395,-0.000035,  30.375
    36.4,-0.000060,-0.000029, 29,-0.000402,-0.000035,  30.374
    36.6,-0.000060,-0.000028, 29,-0.000385,-0.000022,  30.369
    36.8,-0.000063,-0.000026, 29,-0.000357,-0.000035,  30.371
    37.0,-0.000058,-0.000028, 29,-0.000318,-0.000035,  30.368
    37.2,-0.000050,-0.000029, 29,-0.000290,-0.000022,  30.368
    37.4,-0.000051,-0.000028, 29,-0.000257,-0.000035,  30.371
    37.6,-0.000048,-0.000029, 29,-0.000225,-0.000035,  30.366
    37.8,-0.000044,-0.000031, 29,-0.000237,-0.000022,  30.371
    38.0,-0.000047,-0.000029, 29,-0.000276,-0.000035,  30.365
    38.2,-0.000041,-0.000024, 29,-0.000334,-0.000035,  30.367
    38.4,-0.000038,-0.000018, 29,-0.000324,-0.000022,  30.369
    38.6,-0.000044,-0.000015, 29,-0.000300,-0.000022,  30.369
    38.8,-0.000036,-0.000015, 29,-0.000255,-0.000022,  30.366
    39.0,-0.000036,-0.000016, 29,-0.000237,-0.000022,  30.363
    39.2,-0.000039,-0.000014, 29,-0.000225,-0.000022,  30.364
    39.4,-0.000034,-0.000019, 29,-0.000219,-0.000022,  30.364
    39.6,-0.000034,-0.000026, 29,-0.000214,-0.000022,  30.362
    39.8,-0.000031,-0.000029, 29,-0.000219,-0.000022,  30.363
    40.0,-0.000029,-0.000024, 29,-0.000232,-0.000022,  30.362
    40.2,-0.000024,-0.000010, 29,-0.000227,-0.000057,  30.363
    40.4,-0.000016,-0.000007, 29,-0.000220,-0.000057,  30.360
    40.6,-0.000014,-0.000006, 29,-0.000217,-0.000057,  30.356
    40.8,-0.000016,-0.000003, 29,-0.000209,-0.000092,  30.357
    41.0,-0.000016,-0.000002, 29,-0.000194,-0.000057,  30.358
    41.2,-0.000024,0.000005, 29,-0.000173,-0.000057,  30.351
    41.4,-0.000024,0.000005, 29,-0.000185,-0.000092,  30.354
    41.6,-0.000024,-0.000001, 29,-0.000214,-0.000057,  30.349
    41.8,-0.000030,-0.000004, 29,-0.000264,-0.000057,  30.352
    42.0,-0.000022,-0.000010, 29,-0.000274,-0.000092,  30.350
    42.2,-0.000020,-0.000007, 29,-0.000269,-0.000057,  30.348
    42.4,-0.000023,-0.000008, 29,-0.000254,-0.000057,  30.346
    42.6,-0.000020,0.000002, 29,-0.000241,-0.000057,  30.350
    42.8,-0.000023,0.000008, 29,-0.000225,-0.000057,  30.353
    43.0,-0.000028,0.000010, 29,-0.000205,-0.000057,  30.347
    43.2,-0.000028,0.000011, 29,-0.000188,-0.000092,  30.351
    43.4,-0.000023,0.000011, 29,-0.000171,-0.000057,  30.348
    43.6,-0.000026,0.000003, 29,-0.000152,-0.000057,  30.346
    43.8,-0.000026,-0.000004, 29,-0.000141,-0.000057,  30.344
    44.0,-0.000018,-0.000007, 29,-0.000130,-0.000092,  30.344
    44.2,-0.000019,-0.000000, 29,-0.000124,-0.000057,  30.345
    44.4,-0.000014,0.000010, 29,-0.000124,-0.000057,  30.342
    44.6,-0.000001,0.000010, 29,-0.000116,-0.000106,  30.342
    44.8,-0.000007,0.000005, 29,-0.000105,-0.000084,  30.341
    45.0,-0.000009,-0.000001, 29,-0.000097,-0.000084,  30.341
    45.2,-0.000011,-0.000001, 29,-0.000118,-0.000120,  30.342
    45.4,-0.000016,-0.000005, 29,-0.000146,-0.000084,  30.344
    45.6,-0.000019,0.000001, 29,-0.000183,-0.000084,  30.338
    45.8,-0.000013,0.000001, 29,-0.000188,-0.000120,  30.335
    46.0,-0.000014,-0.000001, 29,-0.000195,-0.000084,  30.337
    46.2,-0.000014,0.000003, 29,-0.000185,-0.000084,  30.336
    46.4,-0.000012,0.000002, 29,-0.000180,-0.000106,  30.336
    46.6,-0.000012,-0.000002, 29,-0.000184,-0.000071,  30.335
    46.8,-0.000014,0.000002, 29,-0.000180,-0.000071,  30.331
    47.0,-0.000019,-0.000000, 29,-0.000180,-0.000092,  30.331
    47.2,-0.000024,-0.000006, 29,-0.000195,-0.000071,  30.334
    47.4,-0.000024,-0.000006, 29,-0.000212,-0.000071,  30.331
    47.6,-0.000019,-0.000007, 29,-0.000246,-0.000092,  30.329
    47.8,-0.000025,-0.000009, 29,-0.000295,-0.000071,  30.325
    48.0,-0.000030,-0.000007, 29,-0.000357,-0.000071,  30.330
    48.2,-0.000029,-0.000006, 29,-0.000379,-0.000092,  30.327
    48.4,-0.000021,-0.000003, 29,-0.000387,-0.000071,  30.324
    48.6,-0.000023,-0.000003, 29,-0.000372,-0.000071,  30.324
    48.8,-0.000023,0.000005, 29,-0.000371,-0.000092,  30.315
    49.0,-0.000016,0.000005, 29,-0.000368,-0.000071,  30.316
    49.2,-0.000013,-0.000006, 29,-0.000355,-0.000084,  30.309
    49.4,-0.000016,-0.000010, 29,-0.000355,-0.000084,  30.327
    49.6,-0.000019,-0.000010, 29,-0.000375,-0.000063,  30.348
    49.8,-0.000016,-0.000016, 29,-0.000402,-0.000077,  30.356
    50.0,-0.000028,-0.000012, 29,-0.000409,-0.000077,  30.366
    50.2,-0.000029,-0.000014, 29,-0.000413,-0.000063,  30.372
    50.4,-0.000031,-0.000024, 29,-0.000413,-0.000049,  30.381
    50.6,-0.000039,-0.000029, 29,-0.000439,-0.000084,  30.392
    50.8,-0.000034,-0.000030, 29,-0.000476,-0.000084,  30.398
    51.0,-0.000039,-0.000035, 29,-0.000518,-0.000071,  30.404
    51.2,-0.000041,-0.000036, 29,-0.000538,-0.000092,  30.407
    51.4,-0.000044,-0.000036, 29,-0.000543,-0.000071,  30.412
    51.6,-0.000049,-0.000027, 29,-0.000543,-0.000071,  30.414
    51.8,-0.000049,-0.000024, 29,-0.000535,-0.000092,  30.429
    52.0,-0.000044,-0.000028, 29,-0.000513,-0.000071,  30.430
    52.2,-0.000055,-0.000032, 29,-0.000486,-0.000084,  30.439
    52.4,-0.000055,-0.000036, 29,-0.000403,-0.000071,  30.438
    52.6,-0.000055,-0.000004, 29,-0.000289,-0.000084,  30.420
    52.8,-0.000029,0.000047, 29,-0.000135,-0.000084,  30.391
    53.0,0.000006,0.000118, 29,0.000001,-0.000106,  30.368
    53.2,0.000061,0.000162, 29,0.000137,-0.000057,  30.345
    53.4,0.000106,0.000204, 29,0.000272,-0.000029,  30.333
    53.6,0.000146,0.000239, 29,0.000387,-0.000002,  30.331
    53.8,0.000186,0.000273, 29,0.000487,-0.000009,  30.325
    54.0,0.000214,0.000308, 29,0.000582,0.000054,  30.321
    54.2,0.000244,0.000338, 29,0.000659,0.000081,  30.313
    54.4,0.000273,0.000358, 29,0.000806,0.000073,  30.307
    54.6,0.000289,0.000374, 29,0.000966,0.000123,  30.303
    54.8,0.000308,0.000388, 29,0.001153,0.000150,  30.302
    55.0,0.000329,0.000379, 29,0.001293,0.000129,  30.303
    55.2,0.000317,0.000357, 29,0.001421,0.000178,  30.300
    55.4,0.000298,0.000321, 29,0.001539,0.000192,  30.299
    55.6,0.000271,0.000298, 29,0.001688,0.000170,  30.296
    55.8,0.000207,0.000270, 29,0.001836,0.000178,  30.292
    56.0,0.000129,0.000239, 29,0.002001,0.000109,  30.291
    56.2,0.000028,0.000176, 29,0.001926,-0.000037,  30.282
    56.4,-0.000061,0.000099, 29,0.001734,-0.000153,  30.284
    56.6,-0.000155,-0.000000, 29,0.001435,-0.000209,  30.285
    56.8,-0.000253,-0.000110, 29,0.001224,-0.000299,  30.281
    57.0,-0.000293,-0.000158, 29,0.000996,-0.000278,  30.284
    57.2,-0.000312,-0.000194, 29,0.000765,-0.000278,  30.276
    57.4,-0.000302,-0.000214, 29,0.000586,-0.000291,  30.278
    57.6,-0.000309,-0.000230, 29,0.000413,-0.000242,  30.282
    57.8,-0.000305,-0.000231, 29,0.000258,-0.000228,  30.276
    58.0,-0.000290,-0.000219, 29,0.000103,-0.000250,  30.273
    58.2,-0.000281,-0.000217, 29,-0.000045,-0.000236,  30.275
    58.4,-0.000263,-0.000210, 29,-0.000194,-0.000209,  30.276
    58.6,-0.000236,-0.000194, 29,-0.000259,-0.000230,  30.240
    58.8,-0.000230,-0.000183, 29,-0.000277,-0.000195,  30.235
    59.0,-0.000218,-0.000177, 29,-0.000266,-0.000084,  30.243
    59.2,-0.000210,-0.000162, 29,0.000068,0.000046,  30.263
    59.4,-0.000077,0.000059, 29,0.000587,0.000261,  30.265
    59.6,0.000123,0.000384, 29,0.001284,0.000426,  30.265
    59.8,0.000383,0.000815, 29,0.001528,0.000557,  30.264
    60.0,0.000713,0.001028, 29,0.001634,0.000772,  30.259
    60.2,0.000870,0.001186, 29,0.001601,0.000883,  30.259
    60.4,0.000987,0.001292, 29,0.001602,0.000916,  30.252
    60.6,0.001084,0.001354, 29,0.001547,0.000979,  30.257
    60.8,0.001119,0.001376, 29,0.001438,0.001021,  30.252
    61.0,0.001114,0.001350, 29,0.001376,0.000986,  30.255
    61.2,0.001065,0.001318, 29,0.001301,0.000979,  30.254
    61.4,0.001057,0.001263, 29,0.001227,0.000952,  30.251
    61.6,0.001052,0.001185, 29,0.001118,0.000861,  30.251
    61.8,0.001053,0.001111, 29,0.000993,0.000813,  30.248
    62.0,0.000996,0.001034, 29,0.000836,0.000758,  30.248
    62.2,0.000923,0.000941, 29,0.000718,0.000667,  30.249
    62.4,0.000825,0.000880, 29,0.000611,0.000634,  30.243
    62.6,0.000761,0.000837, 29,0.000504,0.000578,  30.248
    62.8,0.000719,0.000802, 29,0.000434,0.000551,  30.249
    63.0,0.000688,0.000746, 29,0.000388,0.000496,  30.244
    63.2,0.000638,0.000692, 29,0.000366,0.000468,  30.246
    63.4,0.000598,0.000627, 29,0.000335,0.000405,  30.245
    63.6,0.000556,0.000587, 29,0.000316,0.000413,  30.251
    63.8,0.000520,0.000567, 29,0.000302,0.000385,  30.247
    64.0,0.000494,0.000553, 29,0.000302,0.000385,  30.248
    64.2,0.000470,0.000527, 29,0.000247,0.000322,  30.250
    64.4,0.000446,0.000497, 29,0.000171,0.000344,  30.247
    64.6,0.000435,0.000474, 29,0.000071,0.000344,  30.248
    64.8,0.000429,0.000462, 29,0.000071,0.000281,  30.243
    65.0,0.000422,0.000452, 29,0.000110,0.000288,  30.245
    65.2,0.000426,0.000451, 29,0.000186,0.000288,  30.249
    65.4,0.000436,0.000451, 29,0.000176,0.000253,  30.248
    65.6,0.000426,0.000458, 29,0.000146,0.000288,  30.249
    65.8,0.000417,0.000468, 29,0.000098,0.000274,  30.249
    66.0,0.000401,0.000461, 29,0.000089,0.000239,  30.251
    66.2,0.000386,0.000447, 29,0.000092,0.000261,  30.245
    66.4,0.000384,0.000435, 29,0.000111,0.000261,  30.248
    66.6,0.000377,0.000410, 29,0.000114,0.000225,  30.249
    66.8,0.000358,0.000403, 29,0.000121,0.000274,  30.248
    67.0,0.000349,0.000404, 29,0.000131,0.000274,  30.249
    67.2,0.000338,0.000408, 29,0.000149,0.000225,  30.251
    67.4,0.000330,0.000401, 29,0.000183,0.000247,  30.252
    67.6,0.000328,0.000391, 29,0.000218,0.000261,  30.253
    67.8,0.000330,0.000379, 29,0.000230,0.000212,  30.254
    68.0,0.000320,0.000377, 29,0.000230,0.000233,  30.251
    68.2,0.000314,0.000377, 29,0.000208,0.000233,  30.251
    68.4,0.000305,0.000382, 29,0.000219,0.000184,  30.256
    68.6,0.000295,0.000382, 29,0.000236,0.000192,  30.249
    68.8,0.000293,0.000377, 29,0.000255,0.000192,  30.257
    69.0,0.000296,0.000370, 29,0.000261,0.000156,  30.258
    69.2,0.000293,0.000366, 29,0.000260,0.000178,  30.252
    69.4,0.000291,0.000358, 29,0.000258,0.000178,  30.258
    69.6,0.000289,0.000349, 29,0.000248,0.000156,  30.257
    69.8,0.000284,0.000339, 29,0.000226,0.000192,  30.256
    70.0,0.000279,0.000329, 29,0.000203,0.000192,  30.258
    70.2,0.000277,0.000318, 29,0.000192,0.000156,  30.257
    70.4,0.000275,0.000316, 29,0.000184,0.000178,  30.263
    70.6,0.000276,0.000316, 29,0.000184,0.000178,  30.258
    70.8,0.000278,0.000322, 29,0.000151,0.000156,  30.260
    71.0,0.000289,0.000321, 29,0.000108,0.000192,  30.262
    71.2,0.000279,0.000308, 29,0.000056,0.000192,  30.257
    71.4,0.000265,0.000295, 29,0.000051,0.000156,  30.261
    71.6,0.000247,0.000283, 29,0.000062,0.000192,  30.262
    71.8,0.000230,0.000265, 29,0.000084,0.000192,  30.260
    72.0,0.000223,0.000249, 29,0.000064,0.000156,  30.260
    72.2,0.000221,0.000236, 29,0.000037,0.000178,  30.258
    72.4,0.000214,0.000235, 29,-0.000003,0.000178,  30.259
    72.6,0.000214,0.000233, 29,-0.000007,0.000178,  30.259
    72.8,0.000221,0.000236, 29,0.000006,0.000178,  30.258
    73.0,0.000218,0.000246, 29,0.000040,0.000164,  30.256
    73.2,0.000216,0.000261, 29,0.000036,0.000129,  30.257
    73.4,0.000219,0.000258, 29,0.000031,0.000150,  30.257
    73.6,0.000221,0.000248, 29,0.000014,0.000150,  30.258
    73.8,0.000223,0.000237, 29,-0.000013,0.000150,  30.260
    74.0,0.000235,0.000236, 29,-0.000023,0.000115,  30.258
    74.2,0.000230,0.000238, 29,-0.000039,0.000164,  30.261
    74.4,0.000225,0.000245, 29,-0.000045,0.000178,  30.261
    74.6,0.000224,0.000257, 29,-0.000048,0.000156,  30.264
    74.8,0.000216,0.000276, 29,-0.000027,0.000178,  30.260
    75.0,0.000216,0.000298, 29,-0.000005,0.000178,  30.262
    75.2,0.000224,0.000306, 29,0.000012,0.000142,  30.255
    75.4,0.000223,0.000309, 29,0.000034,0.000164,  30.259
    75.6,0.000225,0.000314, 29,0.000063,0.000164,  30.255
    75.8,0.000230,0.000321, 29,0.000072,0.000142,  30.255
    76.0,0.000249,0.000328, 29,0.000061,0.000192,  30.251
    76.2,0.000273,0.000333, 29,0.000050,0.000205,  30.255
    76.4,0.000304,0.000343, 29,0.000067,0.000170,  30.252
    76.6,0.000308,0.000350, 29,0.000080,0.000219,  30.252
    76.8,0.000317,0.000365, 29,0.000099,0.000233,  30.252
    77.0,0.000315,0.000372, 29,0.000085,0.000198,  30.251
    77.2,0.000314,0.000373, 29,0.000062,0.000247,  30.256
    77.4,0.000317,0.000372, 29,0.000026,0.000261,  30.252
    77.6,0.000321,0.000364, 29,0.000014,0.000198,  30.250
    77.8,0.000318,0.000361, 29,0.000004,0.000219,  30.251
    78.0,0.000318,0.000352, 29,0.000004,0.000233,  30.253
    78.2,0.000316,0.000342, 29,-0.000013,0.000184,  30.249
    78.4,0.000301,0.000339, 29,-0.000036,0.000219,  30.246
    78.6,0.000295,0.000335, 29,-0.000063,0.000233,  30.249
    78.8,0.000278,0.000334, 29,-0.000088,0.000184,  30.248
    79.0,0.000267,0.000327, 29,-0.000115,0.000219,  30.252
    79.2,0.000255,0.000312, 29,-0.000140,0.000219,  30.253
    79.4,0.000246,0.000304, 29,-0.000137,0.000170,  30.251
    79.6,0.000239,0.000290, 29,-0.000116,0.000178,  30.247
    79.8,0.000235,0.000269, 29,-0.000082,0.000178,  30.247
    80.0,0.000225,0.000258, 29,-0.000075,0.000142,  30.249
    80.2,0.000218,0.000261, 29,-0.000089,0.000164,  30.250
    80.4,0.000210,0.000267, 29,-0.000100,0.000150,  30.249
    80.6,0.000213,0.000284, 29,-0.000105,0.000115,  30.250
    80.8,0.000218,0.000283, 29,-0.000120,0.000150,  30.249
    81.0,0.000210,0.000269, 29,-0.000132,0.000136,  30.248
    81.2,0.000208,0.000251, 29,-0.000154,0.000101,  30.248
    81.4,0.000209,0.000240, 29,-0.000191,0.000150,  30.246
    81.6,0.000203,0.000242, 29,-0.000235,0.000150,  30.246
    81.8,0.000201,0.000245, 29,-0.000245,0.000115,  30.249
    82.0,0.000209,0.000239, 29,-0.000245,0.000150,  30.251
    82.2,0.000206,0.000236, 29,-0.000247,0.000150,  30.252
    82.4,0.000203,0.000234, 29,-0.000234,0.000150,  30.250
    82.6,0.000209,0.000230, 29,-0.000211,0.000150,  30.253
    82.8,0.000206,0.000231, 29,-0.000177,0.000136,  30.252
    83.0,0.000201,0.000231, 29,-0.000160,0.000101,  30.254
    83.2,0.000199,0.000227, 29,-0.000149,0.000123,  30.253
    83.4,0.000196,0.000215, 29,-0.000144,0.000123,  30.254
    83.6,0.000203,0.000199, 29,-0.000144,0.000136,  30.247
    83.8,0.000208,0.000197, 29,-0.000132,0.000087,  30.255
    84.0,0.000205,0.000202, 29,-0.000113,0.000123,  30.253
    84.2,0.000213,0.000206, 29,-0.000097,0.000136,  30.251
    84.4,0.000215,0.000208, 29,-0.000095,0.000087,  30.256
    84.6,0.000212,0.000213, 29,-0.000095,0.000109,  30.259
    84.8,0.000217,0.000219, 29,-0.000100,0.000123,  30.255
    85.0,0.000215,0.000224, 29,-0.000095,0.000087,  30.257
    85.2,0.000210,0.000236, 29,-0.000084,0.000109,  30.257
    85.4,0.000215,0.000249, 29,-0.000081,0.000123,  30.259
    85.6,0.000215,0.000252, 29,-0.000082,0.000073,  30.252
    85.8,0.000205,0.000250, 29,-0.000084,0.000095,  30.257
    86.0,0.000203,0.000247, 29,-0.000095,0.000109,  30.259
    86.2,0.000194,0.000242, 29,-0.000100,0.000073,  30.257
    86.4,0.000189,0.000246, 29,-0.000108,0.000109,  30.256
    86.6,0.000199,0.000253, 29,-0.000113,0.000123,  30.258
    86.8,0.000206,0.000264, 29,-0.000087,0.000087,  30.258
    87.0,0.000207,0.000267, 29,-0.000053,0.000109,  30.259
    87.2,0.000220,0.000266, 29,-0.000006,0.000123,  30.258
    87.4,0.000227,0.000256, 29,0.000036,0.000087,  30.252
    87.6,0.000231,0.000259, 29,0.000070,0.000123,  30.251
    87.8,0.000241,0.000269, 29,0.000109,0.000136,  30.247
    88.0,0.000246,0.000282, 29,0.000140,0.000087,  30.250
    88.2,0.000254,0.000295, 29,0.000150,0.000123,  30.246
    88.4,0.000271,0.000314, 29,0.000159,0.000150,  30.251
    88.6,0.000288,0.000337, 29,0.000160,0.000129,  30.247
    88.8,0.000300,0.000352, 29,0.000153,0.000192,  30.242
    89.0,0.000311,0.000366, 29,0.000142,0.000219,  30.248
    89.2,0.000318,0.000378, 29,0.000155,0.000212,  30.248
    89.4,0.000331,0.000389, 29,0.000187,0.000261,  30.246
    89.6,0.000350,0.000401, 29,0.000221,0.000288,  30.248
    89.8,0.000363,0.000415, 29,0.000248,0.000253,  30.245
    90.0,0.000384,0.000421, 29,0.000280,0.000288,  30.242
    90.2,0.000395,0.000430, 29,0.000309,0.000288,  30.243
    90.4,0.000415,0.000435, 29,0.000314,0.000253,  30.239
    90.6,0.000426,0.000446, 29,0.000309,0.000274,  30.234
    90.8,0.000423,0.000466, 29,0.000296,0.000261,  30.232
    91.0,0.000424,0.000488, 29,0.000301,0.000225,  30.233
    91.2,0.000420,0.000488, 29,0.000303,0.000274,  30.233
    91.4,0.000410,0.000480, 29,0.000317,0.000288,  30.236
    91.6,0.000401,0.000462, 29,0.000288,0.000267,  30.231
    91.8,0.000397,0.000456, 29,0.000234,0.000302,  30.233
    92.0,0.000384,0.000449, 29,0.000160,0.000302,  30.232
    92.2,0.000375,0.000445, 29,0.000154,0.000302,  30.234
    92.4,0.000368,0.000436, 29,0.000169,0.000302,  30.234
    92.6,0.000354,0.000421, 29,0.000210,0.000302,  30.228
    92.8,0.000342,0.000410, 29,0.000217,0.000267,  30.228
    93.0,0.000333,0.000403, 29,0.000218,0.000288,  30.229
    93.2,0.000325,0.000390, 29,0.000221,0.000261,  30.231
    93.4,0.000323,0.000376, 29,0.000212,0.000247,  30.227
    93.6,0.000325,0.000368, 29,0.000190,0.000198,  30.226
    93.8,0.000320,0.000363, 29,0.000146,0.000205,  30.229
    94.0,0.000325,0.000360, 29,0.000091,0.000219,  30.227
    94.2,0.000323,0.000363, 29,0.000096,0.000198,  30.228
    94.4,0.000320,0.000380, 29,0.000119,0.000233,  30.233
    94.6,0.000325,0.000406, 29,0.000158,0.000247,  30.230
    94.8,0.000325,0.000409, 29,0.000176,0.000198,  30.228
    95.0,0.000325,0.000406, 29,0.000203,0.000219,  30.228
    95.2,0.000335,0.000400, 29,0.000227,0.000233,  30.233
    95.4,0.000347,0.000400, 29,0.000221,0.000184,  30.230
    95.6,0.000349,0.000398, 29,0.000192,0.000219,  30.230
    95.8,0.000354,0.000400, 29,0.000152,0.000233,  30.233
    96.0,0.000358,0.000400, 29,0.000156,0.000212,  30.231
    96.2,0.000362,0.000404, 29,0.000156,0.000274,  30.230
    96.4,0.000379,0.000409, 29,0.000168,0.000274,  30.231
    96.6,0.000391,0.000421, 29,0.000174,0.000239,  30.230
    96.8,0.000395,0.000426, 29,0.000181,0.000274,  30.232
    97.0,0.000410,0.000437, 29,0.000191,0.000274,  30.231
    97.2,0.000417,0.000448, 29,0.000204,0.000239,  30.231
    97.4,0.000426,0.000457, 29,0.000226,0.000274,  30.233
    97.6,0.000435,0.000466, 29,0.000257,0.000274,  30.235
    97.8,0.000447,0.000474, 29,0.000267,0.000239,  30.226
    98.0,0.000462,0.000487, 29,0.000271,0.000261,  30.232
    98.2,0.000486,0.000507, 29,0.000259,0.000274,  30.230
    98.4,0.000514,0.000523, 29,0.000274,0.000239,  30.228
    98.6,0.000526,0.000526, 29,0.000295,0.000261,  30.233
    98.8,0.000533,0.000519, 29,0.000326,0.000288,  30.230
    99.0,0.000535,0.000510, 29,0.000367,0.000267,  30.235
    99.2,0.000545,0.000531, 29,0.000403,0.000302,  30.233
    99.4,0.000562,0.000560, 29,0.000454,0.000330,  30.231
    99.6,0.000568,0.000607, 29,0.000512,0.000336,  30.233
    99.8,0.000593,0.000634, 29,0.000569,0.000385,  30.233
   100.0,0.000607,0.000659, 29,0.000632,0.000413,  30.231
   100.2,0.000621,0.000688, 29,0.000687,0.000405,  30.231
   100.4,0.000641,0.000726, 29,0.000736,0.000454,  30.234
   100.6,0.000678,0.000766, 29,0.000781,0.000482,  30.232
   100.8,0.000729,0.000815, 29,0.000863,0.000474,  30.233
   101.0,0.000797,0.000859, 29,0.000961,0.000523,  30.235
   101.2,0.000841,0.000910, 29,0.001075,0.000537,  30.233
   101.4,0.000888,0.000961, 29,0.001168,0.000502,  30.225
   101.6,0.000938,0.001008, 29,0.001255,0.000537,  30.236
   101.8,0.000975,0.001063, 29,0.001341,0.000537,  30.231
   102.0,0.001012,0.001114, 29,0.001419,0.000565,  30.232
   102.2,0.001055,0.001163, 29,0.001491,0.000565,  30.232
   102.4,0.001090,0.001209, 29,0.001553,0.000578,  30.233
   102.6,0.001125,0.001257, 29,0.001610,0.000557,  30.231
   102.8,0.001166,0.001293, 29,0.001666,0.000592,  30.229
   103.0,0.001186,0.001329, 29,0.001707,0.000606,  30.234
   103.2,0.001208,0.001357, 29,0.001748,0.000634,  30.233
   103.4,0.001222,0.001385, 29,0.001801,0.000612,  30.231
   103.6,0.001243,0.001410, 29,0.001851,0.000661,  30.233
   103.8,0.001266,0.001428, 29,0.001905,0.000675,  30.232
   104.0,0.001291,0.001452, 29,0.001939,0.000640,  30.233
   104.2,0.001299,0.001475, 29,0.001980,0.000661,  30.230
   104.4,0.001306,0.001493, 29,0.002006,0.000675,  30.234
   104.6,0.001314,0.001510, 29,0.002044,0.000667,  30.226
   104.8,0.001320,0.001534, 29,0.002091,0.000730,  30.228
   105.0,0.001332,0.001557, 29,0.002139,0.000744,  30.230
   105.2,0.001346,0.001571, 29,0.002159,0.000723,  30.228
   105.4,0.001356,0.001570, 29,0.002167,0.000758,  30.230
   105.6,0.001365,0.001576, 29,0.002162,0.000772,  30.227
   105.8,0.001375,0.001567, 29,0.002219,0.000758,  30.230
   106.0,0.001396,0.001584, 29,0.002287,0.000780,  30.229
   106.2,0.001431,0.001612, 29,0.002378,0.000807,  30.230
   106.4,0.001479,0.001650, 29,0.002436,0.000807,  30.228
   106.6,0.001502,0.001682, 29,0.002487,0.000821,  30.231
   106.8,0.001528,0.001724, 29,0.002537,0.000849,  30.229
   107.0,0.001558,0.001761, 29,0.002601,0.000863,  30.232
   107.2,0.001583,0.001795, 29,0.002673,0.000876,  30.230
   107.4,0.001608,0.001830, 29,0.002759,0.000890,  30.226
   107.6,0.001638,0.001866, 29,0.002817,0.000876,  30.226
   107.8,0.001664,0.001894, 29,0.002862,0.000876,  30.231
   108.0,0.001688,0.001918, 29,0.002900,0.000890,  30.228
   108.2,0.001706,0.001940, 29,0.002936,0.000890,  30.229
   108.4,0.001716,0.001953, 29,0.002971,0.000890,  30.225
   108.6,0.001718,0.001963, 29,0.002994,0.000904,  30.220
   108.8,0.001710,0.001972, 29,0.003016,0.000904,  30.228
   109.0,0.001704,0.001972, 29,0.003037,0.000890,  30.226
   109.2,0.001692,0.001963, 29,0.003043,0.000890,  30.224
   109.4,0.001677,0.001951, 29,0.003004,0.000876,  30.219
   109.6,0.001666,0.001938, 29,0.002933,0.000835,  30.224
   109.8,0.001645,0.001918, 29,0.002827,0.000821,  30.221
   110.0,0.001622,0.001893, 29,0.002776,0.000807,  30.220
   110.2,0.001591,0.001864, 29,0.002736,0.000780,  30.219
   110.4,0.001555,0.001828, 29,0.002698,0.000766,  30.221
   110.6,0.001515,0.001786, 29,0.002622,0.000738,  30.221
   110.8,0.001473,0.001733, 29,0.002538,0.000711,  30.222
   111.0,0.001435,0.001672, 29,0.002435,0.000697,  30.224
   111.2,0.001395,0.001605, 29,0.002334,0.000669,  30.223
   111.4,0.001366,0.001545, 29,0.002236,0.000628,  30.223
   111.6,0.001316,0.001486, 29,0.002128,0.000614,  30.219
   111.8,0.001265,0.001426, 29,0.002039,0.000600,  30.220
   112.0,0.001206,0.001367, 29,0.001969,0.000551,  30.224
   112.2,0.001153,0.001303, 29,0.001895,0.000558,  30.221
   112.4,0.001106,0.001249, 29,0.001814,0.000496,  30.216
   112.6,0.001065,0.001191, 29,0.001738,0.000454,  30.227
   112.8,0.001008,0.001131, 29,0.001654,0.000448,  30.223
   113.0,0.000951,0.001079, 29,0.001576,0.000434,  30.225
   113.2,0.000898,0.001027, 29,0.001469,0.000407,  30.222
   113.4,0.000848,0.000974, 29,0.001365,0.000379,  30.227
   113.6,0.000811,0.000929, 29,0.001256,0.000351,  30.222
   113.8,0.000784,0.000888, 29,0.001170,0.000324,  30.223
   114.0,0.000743,0.000851, 29,0.001098,0.000310,  30.220
   114.2,0.000713,0.000817, 29,0.001031,0.000296,  30.221
   114.4,0.000688,0.000776, 29,0.000971,0.000282,  30.223
   114.6,0.000654,0.000744, 29,0.000915,0.000268,  30.221
   114.8,0.000628,0.000716, 29,0.000855,0.000268,  30.219
   115.0,0.000603,0.000692, 29,0.000789,0.000255,  30.219
   115.2,0.000565,0.000671, 29,0.000726,0.000227,  30.221
   115.4,0.000532,0.000654, 29,0.000658,0.000213,  30.220
   115.6,0.000498,0.000639, 29,0.000578,0.000199,  30.219
   115.8,0.000464,0.000610, 29,0.000496,0.000186,  30.218
   116.0,0.000438,0.000582, 29,0.000400,0.000172,  30.219
   116.2,0.000418,0.000549, 29,0.000359,0.000158,  30.214
   116.4,0.000391,0.000526, 29,0.000341,0.000144,  30.213
   116.6,0.000372,0.000500, 29,0.000346,0.000144,  30.217
   116.8,0.000356,0.000480, 29,0.000334,0.000144,  30.215
   117.0,0.000339,0.000453, 29,0.000331,0.000116,  30.218
   117.2,0.000332,0.000431, 29,0.000329,0.000152,  30.217
   117.4,0.000325,0.000410, 29,0.000311,0.000152,  30.212
   117.6,0.000313,0.000389, 29,0.000294,0.000124,  30.212
   117.8,0.000309,0.000369, 29,0.000272,0.000160,  30.215
   118.0,0.000297,0.000349, 29,0.000253,0.000160,  30.212
   118.2,0.000286,0.000339, 29,0.000231,0.000110,  30.213
   118.4,0.000276,0.000327, 29,0.000200,0.000097,  30.213
   118.6,0.000259,0.000317, 29,0.000192,0.000097,  30.212
   118.8,0.000253,0.000308, 29,0.000202,0.000097,  30.212
   119.0,0.000240,0.000298, 29,0.000203,0.000083,  30.213
   119.2,0.000235,0.000286, 29,0.000194,0.000083,  30.212
   119.4,0.000231,0.000281, 29,0.000188,0.000097,  30.213
   119.6,0.000216,0.000277, 29,0.000171,0.000061,  30.208
   119.8,0.000212,0.000278, 29,0.000157,0.000061,  30.208
   120.0,0.000206,0.000271, 29,0.000142,0.000061,  30.209
   120.2,0.000198,0.000261, 29,0.000125,0.000026,  30.209
   120.4,0.000196,0.000258, 29,0.000110,0.000026,  30.208
   120.6,0.000196,0.000248, 29,0.000089,0.000061,  30.217
   120.8,0.000188,0.000237, 29,0.000066,0.000061,  30.211
   121.0,0.000189,0.000227, 29,0.000062,0.000061,  30.210
   121.2,0.000185,0.000217, 29,0.000077,0.000061,  30.211
   121.4,0.000174,0.000212, 29,0.000093,0.000047,  30.205
   121.6,0.000173,0.000203, 29,0.000088,0.000061,  30.208
   121.8,0.000171,0.000195, 29,0.000071,0.000012,  30.207
   122.0,0.000163,0.000195, 29,0.000053,0.000047,  30.209
   122.2,0.000161,0.000192, 29,0.000046,0.000026,  30.210
   122.4,0.000164,0.000192, 29,0.000037,0.000012,  30.212
   122.6,0.000154,0.000191, 29,0.000041,0.000047,  30.210
   122.8,0.000152,0.000195, 29,0.000037,0.000061,  30.210
   123.0,0.000144,0.000189, 29,0.000049,0.000061,  30.212
   123.2,0.000136,0.000184, 29,0.000066,0.000047,  30.211
   123.4,0.000141,0.000177, 29,0.000084,0.000061,  30.212
   123.6,0.000139,0.000169, 29,0.000079,0.000061,  30.213
   123.8,0.000131,0.000162, 29,0.000052,0.000047,  30.212
   124.0,0.000131,0.000165, 29,0.000022,0.000061,  30.214
   124.2,0.000129,0.000165, 29,0.000022,0.000047,  30.212
   124.4,0.000124,0.000165, 29,0.000028,0.000034,  30.205
   124.6,0.000128,0.000167, 29,0.000044,0.000047,  30.209
   124.8,0.000133,0.000171, 29,0.000044,0.000034,  30.204
   125.0,0.000125,0.000168, 29,0.000037,0.000034,  30.206
   125.2,0.000131,0.000174, 29,0.000026,0.000047,  30.207
   125.4,0.000123,0.000170, 29,0.000036,0.000047,  30.204
   125.6,0.000117,0.000163, 29,0.000053,0.000047,  30.208
   125.8,0.000123,0.000159, 29,0.000073,0.000061,  30.207
   126.0,0.000125,0.000150, 29,0.000083,0.000047,  30.206
   126.2,0.000120,0.000148, 29,0.000081,0.000034,  30.207
   126.4,0.000120,0.000146, 29,0.000081,0.000047,  30.207
   126.6,0.000117,0.000147, 29,0.000088,0.000034,  30.208
   126.8,0.000112,0.000145, 29,0.000094,0.000020,  30.211
   127.0,0.000109,0.000138, 29,0.000105,0.000020,  30.207
   127.2,0.000110,0.000130, 29,0.000094,0.000020,  30.210
   127.4,0.000098,0.000120, 29,0.000086,-0.000008,  30.206
   127.6,0.000096,0.000117, 29,0.000067,-0.000008,  30.204
   127.8,0.000090,0.000116, 29,0.000043,0.000006,  30.202
   128.0,0.000085,0.000110, 29,0.000006,-0.000008,  30.201
   128.2,0.000080,0.000110, 29,-0.000024,0.000006,  30.199
   128.4,0.000085,0.000118, 29,-0.000002,0.000006,  30.200
   128.6,0.000085,0.000115, 29,0.000033,0.000006,  30.200
   128.8,0.000077,0.000113, 29,0.000090,0.000020,  30.193
   129.0,0.000070,0.000112, 29,0.000118,0.000006,  30.194
   129.2,0.000069,0.000115, 29,0.000139,0.000006,  30.195
   129.4,0.000068,0.000113, 29,0.000149,0.000020,  30.194
   129.6,0.000073,0.000120, 29,0.000121,0.000006,  30.188
   129.8,0.000074,0.000122, 29,0.000069,0.000006,  30.190
   130.0,0.000071,0.000126, 29,-0.000010,0.000020,  30.193
   130.2,0.000074,0.000130, 29,-0.000003,0.000020,  30.195
   130.4,0.000073,0.000128, 29,0.000035,0.000020,  30.191
   130.6,0.000067,0.000132, 29,0.000108,0.000034,  30.191
   130.8,0.000070,0.000128, 29,0.000145,0.000034,  30.191
   131.0,0.000070,0.000123, 29,0.000168,0.000034,  30.192
   131.2,0.000067,0.000125, 29,0.000189,0.000034,  30.187
   131.4,0.000074,0.000123, 29,0.000199,0.000034,  30.186
   131.6,0.000074,0.000121, 29,0.000192,-0.000029,  30.179
   131.8,0.000067,0.000119, 29,0.000174,-0.000008,  30.178
   132.0,0.000067,0.000116, 29,0.000173,-0.000043,  30.183
   132.2,0.000060,0.000116, 29,0.000166,-0.000043,  30.183
   132.4,0.000055,0.000111, 29,0.000165,-0.000008,  30.182
   132.6,0.000063,0.000104, 29,0.000158,-0.000008,  30.176
   132.8,0.000067,0.000101, 29,0.000148,-0.000008,  30.180
   133.0,0.000067,0.000094, 29,0.000143,-0.000035,  30.177
   133.2,0.000072,0.000091, 29,0.000143,-0.000035,  30.181
   133.4,0.000072,0.000089, 29,0.000154,-0.000022,  30.179
   133.6,0.000069,0.000092, 29,0.000175,-0.000022,  30.176
   133.8,0.000071,0.000096, 29,0.000201,-0.000022,  30.180
   134.0,0.000076,0.000098, 29,0.000229,-0.000022,  30.176
   134.2,0.000070,0.000099, 29,0.000266,-0.000022,  30.177
   134.4,0.000070,0.000096, 29,0.000305,-0.000022,  30.177
   134.6,0.000076,0.000094, 29,0.000305,-0.000022,  30.178
   134.8,0.000070,0.000092, 29,0.000292,-0.000035,  30.178
   135.0,0.000070,0.000084, 29,0.000257,-0.000035,  30.177
   135.2,0.000076,0.000082, 29,0.000272,-0.000022,  30.177
   135.4,0.000075,0.000078, 29,0.000302,-0.000035,  30.177
   135.6,0.000078,0.000078, 29,0.000343,-0.000035,  30.171
   135.8,0.000088,0.000078, 29,0.000358,-0.000022,  30.174
   136.0,0.000087,0.000081, 29,0.000360,-0.000035,  30.173
   136.2,0.000087,0.000081, 29,0.000356,-0.000035,  30.174
   136.4,0.000092,0.000093, 29,0.000404,-0.000022,  30.170
   136.6,0.000089,0.000096, 29,0.000468,-0.000035,  30.168
   136.8,0.000095,0.000096, 29,0.000549,-0.000035,  30.161
   137.0,0.000100,0.000097, 29,0.000598,-0.000022,  30.165
   137.2,0.000099,0.000096, 29,0.000651,-0.000035,  30.163
   137.4,0.000110,0.000096, 29,0.000679,-0.000035,  30.165
   137.6,0.000116,0.000095, 29,0.000717,-0.000022,  30.164
   137.8,0.000118,0.000093, 29,0.000744,-0.000022,  30.163
   138.0,0.000115,0.000090, 29,0.000773,-0.000022,  30.165
   138.2,0.000115,0.000093, 29,0.000804,-0.000008,  30.165
   138.4,0.000117,0.000098, 29,0.000826,-0.000008,  30.163
   138.6,0.000120,0.000105, 29,0.000855,-0.000008,  30.162
   138.8,0.000119,0.000119, 29,0.000898,0.000006,  30.159
   139.0,0.000124,0.000124, 29,0.000945,-0.000008,  30.167
   139.2,0.000123,0.000124, 29,0.001002,-0.000008,  30.161
   139.4,0.000135,0.000124, 29,0.001033,-0.000008,  30.164
   139.6,0.000145,0.000125, 29,0.001052,-0.000022,  30.167
   139.8,0.000146,0.000126, 29,0.001068,-0.000022,  30.168
   140.0,0.000154,0.000128, 29,0.001099,-0.000022,  30.165
   140.2,0.000156,0.000130, 29,0.001126,-0.000035,  30.164
   140.4,0.000156,0.000135, 29,0.001171,-0.000049,  30.166
   140.6,0.000161,0.000141, 29,0.001215,-0.000049,  30.170
   140.8,0.000161,0.000138, 29,0.001257,-0.000063,  30.165
   141.0,0.000163,0.000138, 29,0.001301,-0.000077,  30.167
   141.2,0.000173,0.000140, 29,0.001358,-0.000063,  30.172
   141.4,0.000180,0.000141, 29,0.001414,-0.000098,  30.170
   141.6,0.000182,0.000146, 29,0.001467,-0.000049,  30.168
   141.8,0.000186,0.000157, 29,0.001519,-0.000071,  30.167
   142.0,0.000186,0.000157, 29,0.001556,-0.000084,  30.162
   142.2,0.000188,0.000163, 29,0.001602,-0.000063,  30.167
   142.4,0.000197,0.000168, 29,0.001638,-0.000077,  30.171
   142.6,0.000210,0.000173, 29,0.001690,-0.000077,  30.170
   142.8,0.000214,0.000183, 29,0.001741,-0.000063,  30.168
   143.0,0.000226,0.000196, 29,0.001798,-0.000063,  30.170
   143.2,0.000241,0.000201, 29,0.001859,-0.000063,  30.166
   143.4,0.000240,0.000201, 29,0.001917,-0.000063,  30.167
   143.6,0.000248,0.000199, 29,0.001988,-0.000063,  30.170
   143.8,0.000250,0.000210, 29,0.002060,-0.000063,  30.170
   144.0,0.000250,0.000214, 29,0.002133,-0.000063,  30.166
   144.2,0.000257,0.000223, 29,0.002206,-0.000063,  30.167
   144.4,0.000264,0.000228, 29,0.002249,-0.000063,  30.165
   144.6,0.000270,0.000236, 29,0.002275,-0.000077,  30.166
   144.8,0.000282,0.000238, 29,0.002278,-0.000049,  30.167
   145.0,0.000295,0.000242, 29,0.002344,-0.000049,  30.169
   145.2,0.000297,0.000252, 29,0.002433,-0.000049,  30.167
   145.4,0.000309,0.000261, 29,0.002541,-0.000035,  30.170
   145.6,0.000311,0.000276, 29,0.002640,-0.000035,  30.166
   145.8,0.000318,0.000283, 29,0.002731,-0.000049,  30.163
   146.0,0.000327,0.000283, 29,0.002832,-0.000049,  30.163
   146.2,0.000341,0.000281, 29,0.002938,-0.000035,  30.166
   146.4,0.000347,0.000285, 29,0.003037,-0.000035,  30.165
   146.6,0.000354,0.000290, 29,0.003138,-0.000035,  30.163
   146.8,0.000359,0.000295, 29,0.003238,-0.000022,  30.160
   147.0,0.000365,0.000302, 29,0.003331,-0.000035,  30.162
   147.2,0.000377,0.000305, 29,0.003422,-0.000035,  30.160
   147.4,0.000387,0.000315, 29,0.003524,-0.000035,  30.160
   147.6,0.000394,0.000320, 29,0.003615,-0.000049,  30.160
   147.8,0.000401,0.000316, 29,0.003707,-0.000049,  30.162
   148.0,0.000408,0.000318, 29,0.003810,-0.000049,  30.162
   148.2,0.000412,0.000326, 29,0.003906,-0.000049,  30.159
   148.4,0.000423,0.000333, 29,0.004007,-0.000063,  30.162
   148.6,0.000447,0.000344, 29,0.004108,-0.000063,  30.163
   148.8,0.000468,0.000352, 29,0.004217,-0.000063,  30.159
   149.0,0.000484,0.000362, 29,0.004324,-0.000077,  30.161
   149.2,0.000502,0.000366, 29,0.004419,-0.000077,  30.161
   149.4,0.000524,0.000370, 29,0.004521,-0.000063,  30.159
   149.6,0.000533,0.000385, 29,0.004609,-0.000049,  30.160
   149.8,0.000545,0.000400, 29,0.004673,-0.000049,  30.156
   150.0,0.000549,0.000408, 29,0.004733,-0.000049,  30.156
   150.2,0.000556,0.000418, 29,0.004781,-0.000035,  30.161
   150.4,0.000563,0.000425, 29,0.004895,-0.000035,  30.158
   150.6,0.000571,0.000436, 29,0.005032,-0.000049,  30.158
   150.8,0.000578,0.000443, 29,0.005204,-0.000035,  30.153
   151.0,0.000599,0.000451, 29,0.005317,-0.000035,  30.156
   151.2,0.000619,0.000459, 29,0.005406,-0.000071,  30.158
   151.4,0.000628,0.000475, 29,0.005472,-0.000035,  30.155
   151.6,0.000647,0.000492, 29,0.005574,-0.000057,  30.153
   151.8,0.000659,0.000500, 29,0.005674,-0.000071,  30.155
   152.0,0.000668,0.000509, 29,0.005781,-0.000049,  30.158
   152.2,0.000685,0.000517, 29,0.005895,-0.000063,  30.158
   152.4,0.000696,0.000527, 29,0.006038,-0.000063,  30.155
   152.6,0.000705,0.000538, 29,0.006192,-0.000063,  30.157
   152.8,0.000727,0.000551, 29,0.006359,-0.000077,  30.156
   153.0,0.000741,0.000559, 29,0.006506,-0.000077,  30.158
   153.2,0.000750,0.000570, 29,0.006645,-0.000063,  30.161
   153.4,0.000764,0.000580, 29,0.006776,-0.000063,  30.159
   153.6,0.000776,0.000592, 29,0.006923,-0.000063,  30.159
   153.8,0.000784,0.000602, 29,0.007071,-0.000063,  30.159
   154.0,0.000806,0.000615, 29,0.007224,-0.000063,  30.159
   154.2,0.000828,0.000627, 29,0.007364,-0.000063,  30.160
   154.4,0.000839,0.000638, 29,0.007495,-0.000063,  30.159
   154.6,0.000863,0.000650, 29,0.007622,-0.000049,  30.154
   154.8,0.000882,0.000662, 29,0.007773,-0.000049,  30.154
   155.0,0.000893,0.000665, 29,0.007922,-0.000049,  30.158
   155.2,0.000910,0.000674, 29,0.008094,-0.000035,  30.159
   155.4,0.000920,0.000678, 29,0.008256,-0.000022,  30.159
   155.6,0.000928,0.000682, 29,0.008402,-0.000035,  30.155
   155.8,0.000948,0.000692, 29,0.008557,-0.000035,  30.153
   156.0,0.000957,0.000703, 29,0.008697,-0.000022,  30.155
   156.2,0.000971,0.000717, 29,0.008824,-0.000035,  30.158
   156.4,0.000995,0.000732, 29,0.008940,-0.000035,  30.151
   156.6,0.001019,0.000754, 29,0.009098,-0.000022,  30.151
   156.8,0.001033,0.000766, 29,0.009283,-0.000035,  30.150
   157.0,0.001051,0.000773, 29,0.009480,-0.000035,  30.147
   157.2,0.001070,0.000786, 29,0.009642,-0.000022,  30.142
   157.4,0.001084,0.000803, 29,0.009799,-0.000022,  30.139
   157.6,0.001101,0.000815, 29,0.009955,-0.000022,  30.135
   157.8,0.001109,0.000832, 29,0.010138,-0.000022,  30.134
   158.0,0.001127,0.000844, 29,0.010334,-0.000022,  30.135
   158.2,0.001148,0.000857, 29,0.010531,-0.000022,  30.134
   158.4,0.001166,0.000866, 29,0.010685,-0.000022,  30.130
   158.6,0.001195,0.000876, 29,0.010810,-0.000022,  30.130
   158.8,0.001211,0.000890, 29,0.010911,-0.000022,  30.125
   159.0,0.001235,0.000911, 29,0.011100,-0.000022,  30.124
   159.2,0.001257,0.000928, 29,0.011308,-0.000022,  30.129
   159.4,0.001272,0.000940, 29,0.011551,-0.000022,  30.118
   159.6,0.001294,0.000958, 29,0.011745,-0.000008,  30.121
   159.8,0.001315,0.000973, 29,0.011936,-0.000008,  30.122
   160.0,0.001328,0.000985, 29,0.012121,-0.000008,  30.121
   160.2,0.001352,0.000993, 29,0.012317,-0.000008,  30.121
   160.4,0.001377,0.001007, 29,0.012503,-0.000022,  30.117
   160.6,0.001390,0.001019, 29,0.012697,-0.000022,  30.116
   160.8,0.001407,0.001034, 29,0.012892,-0.000022,  30.113
   161.0,0.001431,0.001048, 29,0.013089,-0.000057,  30.111
   161.2,0.001447,0.001058, 29,0.013279,-0.000022,  30.109
   161.4,0.001465,0.001068, 29,0.013449,-0.000057,  30.109
   161.6,0.001487,0.001079, 29,0.013609,-0.000057,  30.108
   161.8,0.001501,0.001092, 29,0.013759,-0.000022,  30.101
   162.0,0.001520,0.001115, 29,0.013896,-0.000022,  30.103
   162.2,0.001541,0.001131, 29,0.014069,-0.000008,  30.101
   162.4,0.001557,0.001141, 29,0.014246,-0.000008,  30.101
   162.6,0.001578,0.001154, 29,0.014433,0.000006,  30.096
   162.8,0.001607,0.001164, 29,0.014636,0.000006,  30.096
   163.0,0.001622,0.001179, 29,0.014844,0.000006,  30.094
   163.2,0.001629,0.001186, 29,0.015065,0.000020,  30.087
   163.4,0.001642,0.001192, 29,0.015261,0.000020,  30.085
   163.6,0.001656,0.001199, 29,0.015447,0.000020,  30.082
   163.8,0.001669,0.001203, 29,0.015626,0.000034,  30.076
   164.0,0.001694,0.001209, 29,0.015817,0.000034,  30.075
   164.2,0.001707,0.001216, 29,0.016003,0.000020,  30.071
   164.4,0.001720,0.001222, 29,0.016198,0.000034,  30.077
   164.6,0.001735,0.001231, 29,0.016353,0.000020,  30.068
   164.8,0.001750,0.001241, 29,0.016484,0.000006,  30.070
   165.0,0.001769,0.001253, 29,0.016592,0.000006,  30.070
   165.2,0.001793,0.001268, 29,0.016795,0.000006,  30.068
   165.4,0.001807,0.001281, 29,0.017029,-0.000008,  30.067
   165.6,0.001829,0.001286, 29,0.017293,0.000006,  30.060
   165.8,0.001846,0.001295, 29,0.017499,0.000006,  30.060
   166.0,0.001862,0.001306, 29,0.017695,0.000006,  30.060
   166.2,0.001872,0.001316, 29,0.017867,0.000020,  30.060
   166.4,0.001887,0.001323, 29,0.018044,0.000006,  30.055
   166.6,0.001902,0.001333, 29,0.018222,0.000006,  30.052
   166.8,0.001918,0.001346, 29,0.018395,0.000020,  30.051
   167.0,0.001944,0.001363, 29,0.018571,0.000006,  30.047
   167.2,0.001961,0.001372, 29,0.018741,0.000006,  30.049
   167.4,0.001980,0.001386, 29,0.018921,0.000020,  30.049
   167.6,0.001991,0.001397, 29,0.019131,0.000006,  30.050
   167.8,0.002005,0.001406, 29,0.019348,0.000006,  30.049
   168.0,0.002024,0.001423, 29,0.019584,0.000020,  30.050
   168.2,0.002046,0.001439, 29,0.019796,0.000006,  30.045
   168.4,0.002071,0.001449, 29,0.020000,0.000006,  30.039
   168.6,0.002085,0.001455, 29,0.020195,0.000020,  30.033
   168.8,0.002097,0.001468, 29,0.020384,0.000006,  30.029
   169.0,0.002114,0.001476, 29,0.020567,0.000006,  30.029
   169.2,0.002123,0.001477, 29,0.020737,0.000006,  30.032
   169.4,0.002130,0.001486, 29,0.020923,0.000006,  30.023
   169.6,0.002142,0.001492, 29,0.021101,-0.000008,  30.032
   169.8,0.002153,0.001501, 29,0.021273,-0.000008,  30.027
   170.0,0.002172,0.001515, 29,0.021456,0.000006,  30.026
   170.2,0.002193,0.001529, 29,0.021633,-0.000008,  30.029
   170.4,0.002204,0.001535, 29,0.021807,-0.000008,  30.024
   170.6,0.002222,0.001549, 29,0.021985,-0.000008,  30.022
   170.8,0.002233,0.001553, 29,0.022166,-0.000043,  30.026
   171.0,0.002244,0.001555, 29,0.022346,-0.000022,  30.027
   171.2,0.002262,0.001556, 29,0.022503,-0.000071,  30.023
   171.4,0.002273,0.001558, 29,0.022645,-0.000071,  30.020
   171.6,0.002287,0.001563, 29,0.022778,-0.000035,  30.020
   171.8,0.002309,0.001568, 29,0.022893,-0.000035,  30.020
   172.0,0.002328,0.001573, 29,0.023039,-0.000022,  30.022
   172.2,0.002332,0.001582, 29,0.023188,-0.000035,  30.018
   172.4,0.002350,0.001595, 29,0.023338,-0.000035,  30.015
   172.6,0.002357,0.001602, 29,0.023503,-0.000022,  30.022
   172.8,0.002361,0.001611, 29,0.023694,-0.000035,  30.017
   173.0,0.002381,0.001622, 29,0.023896,-0.000035,  30.021
   173.2,0.002400,0.001630, 29,0.024076,-0.000022,  30.015
   173.4,0.002416,0.001640, 29,0.024257,-0.000035,  30.019
   173.6,0.002437,0.001645, 29,0.024439,-0.000035,  30.015
   173.8,0.002460,0.001654, 29,0.024595,-0.000022,  30.021
   174.0,0.002479,0.001662, 29,0.024738,-0.000035,  30.014
   174.2,0.002500,0.001674, 29,0.024852,-0.000035,  30.014
   174.4,0.002524,0.001682, 29,0.024995,-0.000022,  30.014
   174.6,0.002531,0.001689, 29,0.025143,-0.000035,  30.009
   174.8,0.002548,0.001697, 29,0.025288,-0.000035,  30.008
   175.0,0.002558,0.001698, 29,0.025458,-0.000022,  30.011
   175.2,0.002567,0.001705, 29,0.025630,-0.000022,  30.007
   175.4,0.002586,0.001714, 29,0.025820,-0.000022,  30.007
   175.6,0.002603,0.001726, 29,0.025988,-0.000022,  30.008
   175.8,0.002609,0.001733, 29,0.026160,-0.000022,  30.006
   176.0,0.002624,0.001738, 29,0.026334,-0.000022,  29.998
   176.2,0.002633,0.001740, 29,0.026465,-0.000022,  29.995
   176.4,0.002640,0.001750, 29,0.026572,-0.000022,  29.997
   176.6,0.002657,0.001760, 29,0.026674,-0.000008,  29.999
   176.8,0.002671,0.001774, 29,0.026826,-0.000008,  29.994
   177.0,0.002683,0.001777, 29,0.026986,0.000006,  29.995
   177.2,0.002689,0.001778, 29,0.027162,0.000020,  29.992
   177.4,0.002704,0.001777, 29,0.027311,0.000006,  29.993
   177.6,0.002714,0.001776, 29,0.027457,0.000006,  29.985
   177.8,0.002722,0.001781, 29,0.027591,0.000006,  29.988
   178.0,0.002732,0.001787, 29,0.027735,0.000006,  29.985
   178.2,0.002747,0.001794, 29,0.027877,-0.000008,  29.986
   178.4,0.002755,0.001799, 29,0.028015,-0.000008,  29.983
   178.6,0.002773,0.001806, 29,0.028146,-0.000008,  29.982
   178.8,0.002784,0.001814, 29,0.028278,-0.000022,  29.983
   179.0,0.002799,0.001824, 29,0.028398,-0.000022,  29.980
   179.2,0.002815,0.001835, 29,0.028500,-0.000022,  29.982
   179.4,0.002835,0.001845, 29,0.028589,-0.000022,  29.983
   179.6,0.002844,0.001852, 29,0.028670,-0.000022,  29.978
   179.8,0.002862,0.001859, 29,0.028777,-0.000022,  29.977
   180.0,0.002877,0.001867, 29,0.028876,-0.000022,  29.978
   180.2,0.002888,0.001872, 29,0.028984,-0.000022,  29.975
   180.4,0.002895,0.001875, 29,0.029117,-0.000022,  29.980
   180.6,0.002906,0.001880, 29,0.029257,-0.000057,  29.980
   180.8,0.002910,0.001887, 29,0.029405,-0.000022,  29.973
   181.0,0.002917,0.001899, 29,0.029509,-0.000057,  29.974
   181.2,0.002924,0.001903, 29,0.029597,-0.000057,  29.977
   181.4,0.002928,0.001905, 29,0.029661,-0.000022,  29.975
   181.6,0.002940,0.001899, 29,0.029710,-0.000022,  29.970
   181.8,0.002945,0.001905, 29,0.029782,-0.000008,  29.971
   182.0,0.002955,0.001908, 29,0.029862,-0.000008,  29.968
   182.2,0.002964,0.001910, 29,0.029943,-0.000008,  29.970
   182.4,0.002979,0.001915, 29,0.030060,0.000006,  29.969
   182.6,0.002988,0.001921, 29,0.030184,-0.000008,  29.968
   182.8,0.002992,0.001923, 29,0.030327,-0.000008,  29.966
   183.0,0.003005,0.001928, 29,0.030435,0.000006,  29.964
   183.2,0.003019,0.001935, 29,0.030534,-0.000008,  29.960
   183.4,0.003033,0.001945, 29,0.030631,-0.000008,  29.958
   183.6,0.003050,0.001948, 29,0.030724,0.000006,  29.950
   183.8,0.003065,0.001957, 29,0.030816,-0.000008,  29.944
   184.0,0.003081,0.001957, 29,0.030900,0.000006,  29.945
   184.2,0.003098,0.001962, 29,0.030972,0.000020,  29.950
   184.4,0.003105,0.001976, 29,0.031027,0.000034,  29.947
   184.6,0.003109,0.001986, 29,0.031072,0.000047,  29.949
   184.8,0.003112,0.001998, 29,0.031160,0.000034,  29.940
   185.0,0.003117,0.002003, 29,0.031250,0.000020,  29.942
   185.2,0.003124,0.002006, 29,0.031370,0.000034,  29.943
   185.4,0.003133,0.002006, 29,0.031476,0.000034,  29.945
   185.6,0.003140,0.002007, 29,0.031581,0.000020,  29.939
   185.8,0.003147,0.002011, 29,0.031689,0.000034,  29.940
   186.0,0.003157,0.002009, 29,0.031775,0.000034,  29.940
   186.2,0.003167,0.002009, 29,0.031858,0.000020,  29.940
   186.4,0.003169,0.002012, 29,0.031924,0.000034,  29.938
   186.6,0.003176,0.002012, 29,0.031979,0.000020,  29.941
   186.8,0.003183,0.002012, 29,0.032027,0.000006,  29.940
   187.0,0.003190,0.002012, 29,0.032066,0.000020,  29.939
   187.2,0.003197,0.002016, 29,0.032132,0.000020,  29.938
   187.4,0.003204,0.002016, 29,0.032200,0.000020,  29.939
   187.6,0.003203,0.002012, 29,0.032273,0.000034,  29.940
   187.8,0.003208,0.002016, 29,0.032338,0.000034,  29.938
   188.0,0.003218,0.002012, 29,0.032406,0.000020,  29.937
   188.2,0.003223,0.002010, 29,0.032466,0.000034,  29.939
   188.4,0.003225,0.002006, 29,0.032487,0.000034,  29.939
   188.6,0.003233,0.002003, 29,0.032488,0.000020,  29.939
   188.8,0.003235,0.002004, 29,0.032477,0.000034,  29.941
   189.0,0.003232,0.001999, 29,0.032520,0.000034,  29.944
   189.2,0.003233,0.001997, 29,0.032571,0.000020,  29.947
   189.4,0.003235,0.001999, 29,0.032639,0.000034,  29.938
   189.6,0.003235,0.002000, 29,0.032678,0.000034,  29.946
   189.8,0.003237,0.001998, 29,0.032711,0.000020,  29.941
   190.0,0.003244,0.002003, 29,0.032728,0.000020,  29.944
   190.2,0.003249,0.002009, 29,0.032766,0.000020,  29.944
   190.4,0.003254,0.002009, 29,0.032807,-0.000002,  29.943
   190.6,0.003261,0.002007, 29,0.032857,0.000020,  29.942
   190.8,0.003265,0.002008, 29,0.032880,-0.000015,  29.939
   191.0,0.003265,0.002006, 29,0.032908,-0.000015,  29.947
   191.2,0.003265,0.002004, 29,0.032915,0.000006,  29.945
   191.4,0.003263,0.002004, 29,0.032921,0.000020,  29.946
   191.6,0.003256,0.002004, 29,0.032939,0.000020,  29.949
   191.8,0.003258,0.002003, 29,0.032952,0.000020,  29.947
   192.0,0.003261,0.002001, 29,0.032978,0.000034,  29.951
   192.2,0.003268,0.002001, 29,0.033008,0.000034,  29.948
   192.4,0.003272,0.002009, 29,0.033041,0.000020,  29.945
   192.6,0.003272,0.002017, 29,0.033081,0.000034,  29.944
   192.8,0.003272,0.002015, 29,0.033087,0.000034,  29.943
   193.0,0.003272,0.002012, 29,0.033083,0.000034,  29.946
   193.2,0.003268,0.002008, 29,0.033068,0.000047,  29.948
   193.4,0.003263,0.002005, 29,0.033076,0.000034,  29.946
   193.6,0.003268,0.002003, 29,0.033098,0.000020,  29.945
   193.8,0.003275,0.002000, 29,0.033125,0.000034,  29.941
   194.0,0.003284,0.002002, 29,0.033144,0.000034,  29.948
   194.2,0.003287,0.002004, 29,0.033166,0.000020,  29.946
   194.4,0.003287,0.002007, 29,0.033177,0.000034,  29.954
   194.6,0.003284,0.002013, 29,0.033184,0.000020,  29.950
   194.8,0.003280,0.002016, 29,0.033195,0.000006,  29.955
   195.0,0.003275,0.002016, 29,0.033201,0.000020,  29.953
   195.2,0.003268,0.002010, 29,0.033221,0.000020,  29.951
   195.4,0.003268,0.002006, 29,0.033240,0.000034,  29.950
   195.6,0.003272,0.002004, 29,0.033269,0.000047,  29.959
   195.8,0.003282,0.002007, 29,0.033269,0.000047,  29.957
   196.0,0.003282,0.002005, 29,0.033245,0.000047,  29.955
   196.2,0.003280,0.002000, 29,0.033212,0.000061,  29.956
   196.4,0.003277,0.002000, 29,0.033206,0.000061,  29.961
   196.6,0.003269,0.002000, 29,0.033212,0.000047,  29.963
   196.8,0.003272,0.001994, 29,0.033214,0.000061,  29.970
   197.0,0.003264,0.001994, 29,0.033216,0.000061,  29.970
   197.2,0.003272,0.001998, 29,0.033225,0.000047,  29.972
   197.4,0.003274,0.001996, 29,0.033232,0.000061,  29.969
   197.6,0.003277,0.001997, 29,0.033229,0.000061,  29.970
   197.8,0.003275,0.001990, 29,0.033218,0.000047,  29.973
   198.0,0.003275,0.001985, 29,0.033203,0.000061,  29.973
   198.2,0.003272,0.001975, 29,0.033192,0.000047,  29.980
   198.4,0.003268,0.001971, 29,0.033181,0.000034,  29.977
   198.6,0.003268,0.001969, 29,0.033153,0.000047,  29.977
   198.8,0.003262,0.001970, 29,0.033118,0.000034,  29.981
   199.0,0.003262,0.001963, 29,0.033077,0.000034,  29.979
   199.2,0.003260,0.001960, 29,0.033019,0.000047,  29.980
   199.4,0.003250,0.001956, 29,0.032969,0.000020,  29.981
   199.6,0.003248,0.001947, 29,0.032928,0.000006,  29.980
   199.8,0.003243,0.001944, 29,0.032879,0.000006,  29.986
   200.0,0.003239,0.001942, 29,0.032847,0.000006,  29.984
   200.2,0.003237,0.001934, 29,0.032831,-0.000029,  29.984
   200.4,0.003232,0.001921, 29,0.032816,0.000006,  29.982
   200.6,0.003220,0.001909, 29,0.032788,-0.000029,  29.988
   200.8,0.003213,0.001903, 29,0.032761,-0.000029,  29.987
   201.0,0.003210,0.001907, 29,0.032722,0.000020,  29.990
   201.2,0.003208,0.001911, 29,0.032678,0.000055,  29.988
   201.4,0.003211,0.001904, 29,0.032632,0.000055,  29.991
   201.6,0.003206,0.001902, 29,0.032569,0.000028,  29.991
   201.8,0.003195,0.001894, 29,0.032507,0.000063,  29.994
   202.0,0.003178,0.001883, 29,0.032466,0.000077,  29.992
   202.2,0.003173,0.001882, 29,0.032435,0.000028,  29.996
   202.4,0.003173,0.001881, 29,0.032420,0.000028,  29.997
   202.6,0.003173,0.001870, 29,0.032365,0.000041,  29.996
   202.8,0.003169,0.001865, 29,0.032297,0.000028,  29.998
   203.0,0.003157,0.001860, 29,0.032214,0.000028,  29.996
   203.2,0.003145,0.001855, 29,0.032154,0.000014,  30.001
   203.4,0.003140,0.001851, 29,0.032099,-0.000014,  29.997
   203.6,0.003131,0.001844, 29,0.032043,-0.000014,  30.001
   203.8,0.003124,0.001844, 29,0.031996,-0.000014,  30.001
   204.0,0.003121,0.001836, 29,0.031955,-0.000014,  29.999
   204.2,0.003117,0.001833, 29,0.031909,-0.000014,  30.005
   204.4,0.003114,0.001833, 29,0.031874,0.000000,  30.004
   204.6,0.003107,0.001828, 29,0.031849,0.000000,  30.002
   204.8,0.003098,0.001824, 29,0.031819,0.000000,  30.003
   205.0,0.003086,0.001817, 29,0.031777,0.000014,  30.007
   205.2,0.003079,0.001808, 29,0.031729,0.000014,  30.005
   205.4,0.003072,0.001806, 29,0.031667,0.000014,  30.009
   205.6,0.003067,0.001799, 29,0.031617,0.000014,  30.009
   205.8,0.003069,0.001794, 29,0.031569,0.000014,  30.002
   206.0,0.003069,0.001792, 29,0.031520,-0.000022,  30.001
   206.2,0.003073,0.001788, 29,0.031463,-0.000008,  30.003
   206.4,0.003066,0.001783, 29,0.031401,-0.000008,  30.002
   206.6,0.003063,0.001780, 29,0.031331,-0.000043,  29.999
   206.8,0.003054,0.001777, 29,0.031283,-0.000029,  29.999
   207.0,0.003050,0.001781, 29,0.031252,-0.000008,  29.993
   207.2,0.003042,0.001783, 29,0.031221,-0.000008,  29.994
   207.4,0.003047,0.001786, 29,0.031166,0.000006,  29.993
   207.6,0.003045,0.001784, 29,0.031100,-0.000008,  29.990
   207.8,0.003040,0.001775, 29,0.031025,-0.000008,  29.984
   208.0,0.003030,0.001767, 29,0.030955,-0.000008,  29.984
   208.2,0.003026,0.001760, 29,0.030876,-0.000022,  29.980
   208.4,0.003021,0.001759, 29,0.030796,-0.000022,  29.982
   208.6,0.003014,0.001764, 29,0.030753,-0.000008,  29.979
   208.8,0.003017,0.001759, 29,0.030730,-0.000008,  29.980
   209.0,0.003010,0.001749, 29,0.030728,0.000006,  29.981
   209.2,0.002995,0.001747, 29,0.030662,0.000006,  29.978
   209.4,0.002988,0.001742, 29,0.030587,0.000006,  29.982
   209.6,0.002984,0.001735, 29,0.030490,0.000006,  29.979
   209.8,0.002976,0.001731, 29,0.030400,0.000020,  29.984
   210.0,0.002976,0.001721, 29,0.030314,-0.000029,  29.981
   210.2,0.002967,0.001711, 29,0.030226,0.000006,  29.983
   210.4,0.002947,0.001704, 29,0.030166,-0.000029,  29.978
   210.6,0.002936,0.001691, 29,0.030129,-0.000043,  29.976
   210.8,0.002929,0.001684, 29,0.030104,-0.000008,  29.979
   211.0,0.002917,0.001681, 29,0.030096,-0.000008,  29.980
   211.2,0.002917,0.001674, 29,0.030023,-0.000008,  29.978
   211.4,0.002910,0.001669, 29,0.029926,-0.000022,  29.979
   211.6,0.002898,0.001665, 29,0.029817,-0.000022,  29.981
   211.8,0.002891,0.001657, 29,0.029751,-0.000022,  29.983
   212.0,0.002882,0.001658, 29,0.029687,-0.000022,  29.980
   212.2,0.002862,0.001651, 29,0.029634,-0.000022,  29.978
   212.4,0.002854,0.001644, 29,0.029584,-0.000022,  29.981
   212.6,0.002847,0.001640, 29,0.029550,-0.000022,  29.978
   212.8,0.002834,0.001639, 29,0.029509,-0.000022,  29.979
   213.0,0.002832,0.001635, 29,0.029442,-0.000022,  29.978
   213.2,0.002823,0.001630, 29,0.029372,-0.000035,  29.984
   213.4,0.002808,0.001621, 29,0.029290,-0.000035,  29.980
   213.6,0.002802,0.001612, 29,0.029202,-0.000022,  29.984
   213.8,0.002792,0.001602, 29,0.029113,-0.000035,  29.984
   214.0,0.002785,0.001592, 29,0.029016,-0.000035,  29.982
   214.2,0.002781,0.001586, 29,0.028943,-0.000022,  29.990
   214.4,0.002774,0.001581, 29,0.028881,-0.000022,  29.982
   214.6,0.002769,0.001584, 29,0.028828,-0.000022,  29.988
   214.8,0.002760,0.001590, 29,0.028733,-0.000022,  29.988
   215.0,0.002753,0.001585, 29,0.028615,-0.000022,  29.988
   215.2,0.002748,0.001585, 29,0.028489,-0.000022,  29.989
   215.4,0.002739,0.001579, 29,0.028411,-0.000022,  29.988
   215.6,0.002734,0.001572, 29,0.028347,-0.000035,  29.989
   215.8,0.002721,0.001563, 29,0.028289,-0.000035,  29.988
   216.0,0.002714,0.001560, 29,0.028223,-0.000022,  29.992
   216.2,0.002704,0.001560, 29,0.028159,-0.000035,  29.986
   216.4,0.002702,0.001557, 29,0.028088,-0.000035,  29.991
   216.6,0.002695,0.001557, 29,0.027999,-0.000022,  29.992
   216.8,0.002698,0.001558, 29,0.027905,-0.000035,  29.993
   217.0,0.002688,0.001553, 29,0.027797,-0.000035,  29.994
   217.2,0.002691,0.001547, 29,0.027734,-0.000022,  29.993
   217.4,0.002688,0.001540, 29,0.027697,-0.000035,  29.996
   217.6,0.002681,0.001530, 29,0.027681,-0.000035,  29.995
   217.8,0.002672,0.001528, 29,0.027599,-0.000022,  29.996
   218.0,0.002663,0.001523, 29,0.027497,-0.000022,  30.000
   218.2,0.002656,0.001512, 29,0.027375,-0.000022,  30.000
   218.4,0.002644,0.001513, 29,0.027305,-0.000022,  29.996
   218.6,0.002635,0.001510, 29,0.027239,-0.000035,  29.999
   218.8,0.002630,0.001504, 29,0.027190,-0.000035,  29.999
   219.0,0.002621,0.001503, 29,0.027141,-0.000022,  30.000
   219.2,0.002614,0.001496, 29,0.027101,-0.000022,  29.999
   219.4,0.002609,0.001488, 29,0.027077,-0.000022,  30.001
   219.6,0.002596,0.001479, 29,0.027026,-0.000022,  29.998
   219.8,0.002589,0.001470, 29,0.026968,-0.000057,  30.001
   220.0,0.002585,0.001464, 29,0.026906,-0.000022,  30.002
   220.2,0.002572,0.001461, 29,0.026852,-0.000057,  30.002
   220.4,0.002568,0.001457, 29,0.026795,-0.000057,  30.003
   220.6,0.002563,0.001462, 29,0.026755,-0.000022,  30.001
   220.8,0.002551,0.001472, 29,0.026706,-0.000022,  30.002
   221.0,0.002549,0.001469, 29,0.026639,-0.000022,  30.003
   221.2,0.002544,0.001462, 29,0.026570,-0.000022,  30.002
   221.4,0.002535,0.001452, 29,0.026487,-0.000022,  30.008
   221.6,0.002533,0.001444, 29,0.026429,-0.000008,  30.004
   221.8,0.002524,0.001445, 29,0.026371,-0.000008,  30.008
   222.0,0.002507,0.001438, 29,0.026324,-0.000008,  30.012
   222.2,0.002496,0.001431, 29,0.026255,-0.000008,  30.017
   222.4,0.002492,0.001425, 29,0.026182,-0.000022,  30.015
   222.6,0.002474,0.001416, 29,0.026102,-0.000022,  30.013
   222.8,0.002471,0.001416, 29,0.026026,-0.000022,  30.015
   223.0,0.002467,0.001412, 29,0.025938,-0.000022,  30.017
   223.2,0.002456,0.001414, 29,0.025853,-0.000022,  30.017
   223.4,0.002452,0.001418, 29,0.025789,-0.000008,  30.020
   223.6,0.002443,0.001411, 29,0.025736,-0.000008,  30.016
   223.8,0.002436,0.001400, 29,0.025689,-0.000008,  30.016
   224.0,0.002430,0.001396, 29,0.025637,0.000006,  30.019
   224.2,0.002425,0.001389, 29,0.025590,-0.000008,  30.018
   224.4,0.002418,0.001386, 29,0.025535,-0.000008,  30.020
   224.6,0.002413,0.001384, 29,0.025477,0.000006,  30.018
   224.8,0.002406,0.001373, 29,0.025418,-0.000008,  30.023
   225.0,0.002397,0.001369, 29,0.025347,-0.000008,  30.022
   225.2,0.002382,0.001364, 29,0.025262,0.000006,  30.023
   225.4,0.002378,0.001359, 29,0.025165,-0.000008,  30.023
   225.6,0.002373,0.001360, 29,0.025055,-0.000008,  30.020
   225.8,0.002371,0.001366, 29,0.024979,0.000006,  30.023
   226.0,0.002366,0.001366, 29,0.024915,-0.000008,  30.024
   226.2,0.002353,0.001364, 29,0.024863,-0.000008,  30.024
   226.4,0.002349,0.001361, 29,0.024817,0.000006,  30.021
   226.6,0.002345,0.001358, 29,0.024779,-0.000008,  30.025
   226.8,0.002338,0.001353, 29,0.024743,-0.000008,  30.022
   227.0,0.002326,0.001347, 29,0.024649,-0.000008,  30.022
   227.2,0.002319,0.001344, 29,0.024539,-0.000022,  30.023
   227.4,0.002312,0.001342, 29,0.024399,-0.000022,  30.019
   227.6,0.002300,0.001341, 29,0.024330,-0.000008,  30.015
   227.8,0.002296,0.001336, 29,0.024296,-0.000008,  30.014
   228.0,0.002291,0.001331, 29,0.024288,-0.000008,  30.019
   228.2,0.002279,0.001329, 29,0.024236,0.000006,  30.018
   228.4,0.002279,0.001324, 29,0.024176,-0.000008,  30.018
   228.6,0.002272,0.001320, 29,0.024113,-0.000008,  30.019
   228.8,0.002257,0.001323, 29,0.024057,0.000006,  30.014
   229.0,0.002253,0.001312, 29,0.023993,-0.000008,  30.016
   229.2,0.002249,0.001297, 29,0.023928,-0.000008,  30.017
   229.4,0.002239,0.001287, 29,0.023891,0.000006,  30.022
   229.6,0.002239,0.001277, 29,0.023866,-0.000029,  30.013
   229.8,0.002232,0.001277, 29,0.023839,0.000006,  30.008
   230.0,0.002217,0.001281, 29,0.023803,-0.000029,  30.010
   230.2,0.002211,0.001279, 29,0.023761,-0.000029,  30.007
   230.4,0.002204,0.001271, 29,0.023722,0.000006,  29.996
   230.6,0.002189,0.001269, 29,0.023667,0.000020,  30.003
   230.8,0.002185,0.001268, 29,0.023577,0.000020,  29.998
   231.0,0.002180,0.001259, 29,0.023459,0.000020,  29.997
   231.2,0.002170,0.001257, 29,0.023324,0.000034,  29.997
   231.4,0.002173,0.001252, 29,0.023265,0.000034,  29.996
   231.6,0.002169,0.001240, 29,0.023225,0.000020,  29.990
   231.8,0.002153,0.001234, 29,0.023212,0.000034,  29.990
   232.0,0.002151,0.001225, 29,0.023165,0.000034,  29.991
   232.2,0.002144,0.001214, 29,0.023122,0.000020,  29.990
   232.4,0.002126,0.001205, 29,0.023068,0.000034,  29.989
   232.6,0.002120,0.001201, 29,0.023018,0.000020,  29.989
   232.8,0.002113,0.001199, 29,0.022981,0.000006,  29.981
   233.0,0.002098,0.001200, 29,0.022936,0.000020,  29.984
   233.2,0.002092,0.001209, 29,0.022861,0.000020,  29.981
   233.4,0.002082,0.001208, 29,0.022771,0.000020,  29.982
   233.6,0.002067,0.001202, 29,0.022669,0.000034,  29.981
   233.8,0.002061,0.001189, 29,0.022566,0.000020,  29.978
   234.0,0.002054,0.001185, 29,0.022457,0.000006,  29.978
   234.2,0.002039,0.001180, 29,0.022332,0.000020,  29.982
   234.4,0.002038,0.001178, 29,0.022281,0.000006,  29.978
   234.6,0.002030,0.001174, 29,0.022270,0.000006,  29.975
   234.8,0.002016,0.001168, 29,0.022284,0.000006,  29.976
   235.0,0.002009,0.001157, 29,0.022228,0.000006,  29.975
   235.2,0.001997,0.001153, 29,0.022158,-0.000008,  29.976
   235.4,0.001978,0.001146, 29,0.022079,0.000006,  29.976
   235.6,0.001967,0.001138, 29,0.022023,0.000006,  29.975
   235.8,0.001960,0.001134, 29,0.021966,0.000006,  29.971
   236.0,0.001948,0.001131, 29,0.021919,0.000020,  29.978
   236.2,0.001946,0.001125, 29,0.021874,0.000006,  29.977
   236.4,0.001939,0.001120, 29,0.021827,0.000006,  29.973
   236.6,0.001932,0.001120, 29,0.021780,0.000020,  29.976
   236.8,0.001925,0.001123, 29,0.021728,0.000006,  29.976
   237.0,0.001918,0.001116, 29,0.021674,0.000006,  29.980
   237.2,0.001916,0.001110, 29,0.021606,0.000020,  29.979
   237.4,0.001909,0.001105, 29,0.021522,0.000006,  29.979
   237.6,0.001904,0.001096, 29,0.021420,0.000006,  29.979
   237.8,0.001899,0.001091, 29,0.021311,0.000006,  29.986
   238.0,0.001895,0.001090, 29,0.021241,-0.000008,  29.976
   238.2,0.001885,0.001087, 29,0.021178,-0.000022,  29.983
   238.4,0.001876,0.001082, 29,0.021137,-0.000022,  29.980
   238.6,0.001866,0.001078, 29,0.021097,-0.000008,  29.982
   238.8,0.001852,0.001071, 29,0.021058,-0.000008,  29.985
   239.0,0.001847,0.001065, 29,0.021027,-0.000008,  29.984
   239.2,0.001845,0.001052, 29,0.020982,0.000006,  29.984
   239.4,0.001843,0.001047, 29,0.020934,-0.000043,  29.983
   239.6,0.001833,0.001047, 29,0.020871,-0.000008,  29.986
   239.8,0.001824,0.001047, 29,0.020810,-0.000043,  29.988
   240.0,0.001805,0.001038, 29,0.020744,-0.000043,  29.992
   240.2,0.001796,0.001031, 29,0.020676,-0.000022,  29.987
   240.4,0.001791,0.001021, 29,0.020602,-0.000022,  29.990
   240.6,0.001784,0.001012, 29,0.020553,-0.000008,  29.984
   240.8,0.001777,0.001008, 29,0.020507,-0.000008,  29.988
   241.0,0.001770,0.001001, 29,0.020462,-0.000008,  29.986
   241.2,0.001758,0.000996, 29,0.020420,0.000006,  29.986
   241.4,0.001748,0.000994, 29,0.020374,-0.000008,  29.988
   241.6,0.001741,0.000994, 29,0.020331,-0.000008,  29.985
   241.8,0.001730,0.000990, 29,0.020279,0.000006,  29.986
   242.0,0.001725,0.000988, 29,0.020220,-0.000008,  29.985
   242.2,0.001723,0.000983, 29,0.020154,-0.000008,  29.989
   242.4,0.001720,0.000978, 29,0.020091,-0.000008,  29.986
   242.6,0.001716,0.000975, 29,0.020032,-0.000022,  29.987
   242.8,0.001705,0.000972, 29,0.019977,-0.000022,  29.987
   243.0,0.001694,0.000973, 29,0.019912,-0.000022,  29.989
   243.2,0.001687,0.000969, 29,0.019846,-0.000022,  29.984
   243.4,0.001679,0.000967, 29,0.019788,-0.000022,  29.985
   243.6,0.001673,0.000963, 29,0.019722,-0.000022,  29.983
   243.8,0.001666,0.000956, 29,0.019645,-0.000022,  29.980
   244.0,0.001661,0.000949, 29,0.019572,-0.000022,  29.984
   244.2,0.001652,0.000943, 29,0.019524,-0.000022,  29.980
   244.4,0.001650,0.000935, 29,0.019477,-0.000022,  29.982
   244.6,0.001650,0.000935, 29,0.019447,0.000000,  29.974
   244.8,0.001650,0.000942, 29,0.019381,-0.000014,  29.974
   245.0,0.001647,0.000934, 29,0.019287,-0.000028,  29.975
   245.2,0.001645,0.000925, 29,0.019191,0.000008,  29.975
   245.4,0.001640,0.000925, 29,0.019153,0.000022,  29.973
   245.6,0.001633,0.000923, 29,0.019130,0.000000,  29.970
   245.8,0.001623,0.000917, 29,0.019133,-0.000022,  29.972
   246.0,0.001619,0.000910, 29,0.019121,-0.000008,  29.967
   246.2,0.001615,0.000911, 29,0.019108,-0.000035,  29.970
   246.4,0.001613,0.000909, 29,0.019090,-0.000071,  29.968
   246.6,0.001608,0.000905, 29,0.019066,-0.000043,  29.966
   246.8,0.001606,0.000901, 29,0.019047,-0.000008,  29.962
   247.0,0.001606,0.000906, 29,0.019011,0.000006,  29.963
   247.2,0.001598,0.000915, 29,0.018957,0.000006,  29.964
   247.4,0.001600,0.000911, 29,0.018890,0.000006,  29.958
   247.6,0.001598,0.000909, 29,0.018806,0.000006,  29.965
   247.8,0.001588,0.000906, 29,0.018758,0.000006,  29.966
   248.0,0.001579,0.000905, 29,0.018721,-0.000008,  29.962
   248.2,0.001577,0.000898, 29,0.018689,-0.000008,  29.964
   248.4,0.001570,0.000892, 29,0.018634,0.000006,  29.963
   248.6,0.001565,0.000886, 29,0.018571,-0.000008,  29.957
   248.8,0.001562,0.000888, 29,0.018497,-0.000008,  29.955
   249.0,0.001560,0.000889, 29,0.018460,0.000006,  29.958
   249.2,0.001555,0.000882, 29,0.018435,-0.000043,  29.960
   249.4,0.001546,0.000874, 29,0.018417,-0.000008,  29.962
   249.6,0.001532,0.000864, 29,0.018374,-0.000043,  29.962
   249.8,0.001513,0.000862, 29,0.018322,-0.000043,  29.959
   250.0,0.001508,0.000858, 29,0.018267,-0.000022,  29.960
   250.2,0.001504,0.000860, 29,0.018207,-0.000022,  29.965
   250.4,0.001501,0.000855, 29,0.018165,-0.000022,  29.970
   250.6,0.001494,0.000846, 29,0.018117,-0.000022,  29.966
   250.8,0.001487,0.000838, 29,0.018079,-0.000022,  29.967
   251.0,0.001478,0.000830, 29,0.018054,-0.000022,  29.965
   251.2,0.001471,0.000820, 29,0.018032,-0.000022,  29.970
   251.4,0.001466,0.000809, 29,0.018016,-0.000022,  29.966
   251.6,0.001467,0.000811, 29,0.017991,-0.000022,  29.967
   251.8,0.001462,0.000813, 29,0.017955,-0.000022,  29.970
   252.0,0.001452,0.000815, 29,0.017913,-0.000022,  29.972
   252.2,0.001440,0.000813, 29,0.017831,-0.000022,  29.973
   252.4,0.001431,0.000811, 29,0.017725,-0.000022,  29.972
   252.6,0.001424,0.000804, 29,0.017592,-0.000022,  29.976
   252.8,0.001412,0.000799, 29,0.017526,-0.000022,  29.977
   253.0,0.001407,0.000793, 29,0.017485,-0.000022,  29.981
   253.2,0.001405,0.000795, 29,0.017455,-0.000022,  29.978
   253.4,0.001402,0.000797, 29,0.017400,-0.000022,  29.979
   253.6,0.001400,0.000795, 29,0.017344,-0.000022,  29.984
   253.8,0.001398,0.000788, 29,0.017280,-0.000022,  29.983
   254.0,0.001393,0.000785, 29,0.017250,-0.000022,  29.987
   254.2,0.001386,0.000786, 29,0.017241,-0.000035,  29.982
   254.4,0.001379,0.000777, 29,0.017240,-0.000035,  29.981
   254.6,0.001372,0.000774, 29,0.017244,-0.000022,  29.984
   254.8,0.001365,0.000771, 29,0.017238,-0.000022,  29.981
   255.0,0.001358,0.000767, 29,0.017246,-0.000022,  29.985
   255.2,0.001356,0.000759, 29,0.017235,-0.000022,  29.986
   255.4,0.001354,0.000753, 29,0.017221,-0.000022,  29.984
   255.6,0.001346,0.000754, 29,0.017192,-0.000022,  29.988
   255.8,0.001349,0.000757, 29,0.017164,-0.000022,  29.985
   256.0,0.001344,0.000753, 29,0.017132,-0.000035,  29.980
   256.2,0.001334,0.000749, 29,0.017093,-0.000035,  29.984
   256.4,0.001335,0.000746, 29,0.017033,-0.000022,  29.982
   256.6,0.001328,0.000745, 29,0.016958,-0.000035,  29.982
   256.8,0.001323,0.000741, 29,0.016861,-0.000035,  29.984
   257.0,0.001316,0.000737, 29,0.016820,-0.000022,  29.983
   257.2,0.001309,0.000739, 29,0.016810,-0.000022,  29.983
   257.4,0.001307,0.000738, 29,0.016802,-0.000022,  29.981
   257.6,0.001297,0.000735, 29,0.016749,-0.000022,  29.983
   257.8,0.001297,0.000730, 29,0.016682,-0.000022,  29.986
   258.0,0.001293,0.000725, 29,0.016597,-0.000022,  29.986
   258.2,0.001282,0.000714, 29,0.016560,-0.000022,  29.985
   258.4,0.001273,0.000709, 29,0.016532,-0.000035,  29.983
   258.6,0.001268,0.000705, 29,0.016517,-0.000035,  29.983
   258.8,0.001267,0.000704, 29,0.016498,-0.000022,  29.986
   259.0,0.001267,0.000702, 29,0.016482,-0.000071,  29.984
   259.2,0.001260,0.000699, 29,0.016462,-0.000035,  29.988
   259.4,0.001249,0.000694, 29,0.016439,-0.000071,  29.983
   259.6,0.001237,0.000695, 29,0.016423,-0.000071,  29.985
   259.8,0.001230,0.000693, 29,0.016403,-0.000035,  29.985
   260.0,0.001227,0.000696, 29,0.016384,-0.000035,  29.986
   260.2,0.001223,0.000696, 29,0.016357,-0.000022,  29.987
   260.4,0.001220,0.000692, 29,0.016341,-0.000035,  29.986
   260.6,0.001215,0.000688, 29,0.016313,-0.000035,  29.989
   260.8,0.001213,0.000684, 29,0.016270,-0.000022,  29.991
   261.0,0.001208,0.000674, 29,0.016223,-0.000035,  29.991
   261.2,0.001198,0.000667, 29,0.016167,-0.000035,  29.991
   261.4,0.001194,0.000665, 29,0.016140,-0.000022,  29.992
   261.6,0.001191,0.000663, 29,0.016117,-0.000022,  29.993
   261.8,0.001186,0.000669, 29,0.016108,-0.000022,  29.993
   262.0,0.001194,0.000669, 29,0.016094,-0.000022,  29.995
   262.2,0.001191,0.000666, 29,0.016079,-0.000022,  29.995
   262.4,0.001181,0.000668, 29,0.016067,-0.000022,  29.994
   262.6,0.001182,0.000668, 29,0.016033,-0.000022,  29.994
   262.8,0.001177,0.000661, 29,0.015988,-0.000022,  29.997
   263.0,0.001162,0.000660, 29,0.015930,-0.000022,  29.995
   263.2,0.001161,0.000657, 29,0.015910,-0.000022,  29.998
   263.4,0.001158,0.000657, 29,0.015906,-0.000035,  30.000
   263.6,0.001148,0.000655, 29,0.015908,-0.000035,  29.995
   263.8,0.001151,0.000646, 29,0.015906,-0.000022,  29.998
   264.0,0.001157,0.000644, 29,0.015907,-0.000035,  29.992
   264.2,0.001155,0.000647, 29,0.015904,-0.000035,  29.994
   264.4,0.001158,0.000651, 29,0.015905,-0.000022,  29.998
   264.6,0.001161,0.000651, 29,0.015898,-0.000035,  29.998
   264.8,0.001156,0.000652, 29,0.015893,-0.000035,  29.999
   265.0,0.001146,0.000647, 29,0.015882,-0.000022,  29.999
   265.2,0.001138,0.000645, 29,0.015857,-0.000035,  29.999
   265.4,0.001133,0.000640, 29,0.015824,-0.000035,  29.995
   265.6,0.001131,0.000633, 29,0.015809,-0.000022,  29.993
   265.8,0.001129,0.000628, 29,0.015806,-0.000035,  29.990
   266.0,0.001126,0.000629, 29,0.015797,-0.000035,  29.990
   266.2,0.001119,0.000637, 29,0.015753,-0.000008,  29.992
   266.4,0.001119,0.000631, 29,0.015698,-0.000008,  29.994
   266.6,0.001119,0.000634, 29,0.015617,-0.000008,  29.985
   266.8,0.001111,0.000636, 29,0.015603,0.000006,  29.988
   267.0,0.001109,0.000632, 29,0.015610,-0.000008,  29.985
   267.2,0.001104,0.000631, 29,0.015635,-0.000008,  29.993
   267.4,0.001100,0.000632, 29,0.015626,0.000006,  29.990
   267.6,0.001096,0.000625, 29,0.015611,-0.000008,  29.991
   267.8,0.001093,0.000622, 29,0.015597,-0.000008,  29.989
   268.0,0.001091,0.000618, 29,0.015569,0.000006,  29.989
   268.2,0.001089,0.000610, 29,0.015530,-0.000008,  29.988
   268.4,0.001089,0.000607, 29,0.015490,-0.000008,  29.988
   268.6,0.001091,0.000604, 29,0.015469,0.000006,  29.987
   268.8,0.001091,0.000602, 29,0.015451,-0.000043,  29.985
   269.0,0.001089,0.000602, 29,0.015437,-0.000008,  29.984
   269.2,0.001081,0.000607, 29,0.015428,-0.000043,  29.987
   269.4,0.001076,0.000599, 29,0.015433,-0.000043,  29.988
   269.6,0.001071,0.000596, 29,0.015428,-0.000008,  29.987
   269.8,0.001060,0.000585, 29,0.015438,-0.000008,  29.988
   270.0,0.001056,0.000580, 29,0.015406,-0.000008,  29.986
   270.2,0.001051,0.000580, 29,0.015361,-0.000022,  29.987
   270.4,0.001042,0.000580, 29,0.015304,-0.000022,  29.987
   270.6,0.001035,0.000576, 29,0.015301,-0.000022,  29.987
   270.8,0.001035,0.000579, 29,0.015309,-0.000022,  29.995
   271.0,0.001035,0.000585, 29,0.015330,-0.000022,  29.992
   271.2,0.001039,0.000581, 29,0.015337,-0.000022,  29.993
   271.4,0.001042,0.000581, 29,0.015328,-0.000022,  29.990
   271.6,0.001034,0.000581, 29,0.015319,-0.000022,  29.994
   271.8,0.001032,0.000581, 29,0.015321,-0.000022,  29.996
   272.0,0.001032,0.000583, 29,0.015308,-0.000022,  29.997
   272.2,0.001026,0.000578, 29,0.015299,-0.000022,  29.998
   272.4,0.001027,0.000579, 29,0.015280,-0.000022,  29.998
   272.6,0.001024,0.000577, 29,0.015250,-0.000022,  29.997
   272.8,0.001014,0.000573, 29,0.015215,-0.000022,  29.995
   273.0,0.001010,0.000572, 29,0.015194,-0.000022,  29.995
   273.2,0.001008,0.000570, 29,0.015176,-0.000022,  29.999
   273.4,0.001003,0.000570, 29,0.015162,-0.000022,  30.000
   273.6,0.001006,0.000569, 29,0.015153,-0.000022,  30.004
   273.8,0.001006,0.000560, 29,0.015151,-0.000035,  30.004
   274.0,0.001000,0.000556, 29,0.015148,-0.000035,  30.002
   274.2,0.001001,0.000549, 29,0.015139,-0.000022,  30.001
   274.4,0.000999,0.000547, 29,0.015139,-0.000035,  30.001
   274.6,0.000991,0.000546, 29,0.015133,-0.000035,  30.000
   274.8,0.000989,0.000548, 29,0.015124,-0.000022,  30.005
   275.0,0.000989,0.000552, 29,0.015128,-0.000035,  30.010
   275.2,0.000986,0.000559, 29,0.015133,-0.000035,  30.013
   275.4,0.000992,0.000567, 29,0.015130,-0.000022,  30.011
   275.6,0.000994,0.000566, 29,0.015130,-0.000035,  30.012
   275.8,0.000994,0.000564, 29,0.015121,-0.000035,  30.012
   276.0,0.000992,0.000560, 29,0.015091,-0.000022,  30.012
   276.2,0.000981,0.000556, 29,0.015038,-0.000035,  30.013
   276.4,0.000979,0.000546, 29,0.014967,-0.000035,  30.012
   276.6,0.000975,0.000535, 29,0.014952,-0.000022,  30.012
   276.8,0.000971,0.000529, 29,0.014954,-0.000035,  30.011
   277.0,0.000971,0.000531, 29,0.014971,-0.000035,  30.010
   277.2,0.000973,0.000538, 29,0.014950,-0.000022,  30.012
   277.4,0.000978,0.000531, 29,0.014912,-0.000035,  30.011
   277.6,0.000973,0.000532, 29,0.014859,-0.000035,  30.005
   277.8,0.000964,0.000528, 29,0.014848,-0.000035,  30.007
   278.0,0.000948,0.000524, 29,0.014848,-0.000049,  30.005
   278.2,0.000943,0.000527, 29,0.014866,-0.000049,  30.003
   278.4,0.000941,0.000527, 29,0.014850,-0.000035,  30.000
   278.6,0.000938,0.000523, 29,0.014822,-0.000084,  29.995
   278.8,0.000936,0.000522, 29,0.014791,-0.000035,  29.998
   279.0,0.000930,0.000518, 29,0.014791,-0.000057,  29.997
   279.2,0.000933,0.000514, 29,0.014799,-0.000057,  29.998
   279.4,0.000933,0.000514, 29,0.014827,-0.000035,  29.995
   279.6,0.000927,0.000514, 29,0.014853,-0.000035,  29.994
   279.8,0.000933,0.000512, 29,0.014856,-0.000022,  29.991
   280.0,0.000933,0.000507, 29,0.014862,-0.000035,  29.990
   280.2,0.000925,0.000504, 29,0.014853,-0.000035,  29.991
   280.4,0.000928,0.000502, 29,0.014870,-0.000022,  29.986
   280.6,0.000930,0.000501, 29,0.014884,-0.000035,  29.984
   280.8,0.000923,0.000505, 29,0.014902,-0.000035,  29.983
   281.0,0.000926,0.000506, 29,0.014903,-0.000022,  29.983
   281.2,0.000926,0.000509, 29,0.014903,-0.000035,  29.980
   281.4,0.000926,0.000514, 29,0.014891,-0.000035,  29.979
   281.6,0.000926,0.000513, 29,0.014887,-0.000022,  29.981
   281.8,0.000924,0.000513, 29,0.014887,-0.000022,  29.981
   282.0,0.000922,0.000513, 29,0.014893,-0.000022,  29.978
   282.2,0.000917,0.000517, 29,0.014877,-0.000022,  29.977
   282.4,0.000917,0.000517, 29,0.014858,-0.000022,  29.980
   282.6,0.000917,0.000517, 29,0.014817,-0.000022,  29.978
   282.8,0.000919,0.000515, 29,0.014789,-0.000022,  29.974
   283.0,0.000917,0.000508, 29,0.014770,-0.000035,  29.975
   283.2,0.000912,0.000501, 29,0.014740,-0.000035,  29.976
   283.4,0.000903,0.000489, 29,0.014735,-0.000022,  29.977
   283.6,0.000898,0.000484, 29,0.014738,-0.000035,  29.974
   283.8,0.000890,0.000486, 29,0.014752,-0.000035,  29.977
   284.0,0.000890,0.000484, 29,0.014712,-0.000022,  29.976
   284.2,0.000886,0.000477, 29,0.014642,-0.000035,  29.975
   284.4,0.000878,0.000477, 29,0.014556,-0.000035,  29.976
   284.6,0.000879,0.000472, 29,0.014546,-0.000022,  29.969
   284.8,0.000879,0.000470, 29,0.014558,-0.000035,  29.969
   285.0,0.000879,0.000475, 29,0.014591,-0.000035,  29.968
   285.2,0.000879,0.000484, 29,0.014613,-0.000035,  29.964
   285.4,0.000884,0.000482, 29,0.014648,-0.000049,  29.969
   285.6,0.000884,0.000480, 29,0.014685,-0.000049,  29.969
   285.8,0.000874,0.000480, 29,0.014704,-0.000049,  29.968
   286.0,0.000872,0.000476, 29,0.014720,-0.000049,  29.967
   286.2,0.000872,0.000476, 29,0.014715,-0.000049,  29.965
   286.4,0.000869,0.000476, 29,0.014721,-0.000049,  29.962
   286.6,0.000876,0.000476, 29,0.014732,-0.000049,  29.964
   286.8,0.000876,0.000478, 29,0.014737,-0.000049,  29.964
   287.0,0.000876,0.000482, 29,0.014734,-0.000049,  29.963
   287.2,0.000882,0.000477, 29,0.014721,-0.000049,  29.956
   287.4,0.000882,0.000478, 29,0.014713,-0.000049,  29.961
   287.6,0.000882,0.000479, 29,0.014697,-0.000049,  29.958
   287.8,0.000879,0.000481, 29,0.014685,-0.000049,  29.957
   288.0,0.000879,0.000484, 29,0.014669,-0.000049,  29.956
   288.2,0.000879,0.000496, 29,0.014680,-0.000049,  29.956
   288.4,0.000877,0.000494, 29,0.014689,-0.000084,  29.954
   288.6,0.000877,0.000489, 29,0.014720,-0.000049,  29.955
   288.8,0.000879,0.000480, 29,0.014733,-0.000071,  29.950
   289.0,0.000879,0.000478, 29,0.014748,-0.000071,  29.950
   289.2,0.000879,0.000479, 29,0.014746,-0.000035,  29.949
   289.4,0.000882,0.000479, 29,0.014752,-0.000035,  29.945
   289.6,0.000882,0.000479, 29,0.014724,-0.000022,  29.943
   289.8,0.000879,0.000486, 29,0.014694,-0.000035,  29.940
   290.0,0.000875,0.000493, 29,0.014649,-0.000035,  29.939
   290.2,0.000868,0.000489, 29,0.014667,-0.000022,  29.936
   290.4,0.000868,0.000488, 29,0.014712,-0.000035,  29.932
   290.6,0.000868,0.000485, 29,0.014782,-0.000035,  29.931
   290.8,0.000868,0.000479, 29,0.014823,-0.000022,  29.931
   291.0,0.000875,0.000476, 29,0.014856,-0.000035,  29.936
   291.2,0.000878,0.000476, 29,0.014879,-0.000035,  29.932
   291.4,0.000878,0.000474, 29,0.014861,-0.000022,  29.923
   291.6,0.000880,0.000471, 29,0.014827,-0.000035,  29.923
   291.8,0.000878,0.000473, 29,0.014760,-0.000035,  29.914
   292.0,0.000870,0.000473, 29,0.014755,-0.000022,  29.913
   292.2,0.000865,0.000473, 29,0.014767,-0.000022,  29.913
   292.4,0.000860,0.000472, 29,0.014797,-0.000022,  29.904
   292.6,0.000861,0.000472, 29,0.014821,-0.000022,  29.899
   292.8,0.000858,0.000467, 29,0.014851,-0.000022,  29.893
   293.0,0.000856,0.000467, 29,0.014890,-0.000022,  29.895
   293.2,0.000851,0.000463, 29,0.014909,-0.000022,  29.895
   293.4,0.000856,0.000461, 29,0.014921,-0.000022,  29.893
   293.6,0.000853,0.000460, 29,0.014930,-0.000022,  29.893
   293.8,0.000860,0.000458, 29,0.014918,-0.000022,  29.890
   294.0,0.000862,0.000454, 29,0.014883,-0.000022,  29.889
   294.2,0.000854,0.000453, 29,0.014830,-0.000022,  29.889
   294.4,0.000847,0.000453, 29,0.014813,-0.000035,  29.883
   294.6,0.000845,0.000449, 29,0.014806,-0.000049,  29.886
   294.8,0.000843,0.000448, 29,0.014804,-0.000049,  29.882
   295.0,0.000841,0.000446, 29,0.014813,-0.000035,  29.886
   295.2,0.000839,0.000444, 29,0.014837,-0.000022,  29.882
   295.4,0.000831,0.000448, 29,0.014881,-0.000022,  29.887
   295.6,0.000834,0.000454, 29,0.014895,-0.000022,  29.886
   295.8,0.000832,0.000447, 29,0.014902,-0.000035,  29.885
   296.0,0.000834,0.000442, 29,0.014907,-0.000035,  29.880
   296.2,0.000832,0.000440, 29,0.014914,-0.000022,  29.885
   296.4,0.000832,0.000440, 29,0.014925,-0.000022,  29.885
   296.6,0.000832,0.000441, 29,0.014930,-0.000022,  29.883
   296.8,0.000829,0.000450, 29,0.014932,-0.000022,  29.879
   297.0,0.000832,0.000449, 29,0.014932,-0.000035,  29.882
   297.2,0.000829,0.000453, 29,0.014930,-0.000035,  29.885
   297.4,0.000822,0.000451, 29,0.014932,-0.000022,  29.880
   297.6,0.000822,0.000449, 29,0.014932,-0.000035,  29.885
   297.8,0.000822,0.000451, 29,0.014935,-0.000035,  29.878
   298.0,0.000812,0.000452, 29,0.014937,-0.000022,  29.877
   298.2,0.000818,0.000450, 29,0.014937,-0.000071,  29.881
   298.4,0.000815,0.000455, 29,0.014941,-0.000035,  29.878
   298.6,0.000805,0.000460, 29,0.014946,-0.000057,  29.880
   298.8,0.000804,0.000457, 29,0.014955,-0.000057,  29.877
   299.0,0.000804,0.000454, 29,0.014964,-0.000022,  29.873
   299.2,0.000798,0.000445, 29,0.014971,-0.000022,  29.877
   299.4,0.000806,0.000441, 29,0.014948,-0.000022,  29.876
   299.6,0.000811,0.000447, 29,0.014916,-0.000022,  29.877
   299.8,0.000812,0.000454, 29,0.014869,-0.000022,  29.879
   300.0,0.000827,0.000451, 29,0.014862,-0.000022,  29.879
   300.2,0.000829,0.000444, 29,0.014862,-0.000022,  29.880
   300.4,0.000822,0.000438, 29,0.014878,-0.000022,  29.880
   300.6,0.000822,0.000436, 29,0.014882,-0.000022,  29.880
   300.8,0.000825,0.000445, 29,0.014882,-0.000035,  29.877
   301.0,0.000819,0.000451, 29,0.014871,-0.000035,  29.878
   301.2,0.000825,0.000447, 29,0.014850,-0.000022,  29.877
   301.4,0.000822,0.000447, 29,0.014822,-0.000035,  29.878
   301.6,0.000810,0.000444, 29,0.014791,-0.000035,  29.882
   301.8,0.000804,0.000445, 29,0.014815,-0.000035,  29.879
   302.0,0.000804,0.000444, 29,0.014852,-0.000049,  29.884
   302.2,0.000796,0.000451, 29,0.014918,-0.000049,  29.886
   302.4,0.000801,0.000457, 29,0.014938,-0.000049,  29.889
   302.6,0.000801,0.000457, 29,0.014950,-0.000049,  29.889
   302.8,0.000793,0.000446, 29,0.014944,-0.000049,  29.893
   303.0,0.000794,0.000441, 29,0.014920,-0.000049,  29.890
   303.2,0.000792,0.000436, 29,0.014878,-0.000049,  29.888
   303.4,0.000787,0.000432, 29,0.014817,-0.000063,  29.888
   303.6,0.000785,0.000432, 29,0.014817,-0.000063,  29.892
   303.8,0.000790,0.000430, 29,0.014826,-0.000063,  29.893
   304.0,0.000787,0.000429, 29,0.014852,-0.000077,  29.894
   304.2,0.000796,0.000429, 29,0.014874,-0.000077,  29.895
   304.4,0.000796,0.000425, 29,0.014894,-0.000063,  29.893
   304.6,0.000791,0.000425, 29,0.014922,-0.000049,  29.892
   304.8,0.000792,0.000423, 29,0.014930,-0.000049,  29.892
   305.0,0.000785,0.000423, 29,0.014941,-0.000049,  29.895
   305.2,0.000780,0.000420, 29,0.014944,-0.000035,  29.894
   305.4,0.000775,0.000419, 29,0.014944,-0.000035,  29.896
   305.6,0.000771,0.000420, 29,0.014936,-0.000049,  29.898
   305.8,0.000773,0.000420, 29,0.014922,-0.000049,  29.900
   306.0,0.000770,0.000417, 29,0.014917,-0.000049,  29.902
   306.2,0.000780,0.000415, 29,0.014917,-0.000049,  29.900
   306.4,0.000782,0.000413, 29,0.014912,-0.000049,  29.902
   306.6,0.000771,0.000417, 29,0.014912,-0.000049,  29.902
   306.8,0.000771,0.000417, 29,0.014908,-0.000049,  29.898
   307.0,0.000774,0.000414, 29,0.014908,-0.000063,  29.896
   307.2,0.000769,0.000412, 29,0.014924,-0.000063,  29.899
   307.4,0.000775,0.000406, 29,0.014922,-0.000063,  29.898
   307.6,0.000773,0.000406, 29,0.014932,-0.000063,  29.901
   307.8,0.000760,0.000402, 29,0.014943,-0.000063,  29.902
   308.0,0.000759,0.000398, 29,0.014939,-0.000084,  29.903
   308.2,0.000757,0.000401, 29,0.014943,-0.000063,  29.903
   308.4,0.000746,0.000405, 29,0.014950,-0.000084,  29.897
   308.6,0.000747,0.000403, 29,0.014971,-0.000084,  29.903
   308.8,0.000747,0.000401, 29,0.014980,-0.000063,  29.901
   309.0,0.000744,0.000403, 29,0.015006,-0.000063,  29.901
   309.2,0.000749,0.000401, 29,0.014966,-0.000063,  29.903
   309.4,0.000752,0.000398, 29,0.014905,-0.000077,  29.903
   309.6,0.000746,0.000400, 29,0.014830,-0.000063,  29.903
   309.8,0.000754,0.000398, 29,0.014847,-0.000063,  29.908
   310.0,0.000757,0.000396, 29,0.014896,-0.000063,  29.909
   310.2,0.000749,0.000400, 29,0.014994,-0.000049,  29.911
   310.4,0.000749,0.000399, 29,0.015035,-0.000049,  29.905
   310.6,0.000753,0.000403, 29,0.015063,-0.000049,  29.910
   310.8,0.000756,0.000404, 29,0.015080,-0.000035,  29.907
   311.0,0.000760,0.000406, 29,0.015096,-0.000035,  29.911
   311.2,0.000758,0.000408, 29,0.015098,-0.000049,  29.911
   311.4,0.000759,0.000404, 29,0.015090,-0.000049,  29.915
   311.6,0.000755,0.000408, 29,0.015093,-0.000049,  29.916
   311.8,0.000755,0.000411, 29,0.015086,-0.000049,  29.915
   312.0,0.000754,0.000411, 29,0.015080,-0.000049,  29.916
   312.2,0.000761,0.000418, 29,0.015101,-0.000049,  29.917
   312.4,0.000764,0.000416, 29,0.015130,-0.000049,  29.919
   312.6,0.000764,0.000420, 29,0.015166,-0.000049,  29.917
   312.8,0.000767,0.000426, 29,0.015178,-0.000049,  29.926
   313.0,0.000769,0.000424, 29,0.015185,-0.000049,  29.927
   313.2,0.000767,0.000419, 29,0.015187,-0.000063,  29.928
   313.4,0.000762,0.000417, 29,0.015190,-0.000063,  29.929
   313.6,0.000764,0.000415, 29,0.015189,-0.000063,  29.925
   313.8,0.000759,0.000413, 29,0.015180,-0.000077,  29.925
   314.0,0.000757,0.000416, 29,0.015196,-0.000077,  29.931
   314.2,0.000759,0.000417, 29,0.015219,-0.000063,  29.929
   314.4,0.000753,0.000420, 29,0.015243,-0.000049,  29.928
   314.6,0.000766,0.000420, 29,0.015245,-0.000049,  29.929
   314.8,0.000768,0.000422, 29,0.015245,-0.000049,  29.935
   315.0,0.000771,0.000422, 29,0.015238,-0.000035,  29.935
   315.2,0.000771,0.000421, 29,0.015256,-0.000035,  29.935
   315.4,0.000771,0.000413, 29,0.015279,-0.000049,  29.935
   315.6,0.000773,0.000415, 29,0.015298,-0.000049,  29.935
   315.8,0.000772,0.000413, 29,0.015315,-0.000049,  29.940
   316.0,0.000782,0.000409, 29,0.015331,-0.000049,  29.935
   316.2,0.000785,0.000411, 29,0.015333,-0.000049,  29.939
   316.4,0.000779,0.000413, 29,0.015321,-0.000049,  29.939
   316.6,0.000777,0.000419, 29,0.015296,-0.000049,  29.937
   316.8,0.000782,0.000421, 29,0.015263,-0.000049,  29.937
   317.0,0.000781,0.000428, 29,0.015247,-0.000049,  29.941
   317.2,0.000777,0.000428, 29,0.015237,-0.000049,  29.938
   317.4,0.000778,0.000419, 29,0.015240,-0.000035,  29.941
   317.6,0.000775,0.000414, 29,0.015251,-0.000035,  29.941
   317.8,0.000763,0.000410, 29,0.015258,-0.000071,  29.939
   318.0,0.000758,0.000406, 29,0.015275,-0.000035,  29.935
   318.2,0.000753,0.000406, 29,0.015293,-0.000057,  29.935
   318.4,0.000746,0.000404, 29,0.015307,-0.000071,  29.936
   318.6,0.000741,0.000408, 29,0.015333,-0.000049,  29.939
   318.8,0.000741,0.000408, 29,0.015358,-0.000049,  29.933
   319.0,0.000743,0.000404, 29,0.015342,-0.000049,  29.936
   319.2,0.000742,0.000404, 29,0.015317,-0.000049,  29.938
   319.4,0.000745,0.000403, 29,0.015279,-0.000049,  29.931
   319.6,0.000753,0.000399, 29,0.015295,-0.000035,  29.936
   319.8,0.000755,0.000405, 29,0.015319,-0.000035,  29.935
   320.0,0.000755,0.000412, 29,0.015372,-0.000035,  29.933
   320.2,0.000750,0.000413, 29,0.015402,-0.000022,  29.933
   320.4,0.000753,0.000417, 29,0.015421,-0.000022,  29.928
   320.6,0.000749,0.000418, 29,0.015440,-0.000022,  29.930
   320.8,0.000754,0.000421, 29,0.015453,-0.000022,  29.928
   321.0,0.000754,0.000425, 29,0.015454,-0.000022,  29.928
   321.2,0.000749,0.000421, 29,0.015453,-0.000022,  29.926
   321.4,0.000752,0.000426, 29,0.015453,-0.000022,  29.927
   321.6,0.000752,0.000426, 29,0.015453,-0.000035,  29.927
   321.8,0.000752,0.000427, 29,0.015456,-0.000035,  29.926
   322.0,0.000753,0.000429, 29,0.015465,-0.000022,  29.924
   322.2,0.000755,0.000429, 29,0.015471,-0.000035,  29.926
   322.4,0.000760,0.000424, 29,0.015471,-0.000035,  29.919
   322.6,0.000764,0.000429, 29,0.015492,-0.000022,  29.913
   322.8,0.000769,0.000431, 29,0.015515,-0.000035,  29.913
   323.0,0.000769,0.000428, 29,0.015538,-0.000035,  29.915
   323.2,0.000771,0.000427, 29,0.015532,-0.000022,  29.919
   323.4,0.000771,0.000427, 29,0.015515,-0.000035,  29.918
   323.6,0.000771,0.000424, 29,0.015489,-0.000035,  29.911
   323.8,0.000767,0.000418, 29,0.015496,-0.000022,  29.911
   324.0,0.000767,0.000416, 29,0.015522,-0.000035,  29.908
   324.2,0.000769,0.000417, 29,0.015547,-0.000035,  29.915
   324.4,0.000761,0.000423, 29,0.015559,-0.000022,  29.910
   324.6,0.000769,0.000423, 29,0.015560,-0.000035,  29.909
   324.8,0.000771,0.000423, 29,0.015564,-0.000035,  29.910
   325.0,0.000771,0.000426, 29,0.015580,-0.000022,  29.909
   325.2,0.000769,0.000426, 29,0.015594,-0.000035,  29.905
   325.4,0.000767,0.000424, 29,0.015610,-0.000035,  29.905
   325.6,0.000764,0.000424, 29,0.015605,-0.000022,  29.907
   325.8,0.000757,0.000419, 29,0.015594,-0.000035,  29.903
   326.0,0.000763,0.000417, 29,0.015569,-0.000035,  29.901
   326.2,0.000763,0.000412, 29,0.015569,-0.000022,  29.902
   326.4,0.000758,0.000408, 29,0.015576,-0.000035,  29.901
   326.6,0.000758,0.000412, 29,0.015587,-0.000035,  29.895
   326.8,0.000763,0.000412, 29,0.015594,-0.000035,  29.897
   327.0,0.000757,0.000409, 29,0.015605,-0.000049,  29.899
   327.2,0.000755,0.000406, 29,0.015606,-0.000063,  29.899
   327.4,0.000750,0.000401, 29,0.015603,-0.000049,  29.893
   327.6,0.000746,0.000401, 29,0.015597,-0.000098,  29.890
   327.8,0.000754,0.000401, 29,0.015576,-0.000049,  29.892
   328.0,0.000759,0.000406, 29,0.015551,-0.000071,  29.888
   328.2,0.000758,0.000406, 29,0.015522,-0.000084,  29.888
   328.4,0.000757,0.000400, 29,0.015480,-0.000049,  29.886
   328.6,0.000757,0.000397, 29,0.015422,-0.000049,  29.889
   328.8,0.000757,0.000394, 29,0.015411,-0.000049,  29.885
   329.0,0.000754,0.000389, 29,0.015415,-0.000049,  29.883
   329.2,0.000747,0.000386, 29,0.015422,-0.000049,  29.887
   329.4,0.000746,0.000386, 29,0.015434,-0.000049,  29.881
   329.6,0.000752,0.000386, 29,0.015448,-0.000049,  29.879
   329.8,0.000754,0.000395, 29,0.015464,-0.000049,  29.883
   330.0,0.000751,0.000398, 29,0.015487,-0.000049,  29.883
   330.2,0.000750,0.000397, 29,0.015503,-0.000049,  29.882
   330.4,0.000750,0.000405, 29,0.015521,-0.000063,  29.883
   330.6,0.000750,0.000403, 29,0.015517,-0.000063,  29.879
   330.8,0.000745,0.000399, 29,0.015515,-0.000063,  29.874
   331.0,0.000742,0.000398, 29,0.015492,-0.000077,  29.877
   331.2,0.000743,0.000393, 29,0.015471,-0.000077,  29.874
   331.4,0.000749,0.000391, 29,0.015447,-0.000063,  29.875
   331.6,0.000746,0.000397, 29,0.015421,-0.000063,  29.876
   331.8,0.000752,0.000401, 29,0.015431,-0.000063,  29.873
   332.0,0.000752,0.000400, 29,0.015445,-0.000063,  29.873
   332.2,0.000747,0.000402, 29,0.015484,-0.000063,  29.876
   332.4,0.000740,0.000400, 29,0.015494,-0.000063,  29.874
   332.6,0.000734,0.000396, 29,0.015496,-0.000063,  29.871
   332.8,0.000737,0.000396, 29,0.015494,-0.000063,  29.872
   333.0,0.000742,0.000397, 29,0.015500,-0.000063,  29.873
   333.2,0.000737,0.000398, 29,0.015501,-0.000063,  29.873
   333.4,0.000737,0.000396, 29,0.015516,-0.000063,  29.870
   333.6,0.000740,0.000396, 29,0.015533,-0.000063,  29.870
   333.8,0.000740,0.000397, 29,0.015545,-0.000063,  29.866
   334.0,0.000732,0.000396, 29,0.015568,-0.000063,  29.857
   334.2,0.000733,0.000392, 29,0.015587,-0.000063,  29.859
   334.4,0.000728,0.000391, 29,0.015605,-0.000063,  29.855
   334.6,0.000725,0.000389, 29,0.015623,-0.000049,  29.857
   334.8,0.000733,0.000389, 29,0.015635,-0.000049,  29.851
   335.0,0.000735,0.000389, 29,0.015636,-0.000049,  29.852
   335.2,0.000732,0.000390, 29,0.015649,-0.000035,  29.852
   335.4,0.000730,0.000393, 29,0.015630,-0.000022,  29.855
   335.6,0.000733,0.000395, 29,0.015590,-0.000035,  29.858
   335.8,0.000730,0.000395, 29,0.015535,-0.000035,  29.856
   336.0,0.000730,0.000396, 29,0.015512,-0.000022,  29.856
   336.2,0.000732,0.000395, 29,0.015500,-0.000035,  29.859
   336.4,0.000730,0.000391, 29,0.015495,-0.000035,  29.858
   336.6,0.000733,0.000392, 29,0.015507,-0.000022,  29.859
   336.8,0.000731,0.000389, 29,0.015537,-0.000035,  29.852
   337.0,0.000726,0.000389, 29,0.015583,-0.000049,  29.856
   337.2,0.000734,0.000388, 29,0.015584,-0.000035,  29.853
   337.4,0.000731,0.000388, 29,0.015579,-0.000084,  29.852
   337.6,0.000726,0.000389, 29,0.015558,-0.000049,  29.853
   337.8,0.000726,0.000386, 29,0.015558,-0.000084,  29.860
   338.0,0.000723,0.000378, 29,0.015550,-0.000098,  29.857
   338.2,0.000720,0.000375, 29,0.015554,-0.000049,  29.857
   338.4,0.000720,0.000367, 29,0.015550,-0.000049,  29.857
   338.6,0.000723,0.000366, 29,0.015550,-0.000035,  29.859
   338.8,0.000723,0.000371, 29,0.015543,-0.000035,  29.861
   339.0,0.000720,0.000380, 29,0.015533,-0.000035,  29.862
   339.2,0.000716,0.000380, 29,0.015529,-0.000035,  29.861
   339.4,0.000710,0.000377, 29,0.015534,-0.000049,  29.863
   339.6,0.000713,0.000375, 29,0.015529,-0.000049,  29.861
   339.8,0.000713,0.000371, 29,0.015524,-0.000049,  29.866
   340.0,0.000710,0.000373, 29,0.015522,-0.000049,  29.863
   340.2,0.000714,0.000373, 29,0.015515,-0.000049,  29.867
   340.4,0.000724,0.000373, 29,0.015475,-0.000035,  29.870
   340.6,0.000734,0.000372, 29,0.015424,-0.000035,  29.869
   340.8,0.000737,0.000378, 29,0.015362,-0.000035,  29.870
   341.0,0.000739,0.000381, 29,0.015362,-0.000022,  29.868
   341.2,0.000745,0.000386, 29,0.015375,-0.000035,  29.875
   341.4,0.000745,0.000394, 29,0.015417,-0.000035,  29.880
   341.6,0.000738,0.000403, 29,0.015443,-0.000022,  29.879
   341.8,0.000731,0.000403, 29,0.015477,-0.000022,  29.876
   342.0,0.000729,0.000397, 29,0.015512,-0.000022,  29.877
   342.2,0.000724,0.000389, 29,0.015526,-0.000022,  29.880
   342.4,0.000721,0.000389, 29,0.015536,-0.000035,  29.879
   342.6,0.000731,0.000387, 29,0.015540,-0.000035,  29.881
   342.8,0.000736,0.000387, 29,0.015528,-0.000022,  29.878
   343.0,0.000733,0.000391, 29,0.015498,-0.000035,  29.881
   343.2,0.000731,0.000387, 29,0.015451,-0.000035,  29.881
   343.4,0.000728,0.000389, 29,0.015444,-0.000022,  29.882
   343.6,0.000728,0.000392, 29,0.015444,-0.000035,  29.879
   343.8,0.000725,0.000395, 29,0.015451,-0.000035,  29.881
   344.0,0.000728,0.000405, 29,0.015435,-0.000022,  29.880
   344.2,0.000728,0.000403, 29,0.015414,-0.000035,  29.884
   344.4,0.000723,0.000396, 29,0.015382,-0.000035,  29.880
   344.6,0.000723,0.000391, 29,0.015390,-0.000035,  29.883
   344.8,0.000723,0.000387, 29,0.015419,-0.000049,  29.887
   345.0,0.000725,0.000390, 29,0.015459,-0.000049,  29.886
   345.2,0.000723,0.000390, 29,0.015455,-0.000035,  29.888
   345.4,0.000723,0.000388, 29,0.015438,-0.000035,  29.885
   345.6,0.000723,0.000388, 29,0.015397,-0.000035,  29.886
   345.8,0.000720,0.000383, 29,0.015369,-0.000022,  29.889
   346.0,0.000716,0.000381, 29,0.015334,-0.000035,  29.884
   346.2,0.000718,0.000383, 29,0.015288,-0.000035,  29.892
   346.4,0.000725,0.000391, 29,0.015271,-0.000022,  29.889
   346.6,0.000730,0.000389, 29,0.015259,-0.000035,  29.888
   346.8,0.000732,0.000382, 29,0.015262,-0.000035,  29.889
   347.0,0.000732,0.000384, 29,0.015275,-0.000022,  29.891
   347.2,0.000730,0.000386, 29,0.015292,-0.000057,  29.893
   347.4,0.000734,0.000386, 29,0.015320,-0.000022,  29.892
   347.6,0.000739,0.000393, 29,0.015334,-0.000057,  29.891
   347.8,0.000742,0.000395, 29,0.015350,-0.000057,  29.896
   348.0,0.000744,0.000387, 29,0.015352,-0.000022,  29.895
   348.2,0.000744,0.000385, 29,0.015353,-0.000022,  29.893
   348.4,0.000737,0.000386, 29,0.015359,-0.000022,  29.900
   348.6,0.000739,0.000386, 29,0.015364,-0.000035,  29.899
   348.8,0.000744,0.000389, 29,0.015362,-0.000035,  29.899
   349.0,0.000746,0.000389, 29,0.015364,-0.000022,  29.900
   349.2,0.000746,0.000385, 29,0.015369,-0.000035,  29.902
   349.4,0.000746,0.000383, 29,0.015369,-0.000035,  29.902
   349.6,0.000742,0.000380, 29,0.015385,-0.000022,  29.899
   349.8,0.000738,0.000384, 29,0.015392,-0.000035,  29.900
   350.0,0.000738,0.000386, 29,0.015413,-0.000035,  29.902
   350.2,0.000738,0.000386, 29,0.015436,-0.000008,  29.899
   350.4,0.000741,0.000392, 29,0.015459,-0.000008,  29.901
   350.6,0.000738,0.000394, 29,0.015482,-0.000008,  29.901
   350.8,0.000744,0.000396, 29,0.015494,0.000006,  29.898
   351.0,0.000749,0.000397, 29,0.015501,-0.000008,  29.898
   351.2,0.000747,0.000393, 29,0.015492,-0.000008,  29.901
   351.4,0.000739,0.000394, 29,0.015469,-0.000008,  29.900
   351.6,0.000739,0.000392, 29,0.015429,-0.000035,  29.898
   351.8,0.000739,0.000394, 29,0.015374,-0.000035,  29.896
   352.0,0.000739,0.000395, 29,0.015346,-0.000022,  29.897
   352.2,0.000739,0.000394, 29,0.015318,-0.000035,  29.900
   352.4,0.000739,0.000392, 29,0.015297,-0.000035,  29.893
   352.6,0.000737,0.000399, 29,0.015297,-0.000022,  29.895
   352.8,0.000734,0.000395, 29,0.015308,-0.000035,  29.891
   353.0,0.000732,0.000393, 29,0.015320,-0.000035,  29.891
   353.2,0.000725,0.000393, 29,0.015345,-0.000022,  29.893
   353.4,0.000727,0.000393, 29,0.015374,-0.000022,  29.892
   353.6,0.000732,0.000396, 29,0.015410,-0.000022,  29.885
   353.8,0.000739,0.000398, 29,0.015429,-0.000022,  29.881
   354.0,0.000737,0.000392, 29,0.015436,-0.000022,  29.879
   354.2,0.000734,0.000393, 29,0.015450,-0.000022,  29.877
   354.4,0.000727,0.000388, 29,0.015462,-0.000043,  29.877
   354.6,0.000720,0.000390, 29,0.015464,-0.000043,  29.874
   354.8,0.000725,0.000393, 29,0.015469,-0.000043,  29.868
   355.0,0.000727,0.000404, 29,0.015472,-0.000065,  29.864
   355.2,0.000734,0.000408, 29,0.015488,-0.000043,  29.860
   355.4,0.000734,0.000408, 29,0.015499,-0.000029,  29.855
   355.6,0.000732,0.000411, 29,0.015499,-0.000065,  29.858
   355.8,0.000727,0.000411, 29,0.015483,-0.000029,  29.850
   356.0,0.000725,0.000409, 29,0.015469,-0.000029,  29.846
   356.2,0.000723,0.000404, 29,0.015458,-0.000029,  29.845
   356.4,0.000720,0.000400, 29,0.015452,-0.000008,  29.840
   356.6,0.000720,0.000398, 29,0.015436,-0.000008,  29.835
   356.8,0.000720,0.000398, 29,0.015390,-0.000008,  29.829
   357.0,0.000716,0.000400, 29,0.015336,-0.000043,  29.821
   357.2,0.000716,0.000400, 29,0.015273,-0.000008,  29.820
   357.4,0.000718,0.000404, 29,0.015241,-0.000043,  29.817
   357.6,0.000716,0.000402, 29,0.015231,-0.000043,  29.809
   357.8,0.000718,0.000403, 29,0.015237,-0.000008,  29.803
   358.0,0.000723,0.000407, 29,0.015234,-0.000008,  29.802
   358.2,0.000725,0.000407, 29,0.015235,0.000006,  29.802
   358.4,0.000727,0.000405, 29,0.015242,-0.000008,  29.798
   358.6,0.000727,0.000407, 29,0.015258,-0.000008,  29.796
   358.8,0.000725,0.000407, 29,0.015255,0.000006,  29.788
   359.0,0.000727,0.000408, 29,0.015244,-0.000008,  29.786
   359.2,0.000730,0.000411, 29,0.015233,-0.000008,  29.785
   359.4,0.000730,0.000406, 29,0.015205,0.000006,  29.781
   359.6,0.000730,0.000406, 29,0.015163,-0.000008,  29.778
   359.8,0.000725,0.000400, 29,0.015104,-0.000008,  29.775
   360.0,0.000721,0.000393, 29,0.015100,0.000006,  29.774
   360.2,0.000713,0.000386, 29,0.015115,-0.000008,  29.774
   360.4,0.000711,0.000383, 29,0.015147,-0.000008,  29.766
   360.6,0.000712,0.000382, 29,0.015154,0.000006,  29.764
   360.8,0.000709,0.000380, 29,0.015154,-0.000008,  29.757
   361.0,0.000711,0.000379, 29,0.015148,-0.000008,  29.761
   361.2,0.000721,0.000380, 29,0.015138,0.000006,  29.760
   361.4,0.000716,0.000377, 29,0.015111,-0.000008,  29.764
   361.6,0.000711,0.000373, 29,0.015080,-0.000008,  29.764
   361.8,0.000707,0.000368, 29,0.015058,-0.000008,  29.764
   362.0,0.000699,0.000364, 29,0.015037,-0.000022,  29.764
   362.2,0.000697,0.000363, 29,0.015014,-0.000022,  29.764
   362.4,0.000700,0.000363, 29,0.015012,-0.000022,  29.763
   362.6,0.000697,0.000366, 29,0.015015,-0.000022,  29.767
   362.8,0.000702,0.000369, 29,0.015033,-0.000022,  29.768
   363.0,0.000704,0.000377, 29,0.015031,-0.000022,  29.764
   363.2,0.000704,0.000373, 29,0.015022,-0.000022,  29.767
   363.4,0.000704,0.000368, 29,0.015004,-0.000022,  29.765
   363.6,0.000699,0.000367, 29,0.014990,-0.000035,  29.770
   363.8,0.000699,0.000363, 29,0.014980,-0.000049,  29.770
   364.0,0.000699,0.000356, 29,0.014962,-0.000049,  29.765
   364.2,0.000697,0.000355, 29,0.014923,-0.000035,  29.765
   364.4,0.000695,0.000357, 29,0.014878,-0.000035,  29.765
   364.6,0.000695,0.000355, 29,0.014829,-0.000035,  29.769
   364.8,0.000700,0.000356, 29,0.014815,-0.000022,  29.771
   365.0,0.000698,0.000358, 29,0.014816,-0.000022,  29.769
   365.2,0.000690,0.000362, 29,0.014841,-0.000022,  29.767
   365.4,0.000690,0.000358, 29,0.014807,-0.000022,  29.766
   365.6,0.000695,0.000355, 29,0.014744,-0.000022,  29.767
   365.8,0.000680,0.000357, 29,0.014666,-0.000022,  29.767
   366.0,0.000677,0.000359, 29,0.014648,-0.000022,  29.766
   366.2,0.000673,0.000357, 29,0.014644,-0.000022,  29.765
   366.4,0.000670,0.000355, 29,0.014662,-0.000022,  29.762
   366.6,0.000672,0.000351, 29,0.014670,-0.000022,  29.763
   366.8,0.000677,0.000356, 29,0.014695,-0.000057,  29.763
   367.0,0.000682,0.000358, 29,0.014726,-0.000022,  29.759
   367.2,0.000684,0.000365, 29,0.014740,-0.000057,  29.763
   367.4,0.000687,0.000363, 29,0.014754,-0.000057,  29.764
   367.6,0.000690,0.000365, 29,0.014766,-0.000022,  29.766
   367.8,0.000685,0.000367, 29,0.014773,-0.000022,  29.769
   368.0,0.000679,0.000365, 29,0.014774,-0.000022,  29.772
   368.2,0.000679,0.000367, 29,0.014774,-0.000022,  29.767
   368.4,0.000681,0.000372, 29,0.014773,-0.000022,  29.765
   368.6,0.000680,0.000370, 29,0.014743,-0.000022,  29.765
   368.8,0.000680,0.000368, 29,0.014696,-0.000035,  29.767
   369.0,0.000678,0.000370, 29,0.014628,-0.000035,  29.766
   369.2,0.000676,0.000366, 29,0.014601,-0.000022,  29.770
   369.4,0.000676,0.000368, 29,0.014585,-0.000022,  29.766
   369.6,0.000679,0.000367, 29,0.014581,-0.000022,  29.768
   369.8,0.000682,0.000365, 29,0.014585,-0.000057,  29.766
   370.0,0.000676,0.000366, 29,0.014586,-0.000057,  29.765
   370.2,0.000684,0.000366, 29,0.014595,-0.000057,  29.766
   370.4,0.000684,0.000365, 29,0.014587,-0.000078,  29.762
   370.6,0.000676,0.000365, 29,0.014575,-0.000043,  29.765
   370.8,0.000674,0.000361, 29,0.014552,-0.000043,  29.765
   371.0,0.000669,0.000362, 29,0.014514,-0.000065,  29.769
   371.2,0.000666,0.000360, 29,0.014461,-0.000043,  29.764
   371.4,0.000671,0.000357, 29,0.014397,-0.000043,  29.761
   371.6,0.000678,0.000359, 29,0.014388,-0.000029,  29.760
   371.8,0.000680,0.000356, 29,0.014389,-0.000008,  29.767
   372.0,0.000680,0.000354, 29,0.014419,-0.000008,  29.761
   372.2,0.000673,0.000356, 29,0.014414,0.000006,  29.763
   372.4,0.000671,0.000351, 29,0.014398,-0.000008,  29.767
   372.6,0.000669,0.000349, 29,0.014370,-0.000008,  29.764
   372.8,0.000669,0.000349, 29,0.014364,0.000006,  29.768
   373.0,0.000666,0.000347, 29,0.014355,-0.000008,  29.765
   373.2,0.000669,0.000345, 29,0.014346,-0.000008,  29.766
   373.4,0.000673,0.000345, 29,0.014334,0.000006,  29.769
   373.6,0.000673,0.000345, 29,0.014325,-0.000008,  29.761
   373.8,0.000676,0.000350, 29,0.014319,-0.000008,  29.765
   374.0,0.000673,0.000358, 29,0.014298,0.000006,  29.770
   374.2,0.000671,0.000356, 29,0.014260,-0.000008,  29.768
   374.4,0.000669,0.000355, 29,0.014221,-0.000008,  29.767
   374.6,0.000666,0.000348, 29,0.014217,0.000006,  29.769
   374.8,0.000662,0.000348, 29,0.014224,-0.000008,  29.768
   375.0,0.000657,0.000346, 29,0.014247,-0.000008,  29.768
   375.2,0.000652,0.000349, 29,0.014238,-0.000008,  29.769
   375.4,0.000648,0.000349, 29,0.014227,-0.000022,  29.772
   375.6,0.000643,0.000345, 29,0.014205,-0.000022,  29.771
   375.8,0.000641,0.000344, 29,0.014180,-0.000022,  29.770
   376.0,0.000636,0.000342, 29,0.014159,-0.000022,  29.769
   376.2,0.000641,0.000346, 29,0.014136,-0.000022,  29.771
   376.4,0.000648,0.000348, 29,0.014104,-0.000022,  29.772
   376.6,0.000655,0.000341, 29,0.014062,-0.000071,  29.771
   376.8,0.000655,0.000339, 29,0.014027,-0.000035,  29.770
   377.0,0.000648,0.000338, 29,0.014013,-0.000071,  29.770
   377.2,0.000644,0.000331, 29,0.013998,-0.000071,  29.775
   377.4,0.000636,0.000333, 29,0.013998,-0.000035,  29.769
   377.6,0.000631,0.000337, 29,0.013988,-0.000035,  29.778
   377.8,0.000629,0.000333, 29,0.013967,-0.000022,  29.773
   378.0,0.000629,0.000337, 29,0.013951,-0.000035,  29.776
   378.2,0.000629,0.000340, 29,0.013926,-0.000049,  29.775
   378.4,0.000629,0.000335, 29,0.013886,-0.000049,  29.779
   378.6,0.000624,0.000331, 29,0.013829,-0.000063,  29.773
   378.8,0.000619,0.000325, 29,0.013766,-0.000077,  29.776
   379.0,0.000615,0.000320, 29,0.013734,-0.000077,  29.777
   379.2,0.000605,0.000320, 29,0.013716,-0.000063,  29.777
   379.4,0.000603,0.000325, 29,0.013702,-0.000063,  29.778
   379.6,0.000606,0.000321, 29,0.013698,-0.000063,  29.782
   379.8,0.000601,0.000312, 29,0.013705,-0.000063,  29.783
   380.0,0.000598,0.000309, 29,0.013714,-0.000049,  29.785
   380.2,0.000606,0.000303, 29,0.013705,-0.000049,  29.786
   380.4,0.000603,0.000299, 29,0.013694,-0.000049,  29.785
   380.6,0.000601,0.000301, 29,0.013673,-0.000014,  29.788
   380.8,0.000606,0.000301, 29,0.013664,-0.000014,  29.790
   381.0,0.000598,0.000299, 29,0.013646,-0.000041,  29.788
   381.2,0.000595,0.000306, 29,0.013630,-0.000006,  29.792
   381.4,0.000595,0.000309, 29,0.013613,-0.000006,  29.794
   381.6,0.000595,0.000305, 29,0.013585,-0.000028,  29.794
   381.8,0.000593,0.000304, 29,0.013545,-0.000014,  29.799
   382.0,0.000594,0.000301, 29,0.013534,-0.000014,  29.797
   382.2,0.000601,0.000297, 29,0.013527,-0.000014,  29.801
   382.4,0.000606,0.000301, 29,0.013530,-0.000035,  29.801
   382.6,0.000605,0.000305, 29,0.013523,-0.000022,  29.805
   382.8,0.000600,0.000306, 29,0.013524,-0.000035,  29.813
   383.0,0.000600,0.000308, 29,0.013528,-0.000071,  29.813
   383.2,0.000598,0.000311, 29,0.013524,-0.000071,  29.816
   383.4,0.000600,0.000311, 29,0.013526,-0.000049,  29.817
   383.6,0.000602,0.000311, 29,0.013526,-0.000049,  29.817
   383.8,0.000597,0.000313, 29,0.013512,-0.000049,  29.818
   384.0,0.000605,0.000311, 29,0.013494,-0.000049,  29.817
   384.2,0.000605,0.000306, 29,0.013471,-0.000049,  29.821
   384.4,0.000602,0.000307, 29,0.013445,-0.000049,  29.820
   384.6,0.000603,0.000307, 29,0.013417,-0.000049,  29.822
   384.8,0.000605,0.000312, 29,0.013387,-0.000049,  29.825
   385.0,0.000605,0.000320, 29,0.013378,-0.000049,  29.821
   385.2,0.000602,0.000321, 29,0.013387,-0.000049,  29.826
   385.4,0.000597,0.000320, 29,0.013415,-0.000049,  29.823
   385.6,0.000594,0.000318, 29,0.013416,-0.000049,  29.830
   385.8,0.000593,0.000318, 29,0.013422,-0.000049,  29.832
   386.0,0.000598,0.000319, 29,0.013422,-0.000049,  29.826
   386.2,0.000605,0.000324, 29,0.013418,-0.000049,  29.831
   386.4,0.000614,0.000319, 29,0.013409,-0.000084,  29.830
   386.6,0.000616,0.000315, 29,0.013390,-0.000049,  29.831
   386.8,0.000614,0.000310, 29,0.013374,-0.000071,  29.832
   387.0,0.000605,0.000311, 29,0.013351,-0.000084,  29.832
   387.2,0.000608,0.000312, 29,0.013336,-0.000049,  29.833
   387.4,0.000608,0.000319, 29,0.013320,-0.000049,  29.830
   387.6,0.000603,0.000320, 29,0.013306,-0.000049,  29.834
   387.8,0.000608,0.000324, 29,0.013299,-0.000049,  29.833
   388.0,0.000608,0.000325, 29,0.013288,-0.000049,  29.835
   388.2,0.000605,0.000323, 29,0.013256,-0.000049,  29.830
   388.4,0.000600,0.000319, 29,0.013216,-0.000049,  29.830
   388.6,0.000600,0.000316, 29,0.013171,-0.000049,  29.834
   388.8,0.000598,0.000311, 29,0.013150,-0.000049,  29.832
   389.0,0.000594,0.000304, 29,0.013129,-0.000049,  29.834
   389.2,0.000592,0.000305, 29,0.013127,-0.000049,  29.836
   389.4,0.000595,0.000305, 29,0.013117,-0.000049,  29.838
   389.6,0.000598,0.000309, 29,0.013097,-0.000049,  29.836
   389.8,0.000595,0.000314, 29,0.013086,-0.000049,  29.838
   390.0,0.000595,0.000315, 29,0.013076,-0.000035,  29.840
   390.2,0.000598,0.000312, 29,0.013055,-0.000035,  29.839
   390.4,0.000598,0.000315, 29,0.013046,-0.000035,  29.841
   390.6,0.000600,0.000312, 29,0.013043,-0.000035,  29.844
   390.8,0.000598,0.000308, 29,0.013034,-0.000049,  29.836
   391.0,0.000595,0.000303, 29,0.013035,-0.000049,  29.843
   391.2,0.000588,0.000299, 29,0.012995,-0.000035,  29.842
   391.4,0.000586,0.000290, 29,0.012917,-0.000035,  29.841
   391.6,0.000583,0.000284, 29,0.012824,-0.000035,  29.841
   391.8,0.000576,0.000287, 29,0.012810,-0.000035,  29.843
   392.0,0.000582,0.000287, 29,0.012813,-0.000049,  29.838
   392.2,0.000577,0.000291, 29,0.012850,-0.000049,  29.843
   392.4,0.000575,0.000295, 29,0.012851,-0.000049,  29.843
   392.6,0.000580,0.000298, 29,0.012841,-0.000049,  29.846
   392.8,0.000575,0.000304, 29,0.012828,-0.000063,  29.834
   393.0,0.000571,0.000307, 29,0.012818,-0.000063,  29.838
   393.2,0.000568,0.000307, 29,0.012809,-0.000063,  29.841
   393.4,0.000568,0.000305, 29,0.012793,-0.000077,  29.837
   393.6,0.000571,0.000304, 29,0.012760,-0.000077,  29.837
   393.8,0.000575,0.000304, 29,0.012716,-0.000063,  29.832
   394.0,0.000568,0.000308, 29,0.012655,-0.000049,  29.829
   394.2,0.000573,0.000316, 29,0.012641,-0.000049,  29.826
   394.4,0.000571,0.000313, 29,0.012649,-0.000049,  29.828
   394.6,0.000563,0.000309, 29,0.012664,-0.000035,  29.824
   394.8,0.000563,0.000306, 29,0.012662,-0.000035,  29.822
   395.0,0.000568,0.000306, 29,0.012662,-0.000049,  29.818
   395.2,0.000561,0.000304, 29,0.012661,-0.000049,  29.820
   395.4,0.000561,0.000307, 29,0.012662,-0.000049,  29.814
   395.6,0.000568,0.000304, 29,0.012652,-0.000049,  29.810
   395.8,0.000563,0.000302, 29,0.012638,-0.000049,  29.812
   396.0,0.000558,0.000296, 29,0.012629,-0.000049,  29.808
   396.2,0.000559,0.000295, 29,0.012613,-0.000084,  29.803
   396.4,0.000556,0.000290, 29,0.012592,-0.000049,  29.795
   396.6,0.000554,0.000288, 29,0.012525,-0.000071,  29.796
   396.8,0.000554,0.000284, 29,0.012433,-0.000084,  29.791
   397.0,0.000554,0.000286, 29,0.012320,-0.000049,  29.787
   397.2,0.000551,0.000291, 29,0.012287,-0.000049,  29.789
   397.4,0.000547,0.000289, 29,0.012283,-0.000049,  29.784
   397.6,0.000547,0.000291, 29,0.012308,-0.000049,  29.785
   397.8,0.000549,0.000291, 29,0.012358,-0.000049,  29.785
   398.0,0.000554,0.000289, 29,0.012343,-0.000049,  29.778
   398.2,0.000547,0.000287, 29,0.012312,-0.000049,  29.781
   398.4,0.000542,0.000285, 29,0.012279,-0.000049,  29.780
   398.6,0.000543,0.000279, 29,0.012264,-0.000049,  29.772
   398.8,0.000537,0.000278, 29,0.012255,-0.000049,  29.768
   399.0,0.000537,0.000278, 29,0.012252,-0.000049,  29.761
   399.2,0.000547,0.000280, 29,0.012239,-0.000035,  29.759
   399.4,0.000542,0.000289, 29,0.012235,-0.000035,  29.759
   399.6,0.000542,0.000302, 29,0.012230,-0.000035,  29.760
   399.8,0.000542,0.000304, 29,0.012221,-0.000022,  29.755
   400.0,0.000544,0.000300, 29,0.012211,-0.000035,  29.750
   400.2,0.000544,0.000298, 29,0.012204,-0.000035,  29.751
   400.4,0.000544,0.000292, 29,0.012160,-0.000022,  29.752
   400.6,0.000543,0.000297, 29,0.012096,-0.000035,  29.749
   400.8,0.000546,0.000298, 29,0.012014,-0.000035,  29.746
   401.0,0.000548,0.000307, 29,0.011976,-0.000008,  29.748
   401.2,0.000543,0.000304, 29,0.011953,-0.000008,  29.744
   401.4,0.000543,0.000301, 29,0.011943,-0.000008,  29.747
   401.6,0.000546,0.000292, 29,0.011934,-0.000008,  29.746
   401.8,0.000549,0.000289, 29,0.011930,-0.000022,  29.743
   402.0,0.000547,0.000291, 29,0.011937,-0.000022,  29.739
   402.2,0.000542,0.000296, 29,0.011945,-0.000022,  29.743
   402.4,0.000547,0.000297, 29,0.011961,-0.000035,  29.743
   402.6,0.000547,0.000295, 29,0.011980,-0.000035,  29.743
   402.8,0.000550,0.000299, 29,0.011988,-0.000022,  29.741
   403.0,0.000547,0.000298, 29,0.011991,-0.000035,  29.742
   403.2,0.000550,0.000293, 29,0.011982,-0.000035,  29.745
   403.4,0.000545,0.000290, 29,0.011982,-0.000022,  29.740
   403.6,0.000548,0.000290, 29,0.011977,-0.000035,  29.744
   403.8,0.000545,0.000290, 29,0.011961,-0.000035,  29.741
   404.0,0.000553,0.000290, 29,0.011940,-0.000022,  29.746
   404.2,0.000550,0.000291, 29,0.011912,-0.000035,  29.751
   404.4,0.000547,0.000285, 29,0.011868,-0.000035,  29.751
   404.6,0.000547,0.000282, 29,0.011826,-0.000035,  29.750
   404.8,0.000550,0.000278, 29,0.011786,-0.000049,  29.749
   405.0,0.000542,0.000276, 29,0.011736,-0.000063,  29.756
   405.2,0.000540,0.000284, 29,0.011699,-0.000063,  29.754
   405.4,0.000543,0.000287, 29,0.011673,-0.000063,  29.754
   405.6,0.000537,0.000285, 29,0.011645,-0.000063,  29.761
   405.8,0.000535,0.000293, 29,0.011613,-0.000063,  29.761
   406.0,0.000543,0.000290, 29,0.011592,-0.000049,  29.761
   406.2,0.000535,0.000276, 29,0.011564,-0.000049,  29.764
   406.4,0.000525,0.000265, 29,0.011537,-0.000049,  29.759
   406.6,0.000521,0.000261, 29,0.011505,-0.000084,  29.770
   406.8,0.000514,0.000259, 29,0.011467,-0.000049,  29.770
   407.0,0.000511,0.000265, 29,0.011446,-0.000071,  29.772
   407.2,0.000509,0.000263, 29,0.011426,-0.000084,  29.774
   407.4,0.000507,0.000260, 29,0.011414,-0.000063,  29.775
   407.6,0.000502,0.000259, 29,0.011405,-0.000077,  29.777
   407.8,0.000498,0.000253, 29,0.011398,-0.000077,  29.776
   408.0,0.000493,0.000250, 29,0.011390,-0.000063,  29.780
   408.2,0.000490,0.000253, 29,0.011383,-0.000063,  29.782
   408.4,0.000496,0.000248, 29,0.011346,-0.000063,  29.789
   408.6,0.000493,0.000242, 29,0.011296,-0.000063,  29.791
   408.8,0.000493,0.000242, 29,0.011230,-0.000028,  29.793
   409.0,0.000493,0.000240, 29,0.011195,-0.000028,  29.791
   409.2,0.000489,0.000238, 29,0.011174,-0.000041,  29.793
   409.4,0.000487,0.000233, 29,0.011154,0.000008,  29.795
   409.6,0.000485,0.000231, 29,0.011152,-0.000006,  29.796
   409.8,0.000482,0.000229, 29,0.011159,-0.000055,  29.798
   410.0,0.000473,0.000226, 29,0.011182,-0.000041,  29.798
   410.2,0.000469,0.000226, 29,0.011173,-0.000055,  29.795
   410.4,0.000472,0.000223, 29,0.011155,-0.000055,  29.798
   410.6,0.000467,0.000221, 29,0.011113,-0.000041,  29.803
   410.8,0.000460,0.000218, 29,0.011089,-0.000041,  29.797
   411.0,0.000460,0.000221, 29,0.011077,-0.000041,  29.802
   411.2,0.000462,0.000229, 29,0.011050,-0.000028,  29.805
   411.4,0.000464,0.000239, 29,0.011014,-0.000028,  29.808
   411.6,0.000464,0.000237, 29,0.010974,-0.000041,  29.810
   411.8,0.000464,0.000234, 29,0.010923,-0.000028,  29.805
   412.0,0.000462,0.000227, 29,0.010890,-0.000028,  29.811
   412.2,0.000462,0.000222, 29,0.010847,-0.000041,  29.812
   412.4,0.000462,0.000224, 29,0.010803,-0.000063,  29.813
   412.6,0.000460,0.000226, 29,0.010770,-0.000063,  29.813
   412.8,0.000460,0.000224, 29,0.010741,-0.000077,  29.809
   413.0,0.000462,0.000233, 29,0.010702,-0.000098,  29.815
   413.2,0.000462,0.000236, 29,0.010695,-0.000098,  29.813
   413.4,0.000464,0.000230, 29,0.010703,-0.000077,  29.816
   413.6,0.000464,0.000224, 29,0.010729,-0.000063,  29.814
   413.8,0.000464,0.000215, 29,0.010737,-0.000063,  29.818
   414.0,0.000457,0.000211, 29,0.010734,-0.000063,  29.820
   414.2,0.000451,0.000210, 29,0.010730,-0.000063,  29.830
   414.4,0.000456,0.000215, 29,0.010695,-0.000077,  29.827
   414.6,0.000461,0.000215, 29,0.010638,-0.000091,  29.829
   414.8,0.000461,0.000219, 29,0.010557,-0.000077,  29.830
   415.0,0.000459,0.000226, 29,0.010546,-0.000077,  29.829
   415.2,0.000454,0.000225, 29,0.010555,-0.000077,  29.833
   415.4,0.000454,0.000231, 29,0.010586,-0.000063,  29.829
   415.6,0.000454,0.000232, 29,0.010546,-0.000063,  29.833
   415.8,0.000454,0.000232, 29,0.010477,-0.000063,  29.834
   416.0,0.000454,0.000230, 29,0.010373,-0.000063,  29.836
   416.2,0.000454,0.000231, 29,0.010348,-0.000049,  29.833
   416.4,0.000454,0.000230, 29,0.010355,-0.000084,  29.835
   416.6,0.000454,0.000232, 29,0.010384,-0.000063,  29.832
   416.8,0.000454,0.000239, 29,0.010386,-0.000084,  29.834
   417.0,0.000454,0.000239, 29,0.010388,-0.000084,  29.832
   417.2,0.000460,0.000241, 29,0.010393,-0.000049,  29.837
   417.4,0.000460,0.000240, 29,0.010393,-0.000035,  29.835
   417.6,0.000460,0.000242, 29,0.010406,-0.000035,  29.836
   417.8,0.000457,0.000242, 29,0.010415,-0.000049,  29.832
   418.0,0.000457,0.000243, 29,0.010430,-0.000049,  29.830
   418.2,0.000450,0.000246, 29,0.010428,-0.000049,  29.831
   418.4,0.000446,0.000245, 29,0.010424,-0.000049,  29.833
   418.6,0.000451,0.000246, 29,0.010410,-0.000049,  29.837
   418.8,0.000461,0.000249, 29,0.010353,-0.000049,  29.835
   419.0,0.000464,0.000250, 29,0.010272,-0.000049,  29.838
   419.2,0.000466,0.000254, 29,0.010161,-0.000049,  29.836
   419.4,0.000461,0.000252, 29,0.010135,-0.000049,  29.837
   419.6,0.000467,0.000250, 29,0.010136,-0.000049,  29.834
   419.8,0.000467,0.000242, 29,0.010167,-0.000049,  29.836
   420.0,0.000464,0.000241, 29,0.010182,-0.000049,  29.833
   420.2,0.000470,0.000236, 29,0.010201,-0.000049,  29.837
   420.4,0.000470,0.000236, 29,0.010225,-0.000049,  29.837
   420.6,0.000462,0.000237, 29,0.010232,-0.000035,  29.841
   420.8,0.000464,0.000235, 29,0.010234,-0.000035,  29.841
   421.0,0.000471,0.000248, 29,0.010229,-0.000035,  29.836
   421.2,0.000484,0.000261, 29,0.010223,-0.000022,  29.840
   421.4,0.000483,0.000262, 29,0.010218,-0.000035,  29.842
   421.6,0.000486,0.000269, 29,0.010208,-0.000035,  29.845
   421.8,0.000490,0.000272, 29,0.010192,-0.000022,  29.840
   422.0,0.000490,0.000268, 29,0.010171,-0.000022,  29.839
   422.2,0.000481,0.000265, 29,0.010143,-0.000022,  29.843
   422.4,0.000475,0.000256, 29,0.010139,-0.000008,  29.844
   422.6,0.000472,0.000254, 29,0.010143,-0.000008,  29.847
   422.8,0.000464,0.000254, 29,0.010151,-0.000008,  29.845
   423.0,0.000467,0.000265, 29,0.010135,0.000006,  29.845
   423.2,0.000465,0.000261, 29,0.010111,-0.000008,  29.849
   423.4,0.000457,0.000252, 29,0.010076,-0.000008,  29.853
   423.6,0.000458,0.000249, 29,0.010056,0.000006,  29.856
   423.8,0.000453,0.000251, 29,0.010040,-0.000008,  29.855
   424.0,0.000450,0.000249, 29,0.010024,-0.000008,  29.853
   424.2,0.000453,0.000258, 29,0.009998,-0.000008,  29.853
   424.4,0.000460,0.000258, 29,0.009972,-0.000035,  29.861
   424.6,0.000457,0.000250, 29,0.009945,-0.000035,  29.855
   424.8,0.000455,0.000249, 29,0.009937,-0.000022,  29.857
   425.0,0.000446,0.000244, 29,0.009924,-0.000035,  29.862
   425.2,0.000443,0.000237, 29,0.009917,-0.000035,  29.862
   425.4,0.000446,0.000233, 29,0.009899,-0.000022,  29.865
   425.6,0.000446,0.000233, 29,0.009888,-0.000022,  29.870
   425.8,0.000446,0.000229, 29,0.009873,-0.000022,  29.870
   426.0,0.000448,0.000231, 29,0.009829,-0.000022,  29.869
   426.2,0.000446,0.000231, 29,0.009768,-0.000071,  29.871
   426.4,0.000443,0.000222, 29,0.009703,-0.000035,  29.876
   426.6,0.000441,0.000220, 29,0.009670,-0.000071,  29.882
   426.8,0.000439,0.000219, 29,0.009649,-0.000084,  29.881
   427.0,0.000432,0.000222, 29,0.009637,-0.000049,  29.887
   427.2,0.000427,0.000225, 29,0.009642,-0.000049,  29.879
   427.4,0.000428,0.000224, 29,0.009628,-0.000035,  29.888
   427.6,0.000420,0.000231, 29,0.009614,-0.000035,  29.888
   427.8,0.000417,0.000234, 29,0.009605,-0.000035,  29.887
   428.0,0.000421,0.000235, 29,0.009592,-0.000022,  29.892
   428.2,0.000415,0.000231, 29,0.009578,-0.000035,  29.895
   428.4,0.000417,0.000231, 29,0.009568,-0.000035,  29.894
   428.6,0.000425,0.000228, 29,0.009547,-0.000022,  29.896
   428.8,0.000420,0.000227, 29,0.009519,-0.000035,  29.895
   429.0,0.000417,0.000227, 29,0.009490,-0.000035,  29.898
   429.2,0.000413,0.000228, 29,0.009470,-0.000035,  29.901
   429.4,0.000410,0.000225, 29,0.009460,-0.000049,  29.901
   429.6,0.000417,0.000234, 29,0.009446,-0.000049,  29.898
   429.8,0.000430,0.000234, 29,0.009426,-0.000049,  29.903
   430.0,0.000427,0.000230, 29,0.009409,-0.000049,  29.902
   430.2,0.000427,0.000226, 29,0.009378,-0.000049,  29.905
   430.4,0.000425,0.000225, 29,0.009369,-0.000035,  29.907
   430.6,0.000422,0.000221, 29,0.009369,-0.000035,  29.909
   430.8,0.000424,0.000221, 29,0.009360,-0.000035,  29.904
   431.0,0.000432,0.000221, 29,0.009351,-0.000035,  29.909
   431.2,0.000424,0.000219, 29,0.009351,-0.000049,  29.906
   431.4,0.000417,0.000223, 29,0.009342,-0.000049,  29.906
   431.6,0.000416,0.000225, 29,0.009328,-0.000049,  29.907
   431.8,0.000408,0.000222, 29,0.009318,-0.000049,  29.905
   432.0,0.000403,0.000217, 29,0.009302,-0.000049,  29.908
   432.2,0.000406,0.000210, 29,0.009257,-0.000035,  29.911
   432.4,0.000402,0.000205, 29,0.009195,-0.000035,  29.917
   432.6,0.000394,0.000202, 29,0.009107,-0.000035,  29.918
   432.8,0.000397,0.000201, 29,0.009081,-0.000022,  29.921
   433.0,0.000397,0.000203, 29,0.009088,-0.000035,  29.918
   433.2,0.000397,0.000206, 29,0.009103,-0.000035,  29.923
   433.4,0.000395,0.000211, 29,0.009095,-0.000022,  29.921
   433.6,0.000402,0.000216, 29,0.009090,-0.000035,  29.924
   433.8,0.000399,0.000222, 29,0.009080,-0.000035,  29.926
   434.0,0.000400,0.000228, 29,0.009054,-0.000022,  29.924
   434.2,0.000395,0.000228, 29,0.009024,-0.000035,  29.924
   434.4,0.000392,0.000224, 29,0.008985,-0.000035,  29.928
   434.6,0.000395,0.000217, 29,0.008969,-0.000035,  29.924
   434.8,0.000395,0.000217, 29,0.008955,-0.000049,  29.924
   435.0,0.000395,0.000219, 29,0.008951,-0.000049,  29.923
   435.2,0.000399,0.000222, 29,0.008942,-0.000049,  29.926
   435.4,0.000406,0.000222, 29,0.008928,-0.000049,  29.923
   435.6,0.000406,0.000216, 29,0.008909,-0.000035,  29.921
   435.8,0.000406,0.000212, 29,0.008895,-0.000035,  29.919
   436.0,0.000411,0.000208, 29,0.008884,-0.000071,  29.921
   436.2,0.000406,0.000211, 29,0.008874,-0.000035,  29.918
   436.4,0.000403,0.000211, 29,0.008856,-0.000043,  29.918
   436.6,0.000404,0.000209, 29,0.008836,-0.000043,  29.918
   436.8,0.000396,0.000211, 29,0.008815,-0.000022,  29.919
   437.0,0.000394,0.000216, 29,0.008781,-0.000022,  29.918
   437.2,0.000392,0.000218, 29,0.008724,-0.000022,  29.919
   437.4,0.000387,0.000216, 29,0.008659,-0.000022,  29.915
   437.6,0.000392,0.000220, 29,0.008574,-0.000022,  29.916
   437.8,0.000403,0.000219, 29,0.008567,-0.000057,  29.918
   438.0,0.000400,0.000215, 29,0.008598,-0.000057,  29.917
   438.2,0.000400,0.000219, 29,0.008655,-0.000057,  29.921
   438.4,0.000398,0.000215, 29,0.008669,-0.000057,  29.924
   438.6,0.000397,0.000213, 29,0.008676,-0.000022,  29.921
   438.8,0.000409,0.000211, 29,0.008679,0.000014,  29.918
   439.0,0.000414,0.000212, 29,0.008679,0.000000,  29.916
   439.2,0.000411,0.000212, 29,0.008669,-0.000014,  29.920
   439.4,0.000419,0.000212, 29,0.008648,0.000022,  29.920
   439.6,0.000414,0.000214, 29,0.008631,0.000035,  29.920
   439.8,0.000406,0.000213, 29,0.008598,0.000000,  29.919
   440.0,0.000409,0.000213, 29,0.008560,0.000000,  29.918
   440.2,0.000405,0.000215, 29,0.008548,0.000014,  29.918
   440.4,0.000399,0.000219, 29,0.008532,0.000000,  29.913
   440.6,0.000409,0.000222, 29,0.008517,0.000000,  29.915
   440.8,0.000414,0.000237, 29,0.008502,0.000014,  29.912
   441.0,0.000413,0.000239, 29,0.008492,0.000014,  29.910
   441.2,0.000419,0.000242, 29,0.008481,-0.000008,  29.912
   441.4,0.000417,0.000244, 29,0.008471,-0.000008,  29.909
   441.6,0.000413,0.000244, 29,0.008464,0.000006,  29.910
   441.8,0.000419,0.000239, 29,0.008452,-0.000015,  29.911
   442.0,0.000419,0.000234, 29,0.008450,-0.000029,  29.910
   442.2,0.000419,0.000232, 29,0.008455,0.000006,  29.910
   442.4,0.000419,0.000229, 29,0.008457,0.000020,  29.903
   442.6,0.000414,0.000231, 29,0.008458,0.000006,  29.903
   442.8,0.000409,0.000231, 29,0.008451,0.000006,  29.903
   443.0,0.000409,0.000224, 29,0.008456,0.000020,  29.903
   443.2,0.000407,0.000220, 29,0.008458,0.000006,  29.899
   443.4,0.000405,0.000217, 29,0.008449,0.000006,  29.891
   443.6,0.000399,0.000214, 29,0.008445,0.000020,  29.888
   443.8,0.000402,0.000211, 29,0.008418,0.000006,  29.886
   444.0,0.000399,0.000207, 29,0.008371,0.000006,  29.882
   444.2,0.000399,0.000212, 29,0.008313,0.000006,  29.885
   444.4,0.000396,0.000211, 29,0.008270,0.000006,  29.880
   444.6,0.000395,0.000205, 29,0.008226,-0.000008,  29.877
   444.8,0.000382,0.000208, 29,0.008182,-0.000008,  29.876
   445.0,0.000376,0.000205, 29,0.008140,0.000006,  29.868
   445.2,0.000370,0.000204, 29,0.008107,-0.000008,  29.872
   445.4,0.000364,0.000200, 29,0.008073,-0.000008,  29.868
   445.6,0.000374,0.000202, 29,0.008067,0.000006,  29.866
   445.8,0.000384,0.000203, 29,0.008074,-0.000043,  29.869
   446.0,0.000381,0.000204, 29,0.008091,-0.000008,  29.862
   446.2,0.000381,0.000207, 29,0.008093,-0.000043,  29.863
   446.4,0.000381,0.000207, 29,0.008089,-0.000043,  29.862
   446.6,0.000378,0.000208, 29,0.008082,-0.000008,  29.862
   446.8,0.000378,0.000207, 29,0.008073,-0.000008,  29.852
   447.0,0.000381,0.000205, 29,0.008057,0.000006,  29.850
   447.2,0.000373,0.000206, 29,0.008040,-0.000008,  29.849
   447.4,0.000373,0.000203, 29,0.008012,-0.000008,  29.847
   447.6,0.000376,0.000203, 29,0.008005,0.000006,  29.840
   447.8,0.000370,0.000210, 29,0.008007,-0.000008,  29.839
   448.0,0.000370,0.000214, 29,0.008024,-0.000008,  29.840
   448.2,0.000376,0.000212, 29,0.008025,-0.000008,  29.839
   448.4,0.000373,0.000215, 29,0.008018,-0.000022,  29.835
   448.6,0.000370,0.000213, 29,0.008013,-0.000022,  29.839
   448.8,0.000368,0.000215, 29,0.008002,-0.000022,  29.842
   449.0,0.000370,0.000213, 29,0.007983,-0.000022,  29.836
   449.2,0.000368,0.000213, 29,0.007966,-0.000022,  29.843
   449.4,0.000368,0.000216, 29,0.007950,-0.000035,  29.844
   449.6,0.000370,0.000213, 29,0.007926,-0.000049,  29.840
   449.8,0.000366,0.000211, 29,0.007908,-0.000049,  29.841
   450.0,0.000363,0.000212, 29,0.007884,-0.000035,  29.842
   450.2,0.000363,0.000206, 29,0.007858,-0.000035,  29.841
   450.4,0.000363,0.000203, 29,0.007832,-0.000035,  29.843
   450.6,0.000361,0.000205, 29,0.007800,-0.000022,  29.840
   450.8,0.000361,0.000198, 29,0.007768,-0.000022,  29.843
   451.0,0.000361,0.000194, 29,0.007738,-0.000022,  29.844
   451.2,0.000359,0.000193, 29,0.007711,-0.000022,  29.848
   451.4,0.000361,0.000189, 29,0.007680,-0.000022,  29.846
   451.6,0.000361,0.000193, 29,0.007647,-0.000022,  29.848
   451.8,0.000363,0.000199, 29,0.007631,-0.000022,  29.846
   452.0,0.000366,0.000196, 29,0.007627,-0.000035,  29.852
   452.2,0.000368,0.000191, 29,0.007624,-0.000035,  29.852
   452.4,0.000366,0.000185, 29,0.007610,-0.000022,  29.852
   452.6,0.000366,0.000180, 29,0.007590,-0.000035,  29.850
   452.8,0.000363,0.000182, 29,0.007577,-0.000035,  29.854
   453.0,0.000361,0.000182, 29,0.007544,-0.000022,  29.853
   453.2,0.000351,0.000178, 29,0.007496,-0.000035,  29.858
   453.4,0.000343,0.000180, 29,0.007430,-0.000035,  29.858
   453.6,0.000338,0.000182, 29,0.007404,-0.000022,  29.865
   453.8,0.000337,0.000175, 29,0.007387,-0.000035,  29.867
   454.0,0.000332,0.000171, 29,0.007368,-0.000035,  29.866
   454.2,0.000327,0.000169, 29,0.007355,-0.000035,  29.869
   454.4,0.000325,0.000161, 29,0.007351,-0.000049,  29.865
   454.6,0.000326,0.000162, 29,0.007349,-0.000049,  29.868
   454.8,0.000321,0.000165, 29,0.007337,-0.000049,  29.869
   455.0,0.000314,0.000161, 29,0.007328,-0.000049,  29.871
   455.2,0.000317,0.000158, 29,0.007317,-0.000049,  29.869
   455.4,0.000313,0.000158, 29,0.007303,-0.000049,  29.871
   455.6,0.000305,0.000159, 29,0.007284,-0.000084,  29.870
   455.8,0.000300,0.000156, 29,0.007268,-0.000063,  29.873
   456.0,0.000298,0.000149, 29,0.007247,-0.000084,  29.872
   456.2,0.000300,0.000151, 29,0.007218,-0.000098,  29.872
   456.4,0.000300,0.000160, 29,0.007194,-0.000077,  29.875
   456.6,0.000298,0.000164, 29,0.007161,-0.000063,  29.868
   456.8,0.000295,0.000159, 29,0.007116,-0.000063,  29.872
   457.0,0.000293,0.000160, 29,0.007072,-0.000077,  29.872
   457.2,0.000286,0.000155, 29,0.007020,-0.000063,  29.869
   457.4,0.000284,0.000148, 29,0.007001,-0.000063,  29.871
   457.6,0.000277,0.000148, 29,0.006988,-0.000063,  29.872
   457.8,0.000280,0.000150, 29,0.006997,-0.000063,  29.873
   458.0,0.000283,0.000143, 29,0.006954,-0.000063,  29.876
   458.2,0.000277,0.000138, 29,0.006887,-0.000063,  29.876
   458.4,0.000287,0.000136, 29,0.006805,-0.000063,  29.875
   458.6,0.000287,0.000138, 29,0.006789,-0.000063,  29.876
   458.8,0.000282,0.000137, 29,0.006791,-0.000077,  29.873
   459.0,0.000284,0.000139, 29,0.006816,-0.000063,  29.872
   459.2,0.000282,0.000143, 29,0.006812,-0.000063,  29.877
   459.4,0.000277,0.000143, 29,0.006807,-0.000077,  29.872
   459.6,0.000279,0.000144, 29,0.006788,-0.000063,  29.876
   459.8,0.000282,0.000143, 29,0.006780,-0.000063,  29.872
   460.0,0.000274,0.000144, 29,0.006771,-0.000077,  29.875
   460.2,0.000272,0.000141, 29,0.006764,-0.000049,  29.875
   460.4,0.000270,0.000139, 29,0.006740,-0.000049,  29.877
   460.6,0.000267,0.000143, 29,0.006702,-0.000049,  29.875
   460.8,0.000272,0.000144, 29,0.006656,-0.000049,  29.873
   461.0,0.000282,0.000148, 29,0.006612,-0.000049,  29.872
   461.2,0.000277,0.000146, 29,0.006569,-0.000063,  29.873
   461.4,0.000277,0.000143, 29,0.006514,-0.000077,  29.874
   461.6,0.000273,0.000134, 29,0.006504,-0.000077,  29.873
   461.8,0.000273,0.000136, 29,0.006514,-0.000063,  29.877
   462.0,0.000271,0.000140, 29,0.006533,-0.000049,  29.877
   462.2,0.000276,0.000144, 29,0.006541,-0.000035,  29.879
   462.4,0.000276,0.000149, 29,0.006558,-0.000035,  29.871
   462.6,0.000276,0.000153, 29,0.006561,-0.000022,  29.881
   462.8,0.000276,0.000154, 29,0.006554,-0.000008,  29.880
   463.0,0.000278,0.000152, 29,0.006549,-0.000035,  29.876
   463.2,0.000275,0.000152, 29,0.006537,-0.000035,  29.879
   463.4,0.000283,0.000152, 29,0.006511,-0.000035,  29.883
   463.6,0.000283,0.000150, 29,0.006483,-0.000049,  29.881
   463.8,0.000277,0.000143, 29,0.006454,-0.000049,  29.879
   464.0,0.000283,0.000143, 29,0.006433,-0.000049,  29.881
   464.2,0.000278,0.000143, 29,0.006411,-0.000049,  29.882
   464.4,0.000268,0.000137, 29,0.006394,-0.000049,  29.878
   464.6,0.000271,0.000136, 29,0.006361,-0.000049,  29.881
   464.8,0.000266,0.000136, 29,0.006313,-0.000049,  29.879
   465.0,0.000259,0.000143, 29,0.006258,-0.000049,  29.880
   465.2,0.000262,0.000148, 29,0.006256,-0.000049,  29.879
   465.4,0.000262,0.000148, 29,0.006285,-0.000084,  29.883
   465.6,0.000257,0.000155, 29,0.006327,-0.000049,  29.883
   465.8,0.000259,0.000157, 29,0.006336,-0.000071,  29.881
   466.0,0.000267,0.000152, 29,0.006342,-0.000084,  29.879
   466.2,0.000264,0.000156, 29,0.006347,-0.000049,  29.881
   466.4,0.000266,0.000154, 29,0.006337,-0.000028,  29.878
   466.6,0.000267,0.000153, 29,0.006323,-0.000028,  29.881
   466.8,0.000262,0.000151, 29,0.006310,-0.000041,  29.883
   467.0,0.000261,0.000155, 29,0.006291,-0.000006,  29.880
   467.2,0.000261,0.000160, 29,0.006282,-0.000006,  29.877
   467.4,0.000258,0.000163, 29,0.006282,-0.000028,  29.878
   467.6,0.000263,0.000165, 29,0.006273,-0.000049,  29.880
   467.8,0.000269,0.000163, 29,0.006266,-0.000035,  29.878
   468.0,0.000263,0.000160, 29,0.006267,-0.000035,  29.877
   468.2,0.000269,0.000153, 29,0.006255,-0.000057,  29.879
   468.4,0.000266,0.000148, 29,0.006234,-0.000043,  29.879
   468.6,0.000261,0.000146, 29,0.006207,-0.000035,  29.882
   468.8,0.000269,0.000146, 29,0.006166,-0.000035,  29.877
   469.0,0.000266,0.000145, 29,0.006152,-0.000035,  29.879
   469.2,0.000261,0.000141, 29,0.006153,-0.000049,  29.878
   469.4,0.000261,0.000145, 29,0.006155,-0.000049,  29.882
   469.6,0.000256,0.000147, 29,0.006139,-0.000035,  29.877
   469.8,0.000253,0.000146, 29,0.006117,-0.000035,  29.881
   470.0,0.000261,0.000148, 29,0.006091,-0.000035,  29.881
   470.2,0.000269,0.000154, 29,0.006086,-0.000035,  29.884
   470.4,0.000268,0.000153, 29,0.006081,-0.000049,  29.884
   470.6,0.000276,0.000155, 29,0.006088,-0.000049,  29.885
   470.8,0.000280,0.000155, 29,0.006084,-0.000035,  29.882
   471.0,0.000275,0.000153, 29,0.006079,-0.000035,  29.884
   471.2,0.000275,0.000155, 29,0.006072,-0.000035,  29.881
   471.4,0.000270,0.000149, 29,0.006062,-0.000022,  29.882
   471.6,0.000268,0.000145, 29,0.006055,-0.000035,  29.880
   471.8,0.000260,0.000141, 29,0.006040,-0.000035,  29.879
   472.0,0.000261,0.000137, 29,0.006026,-0.000022,  29.881
   472.2,0.000256,0.000135, 29,0.006019,-0.000035,  29.879
   472.4,0.000251,0.000133, 29,0.006010,-0.000035,  29.880
   472.6,0.000259,0.000135, 29,0.005991,-0.000022,  29.883
   472.8,0.000266,0.000126, 29,0.005963,-0.000035,  29.884
   473.0,0.000258,0.000126, 29,0.005934,-0.000049,  29.885
   473.2,0.000253,0.000123, 29,0.005910,-0.000049,  29.881
   473.4,0.000249,0.000120, 29,0.005889,-0.000063,  29.879
   473.6,0.000244,0.000124, 29,0.005868,-0.000077,  29.883
   473.8,0.000247,0.000131, 29,0.005844,-0.000077,  29.880
   474.0,0.000250,0.000129, 29,0.005821,-0.000063,  29.879
   474.2,0.000247,0.000130, 29,0.005804,-0.000049,  29.881
   474.4,0.000252,0.000126, 29,0.005768,-0.000049,  29.879
   474.6,0.000250,0.000122, 29,0.005720,-0.000049,  29.877
   474.8,0.000244,0.000126, 29,0.005669,-0.000049,  29.877
   475.0,0.000248,0.000123, 29,0.005655,-0.000049,  29.873
   475.2,0.000241,0.000121, 29,0.005656,-0.000084,  29.868
   475.4,0.000235,0.000124, 29,0.005678,-0.000049,  29.871
   475.6,0.000237,0.000130, 29,0.005668,-0.000035,  29.865
   475.8,0.000232,0.000130, 29,0.005652,-0.000049,  29.867
   476.0,0.000234,0.000123, 29,0.005625,-0.000028,  29.861
   476.2,0.000237,0.000114, 29,0.005592,-0.000006,  29.856
   476.4,0.000239,0.000113, 29,0.005572,-0.000006,  29.853
   476.6,0.000237,0.000107, 29,0.005546,-0.000028,  29.857
   476.8,0.000232,0.000109, 29,0.005529,-0.000028,  29.853
   477.0,0.000228,0.000110, 29,0.005520,-0.000028,  29.848
   477.2,0.000225,0.000109, 29,0.005512,-0.000028,  29.847
   477.4,0.000227,0.000114, 29,0.005514,-0.000028,  29.843
   477.6,0.000235,0.000112, 29,0.005505,-0.000028,  29.840
   477.8,0.000227,0.000110, 29,0.005496,-0.000028,  29.842
   478.0,0.000225,0.000105, 29,0.005486,-0.000028,  29.837
   478.2,0.000219,0.000105, 29,0.005466,-0.000028,  29.836
   478.4,0.000211,0.000104, 29,0.005448,-0.000028,  29.832
   478.6,0.000211,0.000103, 29,0.005424,-0.000028,  29.833
   478.8,0.000216,0.000107, 29,0.005400,-0.000028,  29.833
   479.0,0.000211,0.000107, 29,0.005383,-0.000041,  29.832
   479.2,0.000211,0.000112, 29,0.005362,-0.000028,  29.830
   479.4,0.000216,0.000118, 29,0.005341,-0.000028,  29.829
   479.6,0.000211,0.000118, 29,0.005315,-0.000028,  29.826
   479.8,0.000209,0.000120, 29,0.005298,-0.000014,  29.826
   480.0,0.000212,0.000126, 29,0.005284,-0.000014,  29.830
   480.2,0.000206,0.000126, 29,0.005275,-0.000014,  29.827
   480.4,0.000209,0.000129, 29,0.005270,-0.000014,  29.825
   480.6,0.000216,0.000130, 29,0.005243,-0.000014,  29.824
   480.8,0.000211,0.000126, 29,0.005203,-0.000028,  29.827
   481.0,0.000211,0.000120, 29,0.005161,-0.000041,  29.824
   481.2,0.000216,0.000112, 29,0.005118,-0.000041,  29.824
   481.4,0.000209,0.000107, 29,0.005065,-0.000028,  29.821
   481.6,0.000206,0.000099, 29,0.005015,-0.000028,  29.820
   481.8,0.000207,0.000101, 29,0.004974,-0.000028,  29.823
   482.0,0.000205,0.000098, 29,0.004936,-0.000028,  29.821
   482.2,0.000202,0.000089, 29,0.004907,-0.000028,  29.824
   482.4,0.000200,0.000084, 29,0.004898,-0.000028,  29.817
   482.6,0.000198,0.000081, 29,0.004907,-0.000028,  29.820
   482.8,0.000198,0.000081, 29,0.004930,-0.000028,  29.816
   483.0,0.000196,0.000089, 29,0.004933,-0.000028,  29.814
   483.2,0.000196,0.000090, 29,0.004930,-0.000028,  29.819
   483.4,0.000188,0.000090, 29,0.004921,-0.000028,  29.820
   483.6,0.000194,0.000099, 29,0.004907,-0.000028,  29.819
   483.8,0.000194,0.000099, 29,0.004887,-0.000041,  29.818
   484.0,0.000186,0.000090, 29,0.004865,-0.000028,  29.824
   484.2,0.000186,0.000080, 29,0.004844,-0.000028,  29.821
   484.4,0.000186,0.000076, 29,0.004813,-0.000041,  29.820
   484.6,0.000180,0.000076, 29,0.004776,-0.000041,  29.818
   484.8,0.000181,0.000072, 29,0.004776,-0.000028,  29.823
   485.0,0.000179,0.000074, 29,0.004773,-0.000028,  29.822
   485.2,0.000176,0.000076, 29,0.004780,-0.000028,  29.822
   485.4,0.000181,0.000081, 29,0.004763,-0.000014,  29.824
   485.6,0.000186,0.000079, 29,0.004727,-0.000014,  29.824
   485.8,0.000183,0.000082, 29,0.004686,-0.000028,  29.821
   486.0,0.000183,0.000084, 29,0.004630,-0.000063,  29.824
   486.2,0.000184,0.000086, 29,0.004609,-0.000063,  29.825
   486.4,0.000179,0.000090, 29,0.004583,-0.000063,  29.828
   486.6,0.000174,0.000088, 29,0.004573,-0.000098,  29.820
   486.8,0.000169,0.000087, 29,0.004564,-0.000098,  29.825
   487.0,0.000162,0.000090, 29,0.004571,-0.000063,  29.826
   487.2,0.000167,0.000091, 29,0.004576,-0.000063,  29.827
   487.4,0.000170,0.000091, 29,0.004574,-0.000063,  29.829
   487.6,0.000167,0.000087, 29,0.004580,-0.000063,  29.831
   487.8,0.000175,0.000087, 29,0.004586,-0.000063,  29.830
   488.0,0.000179,0.000085, 29,0.004575,-0.000063,  29.827
   488.2,0.000176,0.000084, 29,0.004544,-0.000063,  29.830
   488.4,0.000179,0.000084, 29,0.004510,-0.000063,  29.831
   488.6,0.000176,0.000084, 29,0.004476,-0.000063,  29.831
   488.8,0.000173,0.000084, 29,0.004437,-0.000063,  29.837
   489.0,0.000179,0.000087, 29,0.004391,-0.000049,  29.835
   489.2,0.000184,0.000090, 29,0.004377,-0.000049,  29.833
   489.4,0.000179,0.000087, 29,0.004375,-0.000049,  29.838
   489.6,0.000179,0.000084, 29,0.004399,-0.000035,  29.841
   489.8,0.000176,0.000088, 29,0.004361,-0.000035,  29.839
   490.0,0.000171,0.000086, 29,0.004298,-0.000049,  29.842
   490.2,0.000171,0.000084, 29,0.004209,-0.000063,  29.842
   490.4,0.000174,0.000083, 29,0.004178,-0.000063,  29.842
   490.6,0.000171,0.000085, 29,0.004156,-0.000077,  29.842
   490.8,0.000176,0.000085, 29,0.004153,-0.000077,  29.842
   491.0,0.000186,0.000087, 29,0.004171,-0.000077,  29.841
   491.2,0.000183,0.000088, 29,0.004200,-0.000063,  29.848
   491.4,0.000181,0.000092, 29,0.004249,-0.000063,  29.848
   491.6,0.000174,0.000094, 29,0.004239,-0.000063,  29.848
   491.8,0.000172,0.000098, 29,0.004201,-0.000063,  29.851
   492.0,0.000167,0.000102, 29,0.004149,-0.000063,  29.851
   492.2,0.000177,0.000106, 29,0.004152,-0.000063,  29.852
   492.4,0.000176,0.000104, 29,0.004175,-0.000063,  29.852
   492.6,0.000176,0.000101, 29,0.004223,-0.000063,  29.856
   492.8,0.000178,0.000093, 29,0.004197,-0.000063,  29.859
   493.0,0.000183,0.000090, 29,0.004144,-0.000063,  29.863
   493.2,0.000180,0.000088, 29,0.004070,-0.000049,  29.859
   493.4,0.000180,0.000090, 29,0.004061,-0.000049,  29.863
   493.6,0.000188,0.000090, 29,0.004068,-0.000049,  29.864
   493.8,0.000183,0.000091, 29,0.004093,-0.000035,  29.865
   494.0,0.000188,0.000094, 29,0.004101,-0.000035,  29.864
   494.2,0.000191,0.000092, 29,0.004113,-0.000049,  29.864
   494.4,0.000186,0.000094, 29,0.004118,-0.000049,  29.864
   494.6,0.000187,0.000094, 29,0.004114,-0.000049,  29.869
   494.8,0.000177,0.000089, 29,0.004109,-0.000084,  29.864
   495.0,0.000172,0.000093, 29,0.004097,-0.000049,  29.867
   495.2,0.000179,0.000091, 29,0.004094,-0.000071,  29.870
   495.4,0.000177,0.000089, 29,0.004104,-0.000084,  29.869
   495.6,0.000172,0.000088, 29,0.004102,-0.000049,  29.871
   495.8,0.000179,0.000088, 29,0.004108,-0.000049,  29.870
   496.0,0.000179,0.000087, 29,0.004086,-0.000049,  29.872
   496.2,0.000174,0.000095, 29,0.004042,-0.000049,  29.872
   496.4,0.000179,0.000102, 29,0.003991,-0.000049,  29.872
   496.6,0.000179,0.000104, 29,0.003991,-0.000035,  29.876
   496.8,0.000174,0.000102, 29,0.003998,-0.000035,  29.877
   497.0,0.000182,0.000107, 29,0.004030,-0.000035,  29.876
   497.2,0.000182,0.000106, 29,0.004043,-0.000022,  29.876
   497.4,0.000174,0.000106, 29,0.004060,-0.000035,  29.880
   497.6,0.000172,0.000107, 29,0.004082,-0.000035,  29.879
   497.8,0.000162,0.000107, 29,0.004042,-0.000022,  29.878
   498.0,0.000162,0.000109, 29,0.003969,-0.000035,  29.879
   498.2,0.000164,0.000109, 29,0.003874,-0.000049,  29.878
   498.4,0.000169,0.000106, 29,0.003874,-0.000049,  29.878
   498.6,0.000168,0.000104, 29,0.003904,-0.000063,  29.881
   498.8,0.000170,0.000106, 29,0.003964,-0.000077,  29.882
   499.0,0.000173,0.000113, 29,0.003960,-0.000077,  29.884
   499.2,0.000177,0.000111, 29,0.003938,-0.000063,  29.882
   499.4,0.000177,0.000114, 29,0.003899,-0.000063,  29.880
   499.6,0.000185,0.000113, 29,0.003921,-0.000063,  29.880
   499.8,0.000193,0.000110, 29,0.003955,-0.000063,  29.883
   500.0,0.000193,0.000104, 29,0.004006,-0.000063,  29.882
   500.2,0.000185,0.000104, 29,0.004002,-0.000063,  29.878
   500.4,0.000185,0.000101, 29,0.003994,-0.000063,  29.881
   500.6,0.000190,0.000097, 29,0.003956,-0.000063,  29.884
   500.8,0.000192,0.000096, 29,0.003964,-0.000063,  29.885
   501.0,0.000192,0.000096, 29,0.003983,-0.000063,  29.885
   501.2,0.000194,0.000096, 29,0.004022,-0.000049,  29.884
   501.4,0.000192,0.000096, 29,0.004034,-0.000049,  29.888
   501.6,0.000190,0.000097, 29,0.004016,-0.000049,  29.885
   501.8,0.000185,0.000099, 29,0.004004,-0.000035,  29.887
   502.0,0.000186,0.000104, 29,0.003989,-0.000035,  29.887
   502.2,0.000176,0.000110, 29,0.003963,-0.000049,  29.890
   502.4,0.000169,0.000105, 29,0.003934,-0.000049,  29.891
   502.6,0.000169,0.000107, 29,0.003922,-0.000049,  29.892
   502.8,0.000174,0.000108, 29,0.003896,-0.000049,  29.888
   503.0,0.000169,0.000109, 29,0.003883,-0.000049,  29.894
   503.2,0.000171,0.000111, 29,0.003861,-0.000049,  29.890
   503.4,0.000171,0.000110, 29,0.003834,-0.000049,  29.892
   503.6,0.000169,0.000107, 29,0.003800,-0.000049,  29.890
   503.8,0.000164,0.000105, 29,0.003767,-0.000049,  29.892
   504.0,0.000160,0.000098, 29,0.003735,-0.000049,  29.890
   504.2,0.000157,0.000095, 29,0.003701,-0.000049,  29.890
   504.4,0.000164,0.000088, 29,0.003706,-0.000049,  29.892
   504.6,0.000176,0.000083, 29,0.003728,-0.000084,  29.887
   504.8,0.000176,0.000092, 29,0.003767,-0.000049,  29.890
   505.0,0.000183,0.000096, 29,0.003769,-0.000071,  29.888
   505.2,0.000189,0.000093, 29,0.003760,-0.000084,  29.890
   505.4,0.000181,0.000091, 29,0.003748,-0.000063,  29.889
   505.6,0.000179,0.000087, 29,0.003721,-0.000077,  29.888
   505.8,0.000172,0.000085, 29,0.003700,-0.000077,  29.886
   506.0,0.000165,0.000083, 29,0.003676,-0.000063,  29.889
   506.2,0.000165,0.000086, 29,0.003655,-0.000049,  29.888
   506.4,0.000163,0.000081, 29,0.003657,-0.000049,  29.887
   506.6,0.000158,0.000079, 29,0.003660,-0.000049,  29.885
   506.8,0.000158,0.000076, 29,0.003673,-0.000035,  29.883
   507.0,0.000159,0.000075, 29,0.003674,-0.000035,  29.890
   507.2,0.000151,0.000073, 29,0.003676,-0.000049,  29.885
   507.4,0.000149,0.000074, 29,0.003671,-0.000049,  29.889
   507.6,0.000147,0.000076, 29,0.003651,-0.000049,  29.887
   507.8,0.000141,0.000075, 29,0.003627,-0.000049,  29.884
   508.0,0.000141,0.000081, 29,0.003603,-0.000063,  29.888
   508.2,0.000138,0.000083, 29,0.003561,-0.000063,  29.885
   508.4,0.000138,0.000079, 29,0.003501,-0.000063,  29.881
   508.6,0.000133,0.000076, 29,0.003435,-0.000077,  29.884
   508.8,0.000126,0.000074, 29,0.003412,-0.000077,  29.880
   509.0,0.000126,0.000067, 29,0.003397,-0.000063,  29.881
   509.2,0.000126,0.000065, 29,0.003392,-0.000063,  29.885
   509.4,0.000129,0.000065, 29,0.003353,-0.000063,  29.885
   509.6,0.000124,0.000063, 29,0.003297,-0.000063,  29.881
   509.8,0.000126,0.000066, 29,0.003226,-0.000063,  29.881
   510.0,0.000129,0.000072, 29,0.003199,-0.000063,  29.886
   510.2,0.000126,0.000068, 29,0.003183,-0.000063,  29.880
   510.4,0.000129,0.000066, 29,0.003178,-0.000063,  29.878
   510.6,0.000137,0.000065, 29,0.003186,-0.000063,  29.883
   510.8,0.000137,0.000061, 29,0.003213,-0.000077,  29.882
   511.0,0.000133,0.000061, 29,0.003250,-0.000063,  29.880
   511.2,0.000137,0.000062, 29,0.003263,-0.000063,  29.881
   511.4,0.000132,0.000054, 29,0.003271,-0.000063,  29.883
   511.6,0.000132,0.000056, 29,0.003272,-0.000063,  29.880
   511.8,0.000129,0.000053, 29,0.003033,-0.000063,  29.880
   512.0,0.000135,0.000046, 29,0.002669,-0.000063,  29.883
   512.2,0.000129,0.000048, 29,0.002181,-0.000063,  29.884
   512.4,0.000135,0.000047, 29,0.002161,-0.000063,  29.885
   512.6,0.000133,0.000048, 29,0.002319,-0.000063,  29.881
   512.8,0.000129,0.000052, 29,0.002649,-0.000063,  29.881
   513.0,0.000142,0.000062, 29,0.002741,-0.000063,  29.886
   513.2,0.000151,0.000066, 29,0.002798,-0.000063,  29.884
   513.4,0.000141,0.000064, 29,0.002818,-0.000063,  29.886
   513.6,0.000137,0.000066, 29,0.002860,-0.000063,  29.885
   513.8,0.000126,0.000067, 29,0.002900,-0.000077,  29.884
   514.0,0.000118,0.000062, 29,0.002925,-0.000077,  29.885
   514.2,0.000118,0.000054, 29,0.002928,-0.000077,  29.888
   514.4,0.000116,0.000054, 29,0.002928,-0.000112,  29.884
   514.6,0.000111,0.000055, 29,0.002906,-0.000077,  29.885
   514.8,0.000111,0.000053, 29,0.002884,-0.000112,  29.883
   515.0,0.000111,0.000051, 29,0.002861,-0.000112,  29.882
   515.2,0.000105,0.000048, 29,0.002816,-0.000091,  29.883
   515.4,0.000103,0.000049, 29,0.002774,-0.000077,  29.880
   515.6,0.000106,0.000051, 29,0.002788,-0.000091,  29.883
   515.8,0.000101,0.000054, 29,0.002818,-0.000091,  29.886
   516.0,0.000101,0.000054, 29,0.002879,-0.000077,  29.882
   516.2,0.000106,0.000053, 29,0.002895,-0.000077,  29.887
   516.4,0.000103,0.000055, 29,0.002919,-0.000077,  29.885
   516.6,0.000105,0.000055, 29,0.002931,-0.000063,  29.887
   516.8,0.000115,0.000053, 29,0.002933,-0.000063,  29.887
   517.0,0.000110,0.000053, 29,0.002933,-0.000077,  29.887
   517.2,0.000105,0.000057, 29,0.002932,-0.000063,  29.886
   517.4,0.000106,0.000055, 29,0.002930,-0.000063,  29.889
   517.6,0.000098,0.000056, 29,0.002935,-0.000077,  29.890
   517.8,0.000098,0.000050, 29,0.002931,-0.000063,  29.888
   518.0,0.000104,0.000054, 29,0.002887,-0.000063,  29.888
   518.2,0.000101,0.000057, 29,0.002824,-0.000077,  29.891
   518.4,0.000103,0.000065, 29,0.002732,-0.000063,  29.894
   518.6,0.000115,0.000067, 29,0.002728,-0.000063,  29.894
   518.8,0.000115,0.000069, 29,0.002762,-0.000063,  29.896
   519.0,0.000118,0.000065, 29,0.002821,-0.000063,  29.895
   519.2,0.000126,0.000067, 29,0.002846,-0.000063,  29.895
   519.4,0.000118,0.000063, 29,0.002873,-0.000077,  29.893
   519.6,0.000114,0.000053, 29,0.002885,-0.000063,  29.894
   519.8,0.000109,0.000048, 29,0.002898,-0.000063,  29.894
   520.0,0.000101,0.000046, 29,0.002911,-0.000077,  29.895
   520.2,0.000107,0.000049, 29,0.002918,-0.000063,  29.890
   520.4,0.000109,0.000058, 29,0.002913,-0.000063,  29.891
   520.6,0.000107,0.000054, 29,0.002901,-0.000077,  29.892
   520.8,0.000109,0.000054, 29,0.002877,-0.000063,  29.893
   521.0,0.000112,0.000056, 29,0.002872,-0.000077,  29.891
   521.2,0.000112,0.000056, 29,0.002874,-0.000091,  29.890
   521.4,0.000110,0.000058, 29,0.002874,-0.000077,  29.888
   521.6,0.000107,0.000063, 29,0.002869,-0.000077,  29.878
   521.8,0.000105,0.000061, 29,0.002869,-0.000063,  29.876
   522.0,0.000104,0.000063, 29,0.002862,-0.000063,  29.877
   522.2,0.000107,0.000065, 29,0.002852,-0.000063,  29.878
   522.4,0.000117,0.000062, 29,0.002831,-0.000063,  29.875
   522.6,0.000111,0.000062, 29,0.002809,-0.000063,  29.876
   522.8,0.000104,0.000065, 29,0.002782,-0.000063,  29.874
   523.0,0.000097,0.000058, 29,0.002735,-0.000063,  29.873
   523.2,0.000089,0.000048, 29,0.002682,-0.000063,  29.868
   523.4,0.000087,0.000040, 29,0.002638,-0.000063,  29.872
   523.6,0.000090,0.000038, 29,0.002587,-0.000063,  29.867
   523.8,0.000087,0.000038, 29,0.002537,-0.000063,  29.869
   524.0,0.000094,0.000043, 29,0.002534,-0.000063,  29.862
   524.2,0.000110,0.000048, 29,0.002554,-0.000084,  29.865
   524.4,0.000107,0.000046, 29,0.002601,-0.000063,  29.862
   524.6,0.000104,0.000051, 29,0.002607,-0.000084,  29.859
   524.8,0.000104,0.000055, 29,0.002601,-0.000098,  29.854
   525.0,0.000101,0.000053, 29,0.002583,-0.000077,  29.854
   525.2,0.000104,0.000056, 29,0.002558,-0.000063,  29.858
   525.4,0.000104,0.000059, 29,0.002526,-0.000063,  29.856
   525.6,0.000099,0.000052, 29,0.002482,-0.000077,  29.851
   525.8,0.000100,0.000051, 29,0.002436,-0.000063,  29.854
   526.0,0.000093,0.000051, 29,0.002449,-0.000063,  29.853
   526.2,0.000085,0.000048, 29,0.002479,-0.000077,  29.850
   526.4,0.000090,0.000048, 29,0.002537,-0.000063,  29.849
   526.6,0.000086,0.000045, 29,0.002551,-0.000063,  29.848
   526.8,0.000080,0.000047, 29,0.002559,-0.000077,  29.836
   527.0,0.000086,0.000051, 29,0.002559,-0.000028,  29.839
   527.2,0.000086,0.000052, 29,0.002562,-0.000041,  29.838
   527.4,0.000083,0.000051, 29,0.002569,-0.000055,  29.839
   527.6,0.000083,0.000049, 29,0.002574,-0.000006,  29.833
   527.8,0.000077,0.000045, 29,0.002525,-0.000020,  29.834
   528.0,0.000077,0.000044, 29,0.002459,-0.000055,  29.832
   528.2,0.000080,0.000046, 29,0.002362,-0.000041,  29.836
   528.4,0.000083,0.000044, 29,0.002367,-0.000041,  29.833
   528.6,0.000083,0.000045, 29,0.002412,-0.000041,  29.831
   528.8,0.000085,0.000052, 29,0.002481,-0.000063,  29.829
   529.0,0.000087,0.000066, 29,0.002509,-0.000063,  29.829
   529.2,0.000087,0.000062, 29,0.002531,-0.000077,  29.829
   529.4,0.000097,0.000058, 29,0.002543,-0.000098,  29.829
   529.6,0.000102,0.000056, 29,0.002527,-0.000098,  29.827
   529.8,0.000099,0.000056, 29,0.002504,-0.000077,  29.828
   530.0,0.000104,0.000056, 29,0.002468,-0.000063,  29.829
   530.2,0.000102,0.000065, 29,0.002463,-0.000063,  29.827
   530.4,0.000104,0.000067, 29,0.002467,-0.000077,  29.827
   530.6,0.000107,0.000063, 29,0.002473,-0.000063,  29.830
   530.8,0.000114,0.000062, 29,0.002492,-0.000063,  29.826
   531.0,0.000118,0.000063, 29,0.002519,-0.000063,  29.829
   531.2,0.000121,0.000059, 29,0.002551,-0.000063,  29.830
   531.4,0.000123,0.000062, 29,0.002558,-0.000063,  29.833
   531.6,0.000121,0.000062, 29,0.002559,-0.000063,  29.832
   531.8,0.000118,0.000059, 29,0.002553,-0.000049,  29.832
   532.0,0.000126,0.000062, 29,0.002536,-0.000049,  29.834
   532.2,0.000130,0.000062, 29,0.002514,-0.000049,  29.831
   532.4,0.000125,0.000063, 29,0.002475,-0.000035,  29.831
   532.6,0.000128,0.000065, 29,0.002466,-0.000035,  29.826
   532.8,0.000131,0.000062, 29,0.002473,-0.000049,  29.829
   533.0,0.000126,0.000057, 29,0.002490,-0.000049,  29.828
   533.2,0.000118,0.000048, 29,0.002492,-0.000049,  29.824
   533.4,0.000117,0.000049, 29,0.002490,-0.000049,  29.828
   533.6,0.000107,0.000046, 29,0.002492,-0.000049,  29.823
   533.8,0.000104,0.000051, 29,0.002483,-0.000049,  29.823
   534.0,0.000097,0.000051, 29,0.002476,-0.000084,  29.829
   534.2,0.000087,0.000051, 29,0.002451,-0.000049,  29.819
   534.4,0.000090,0.000050, 29,0.002439,-0.000071,  29.820
   534.6,0.000088,0.000049, 29,0.002423,-0.000084,  29.822
   534.8,0.000080,0.000052, 29,0.002412,-0.000049,  29.824
   535.0,0.000081,0.000049, 29,0.002391,-0.000049,  29.821
   535.2,0.000079,0.000049, 29,0.002365,-0.000035,  29.825
   535.4,0.000073,0.000046, 29,0.002333,-0.000035,  29.820
   535.6,0.000076,0.000048, 29,0.002292,-0.000035,  29.823
   535.8,0.000079,0.000042, 29,0.002288,-0.000035,  29.821
   536.0,0.000074,0.000037, 29,0.002300,-0.000049,  29.823
   536.2,0.000076,0.000031, 29,0.002317,-0.000063,  29.820
   536.4,0.000082,0.000027, 29,0.002318,-0.000063,  29.820
   536.6,0.000074,0.000027, 29,0.002313,-0.000063,  29.821
   536.8,0.000072,0.000034, 29,0.002297,-0.000077,  29.820
   537.0,0.000067,0.000034, 29,0.002239,-0.000091,  29.817
   537.2,0.000064,0.000031, 29,0.002170,-0.000091,  29.821
   537.4,0.000074,0.000034, 29,0.002074,-0.000077,  29.815
   537.6,0.000081,0.000033, 29,0.002043,-0.000091,  29.814
   537.8,0.000080,0.000036, 29,0.002043,-0.000091,  29.814
   538.0,0.000083,0.000042, 29,0.002070,-0.000077,  29.810
   538.2,0.000084,0.000049, 29,0.002078,-0.000077,  29.814
   538.4,0.000079,0.000051, 29,0.002093,-0.000077,  29.808
   538.6,0.000076,0.000049, 29,0.002117,-0.000063,  29.813
   538.8,0.000079,0.000043, 29,0.002125,-0.000063,  29.813
   539.0,0.000079,0.000041, 29,0.002128,-0.000077,  29.813
   539.2,0.000083,0.000038, 29,0.002128,-0.000063,  29.813
   539.4,0.000096,0.000040, 29,0.002111,-0.000063,  29.809
   539.6,0.000090,0.000044, 29,0.002075,-0.000077,  29.810
   539.8,0.000096,0.000042, 29,0.002023,-0.000063,  29.811
   540.0,0.000096,0.000040, 29,0.002020,-0.000063,  29.809
   540.2,0.000096,0.000044, 29,0.002037,-0.000077,  29.813
   540.4,0.000089,0.000044, 29,0.002072,-0.000063,  29.810
   540.6,0.000086,0.000044, 29,0.002075,-0.000063,  29.810
   540.8,0.000076,0.000039, 29,0.002081,-0.000077,  29.812
   541.0,0.000073,0.000037, 29,0.002078,-0.000063,  29.813
   541.2,0.000076,0.000037, 29,0.002084,-0.000063,  29.809
   541.4,0.000086,0.000034, 29,0.002086,-0.000063,  29.810
   541.6,0.000083,0.000034, 29,0.002081,-0.000063,  29.811
   541.8,0.000088,0.000034, 29,0.002059,-0.000063,  29.808
   542.0,0.000086,0.000034, 29,0.002016,-0.000077,  29.810
   542.2,0.000083,0.000030, 29,0.001973,-0.000063,  29.806
   542.4,0.000088,0.000029, 29,0.001927,-0.000063,  29.808
   542.6,0.000086,0.000022, 29,0.001875,-0.000077,  29.810
   542.8,0.000083,0.000019, 29,0.001816,-0.000063,  29.813
   543.0,0.000088,0.000018, 29,0.001799,-0.000077,  29.808
   543.2,0.000086,0.000017, 29,0.001801,-0.000091,  29.810
   543.4,0.000080,0.000024, 29,0.001813,-0.000091,  29.810
   543.6,0.000081,0.000036, 29,0.001831,-0.000091,  29.812
   543.8,0.000074,0.000035, 29,0.001861,-0.000112,  29.813
   544.0,0.000068,0.000040, 29,0.001901,-0.000091,  29.812
   544.2,0.000074,0.000042, 29,0.001913,-0.000112,  29.814
   544.4,0.000074,0.000041, 29,0.001906,-0.000112,  29.805
   544.6,0.000068,0.000041, 29,0.001901,-0.000077,  29.810
   544.8,0.000074,0.000043, 29,0.001880,-0.000063,  29.816
   545.0,0.000074,0.000043, 29,0.001871,-0.000063,  29.810
   545.2,0.000071,0.000036, 29,0.001856,-0.000077,  29.815
   545.4,0.000079,0.000029, 29,0.001844,-0.000063,  29.816
   545.6,0.000083,0.000028, 29,0.001851,-0.000063,  29.814
   545.8,0.000080,0.000030, 29,0.001873,-0.000077,  29.813
   546.0,0.000083,0.000031, 29,0.001900,-0.000063,  29.818
   546.2,0.000081,0.000031, 29,0.001906,-0.000063,  29.818
   546.4,0.000078,0.000036, 29,0.001915,-0.000077,  29.817
   546.6,0.000081,0.000043, 29,0.001903,-0.000063,  29.821
   546.8,0.000079,0.000047, 29,0.001893,-0.000077,  29.819
   547.0,0.000076,0.000043, 29,0.001873,-0.000091,  29.820
   547.2,0.000076,0.000040, 29,0.001849,-0.000077,  29.819
   547.4,0.000078,0.000034, 29,0.001832,-0.000091,  29.819
   547.6,0.000077,0.000032, 29,0.001821,-0.000091,  29.815
   547.8,0.000083,0.000033, 29,0.001811,-0.000077,  29.824
   548.0,0.000090,0.000035, 29,0.001818,-0.000077,  29.822
   548.2,0.000085,0.000041, 29,0.001840,-0.000063,  29.824
   548.4,0.000086,0.000044, 29,0.001872,-0.000063,  29.822
   548.6,0.000079,0.000047, 29,0.001873,-0.000063,  29.821
   548.8,0.000073,0.000052, 29,0.001863,-0.000063,  29.819
   549.0,0.000081,0.000049, 29,0.001840,-0.000063,  29.826
   549.2,0.000088,0.000052, 29,0.001828,-0.000063,  29.826
   549.4,0.000083,0.000048, 29,0.001811,-0.000077,  29.826
   549.6,0.000088,0.000042, 29,0.001789,-0.000063,  29.826
   549.8,0.000086,0.000040, 29,0.001785,-0.000063,  29.822
   550.0,0.000086,0.000039, 29,0.001790,-0.000077,  29.822
   550.2,0.000086,0.000043, 29,0.001793,-0.000063,  29.824
   550.4,0.000088,0.000049, 29,0.001805,-0.000063,  29.821
   550.6,0.000086,0.000045, 29,0.001817,-0.000077,  29.818
   550.8,0.000080,0.000045, 29,0.001836,-0.000063,  29.819
   551.0,0.000086,0.000043, 29,0.001846,-0.000063,  29.820
   551.2,0.000078,0.000043, 29,0.001843,-0.000077,  29.822
   551.4,0.000077,0.000043, 29,0.001832,-0.000063,  29.821
   551.6,0.000079,0.000045, 29,0.001839,-0.000077,  29.819
   551.8,0.000090,0.000042, 29,0.001849,-0.000091,  29.823
   552.0,0.000087,0.000048, 29,0.001851,-0.000077,  29.826
   552.2,0.000087,0.000050, 29,0.001845,-0.000077,  29.822
   552.4,0.000090,0.000050, 29,0.001840,-0.000077,  29.817
   552.6,0.000084,0.000052, 29,0.001818,-0.000063,  29.818
   552.8,0.000087,0.000056, 29,0.001808,-0.000063,  29.821
   553.0,0.000092,0.000052, 29,0.001799,-0.000077,  29.818
   553.2,0.000087,0.000051, 29,0.001798,-0.000077,  29.821
   553.4,0.000087,0.000052, 29,0.001787,-0.000063,  29.820
   553.6,0.000090,0.000048, 29,0.001782,-0.000098,  29.820
   553.8,0.000082,0.000039, 29,0.001776,-0.000063,  29.819
   554.0,0.000075,0.000036, 29,0.001764,-0.000084,  29.819
   554.2,0.000073,0.000036, 29,0.001742,-0.000084,  29.821
   554.4,0.000068,0.000034, 29,0.001724,-0.000063,  29.825
   554.6,0.000068,0.000043, 29,0.001695,-0.000063,  29.823
   554.8,0.000078,0.000043, 29,0.001694,-0.000063,  29.825
   555.0,0.000077,0.000039, 29,0.001694,-0.000063,  29.826
   555.2,0.000085,0.000043, 29,0.001702,-0.000063,  29.827
   555.4,0.000095,0.000043, 29,0.001709,-0.000063,  29.828
   555.6,0.000092,0.000037, 29,0.001727,-0.000063,  29.829
   555.8,0.000097,0.000034, 29,0.001744,-0.000063,  29.832
   556.0,0.000093,0.000037, 29,0.001746,-0.000063,  29.829
   556.2,0.000087,0.000035, 29,0.001751,-0.000063,  29.831
   556.4,0.000095,0.000037, 29,0.001744,-0.000063,  29.825
   556.6,0.000093,0.000036, 29,0.001729,-0.000063,  29.830
   556.8,0.000085,0.000039, 29,0.001702,-0.000063,  29.829
   557.0,0.000090,0.000050, 29,0.001672,-0.000063,  29.827
   557.2,0.000093,0.000057, 29,0.001678,-0.000063,  29.834
   557.4,0.000086,0.000053, 29,0.001696,-0.000063,  29.831
   557.6,0.000081,0.000049, 29,0.001739,-0.000063,  29.837
   557.8,0.000084,0.000043, 29,0.001752,-0.000063,  29.838
   558.0,0.000081,0.000043, 29,0.001769,-0.000063,  29.836
   558.2,0.000083,0.000041, 29,0.001776,-0.000063,  29.845
   558.4,0.000091,0.000048, 29,0.001777,-0.000063,  29.841
   558.6,0.000088,0.000045, 29,0.001777,-0.000063,  29.844
   558.8,0.000086,0.000044, 29,0.001765,-0.000063,  29.838
   559.0,0.000089,0.000035, 29,0.001762,-0.000063,  29.842
   559.2,0.000086,0.000029, 29,0.001772,-0.000077,  29.843
   559.4,0.000086,0.000025, 29,0.001768,-0.000063,  29.842
   559.6,0.000093,0.000018, 29,0.001753,-0.000063,  29.839
   559.8,0.000093,0.000013, 29,0.001726,-0.000077,  29.842
   560.0,0.000086,0.000013, 29,0.001692,-0.000063,  29.840
   560.2,0.000081,0.000017, 29,0.001687,-0.000063,  29.841
   560.4,0.000076,0.000016, 29,0.001679,-0.000063,  29.838
   560.6,0.000072,0.000016, 29,0.001690,-0.000063,  29.838
   560.8,0.000065,0.000019, 29,0.001691,-0.000063,  29.841
   561.0,0.000057,0.000020, 29,0.001691,-0.000063,  29.846
   561.2,0.000052,0.000025, 29,0.001691,-0.000063,  29.841
   561.4,0.000057,0.000033, 29,0.001693,-0.000063,  29.838
   561.6,0.000062,0.000032, 29,0.001686,-0.000077,  29.836
   561.8,0.000061,0.000032, 29,0.001681,-0.000063,  29.845
   562.0,0.000069,0.000033, 29,0.001649,-0.000063,  29.838
   562.2,0.000074,0.000027, 29,0.001598,-0.000077,  29.837
   562.4,0.000073,0.000025, 29,0.001532,-0.000063,  29.843
   562.6,0.000081,0.000028, 29,0.001522,-0.000063,  29.832
   562.8,0.000081,0.000026, 29,0.001527,-0.000077,  29.838
   563.0,0.000076,0.000026, 29,0.001545,-0.000077,  29.840
   563.2,0.000079,0.000036, 29,0.001517,-0.000063,  29.833
   563.4,0.000072,0.000034, 29,0.001475,-0.000098,  29.840
   563.6,0.000064,0.000025, 29,0.001410,-0.000063,  29.833
   563.8,0.000069,0.000024, 29,0.001393,-0.000098,  29.835
   564.0,0.000067,0.000023, 29,0.001394,-0.000098,  29.832
   564.2,0.000059,0.000021, 29,0.001407,-0.000091,  29.830
   564.4,0.000065,0.000023, 29,0.001437,-0.000077,  29.826
   564.6,0.000065,0.000020, 29,0.001440,-0.000091,  29.828
   564.8,0.000061,0.000014, 29,0.001445,-0.000091,  29.824
   565.0,0.000065,0.000004, 29,0.001452,-0.000077,  29.827
   565.2,0.000060,0.000006, 29,0.001464,-0.000091,  29.824
   565.4,0.000057,0.000007, 29,0.001475,-0.000091,  29.819
   565.6,0.000060,0.000010, 29,0.001489,-0.000077,  29.816
   565.8,0.000057,0.000010, 29,0.001478,-0.000091,  29.815
   566.0,0.000054,0.000009, 29,0.001456,-0.000091,  29.816
   566.2,0.000057,0.000009, 29,0.001423,-0.000077,  29.815
   566.4,0.000057,0.000005, 29,0.001409,-0.000091,  29.813
   566.6,0.000054,0.000005, 29,0.001404,-0.000104,  29.812
   566.8,0.000052,0.000005, 29,0.001407,-0.000091,  29.813
   567.0,0.000052,0.000005, 29,0.001358,-0.000091,  29.805
   567.2,0.000047,0.000011, 29,0.001291,-0.000091,  29.809
   567.4,0.000047,0.000019, 29,0.001210,-0.000077,  29.807
   567.6,0.000048,0.000026, 29,0.001211,-0.000091,  29.808
   567.8,0.000040,0.000028, 29,0.001236,-0.000091,  29.807
   568.0,0.000043,0.000030, 29,0.001295,-0.000077,  29.805
   568.2,0.000041,0.000031, 29,0.001313,-0.000091,  29.809
   568.4,0.000036,0.000028, 29,0.001316,-0.000091,  29.812
   568.6,0.000041,0.000024, 29,0.001309,-0.000077,  29.809
   568.8,0.000043,0.000016, 29,0.001310,-0.000091,  29.805
   569.0,0.000045,0.000019, 29,0.001317,-0.000104,  29.805
   569.2,0.000057,0.000030, 29,0.001317,-0.000091,  29.806
   569.4,0.000067,0.000040, 29,0.001301,-0.000091,  29.810
   569.6,0.000069,0.000042, 29,0.001285,-0.000104,  29.811
   569.8,0.000074,0.000040, 29,0.001260,-0.000091,  29.809
   570.0,0.000072,0.000038, 29,0.001266,-0.000077,  29.810
   570.2,0.000069,0.000042, 29,0.001278,-0.000077,  29.813
   570.4,0.000072,0.000042, 29,0.001301,-0.000063,  29.813
   570.6,0.000067,0.000045, 29,0.001318,-0.000063,  29.811
   570.8,0.000065,0.000047, 29,0.001330,-0.000077,  29.808
   571.0,0.000059,0.000045, 29,0.001348,-0.000063,  29.811
   571.2,0.000065,0.000039, 29,0.001359,-0.000077,  29.813
   571.4,0.000065,0.000031, 29,0.001376,-0.000091,  29.813
   571.6,0.000059,0.000031, 29,0.001388,-0.000077,  29.816
   571.8,0.000060,0.000031, 29,0.001378,-0.000091,  29.817
   572.0,0.000053,0.000028, 29,0.001366,-0.000091,  29.817
   572.2,0.000047,0.000030, 29,0.001337,-0.000077,  29.819
   572.4,0.000053,0.000028, 29,0.001315,-0.000077,  29.823
   572.6,0.000053,0.000026, 29,0.001283,-0.000077,  29.820
   572.8,0.000047,0.000022, 29,0.001258,-0.000077,  29.826
   573.0,0.000055,0.000017, 29,0.001263,-0.000063,  29.820
   573.2,0.000055,0.000015, 29,0.001275,-0.000112,  29.823
   573.4,0.000052,0.000017, 29,0.001304,-0.000077,  29.818
   573.6,0.000062,0.000018, 29,0.001310,-0.000098,  29.820
   573.8,0.000065,0.000016, 29,0.001322,-0.000112,  29.818
   574.0,0.000061,0.000017, 29,0.001329,-0.000077,  29.820
   574.2,0.000065,0.000017, 29,0.001339,-0.000063,  29.819
   574.4,0.000060,0.000018, 29,0.001329,-0.000063,  29.820
   574.6,0.000052,0.000013, 29,0.001313,-0.000063,  29.819
   574.8,0.000058,0.000013, 29,0.001287,-0.000063,  29.820
   575.0,0.000054,0.000018, 29,0.001287,-0.000063,  29.825
   575.2,0.000049,0.000021, 29,0.001284,-0.000063,  29.821
   575.4,0.000050,0.000024, 29,0.001284,-0.000063,  29.823
   575.6,0.000047,0.000020, 29,0.001285,-0.000063,  29.824
   575.8,0.000049,0.000014, 29,0.001285,-0.000063,  29.826
   576.0,0.000056,0.000006, 29,0.001280,-0.000028,  29.822
   576.2,0.000060,0.000007, 29,0.001258,-0.000028,  29.821
   576.4,0.000061,0.000006, 29,0.001218,-0.000041,  29.822
   576.6,0.000069,0.000015, 29,0.001161,0.000008,  29.824
   576.8,0.000075,0.000022, 29,0.001127,-0.000006,  29.827
   577.0,0.000069,0.000023, 29,0.001093,-0.000055,  29.818
   577.2,0.000069,0.000027, 29,0.001060,-0.000041,  29.822
   577.4,0.000070,0.000027, 29,0.001071,-0.000055,  29.817
   577.6,0.000062,0.000025, 29,0.001101,-0.000055,  29.818
   577.8,0.000060,0.000024, 29,0.001158,-0.000041,  29.814
   578.0,0.000055,0.000026, 29,0.001188,-0.000055,  29.813
   578.2,0.000052,0.000023, 29,0.001202,-0.000055,  29.815
   578.4,0.000060,0.000023, 29,0.001222,-0.000041,  29.813
   578.6,0.000062,0.000026, 29,0.001230,-0.000055,  29.811
   578.8,0.000059,0.000028, 29,0.001235,-0.000055,  29.805
   579.0,0.000060,0.000030, 29,0.001234,-0.000041,  29.803
   579.2,0.000057,0.000027, 29,0.001240,-0.000055,  29.800
   579.4,0.000055,0.000024, 29,0.001240,-0.000055,  29.800
   579.6,0.000050,0.000020, 29,0.001240,-0.000041,  29.802
   579.8,0.000053,0.000012, 29,0.001235,-0.000055,  29.799
   580.0,0.000045,0.000008, 29,0.001224,-0.000069,  29.801
   580.2,0.000043,0.000005, 29,0.001205,-0.000055,  29.796
   580.4,0.000038,0.000006, 29,0.001196,-0.000055,  29.796
   580.6,0.000041,0.000006, 29,0.001198,-0.000055,  29.798
   580.8,0.000038,0.000004, 29,0.001199,-0.000041,  29.797
   581.0,0.000048,0.000009, 29,0.001199,-0.000055,  29.795
   581.2,0.000055,0.000011, 29,0.001199,-0.000055,  29.793
   581.4,0.000054,0.000003, 29,0.001202,-0.000041,  29.797
   581.6,0.000059,-0.000000, 29,0.001168,-0.000055,  29.796
   581.8,0.000061,-0.000000, 29,0.001124,-0.000055,  29.789
   582.0,0.000056,-0.000006, 29,0.001065,-0.000055,  29.789
   582.2,0.000054,-0.000006, 29,0.001049,-0.000055,  29.790
   582.4,0.000054,-0.000003, 29,0.001049,-0.000041,  29.788
   582.6,0.000051,-0.000003, 29,0.001059,-0.000055,  29.785
   582.8,0.000051,0.000001, 29,0.001077,-0.000055,  29.776
   583.0,0.000054,0.000008, 29,0.001111,-0.000041,  29.777
   583.2,0.000054,0.000015, 29,0.001151,-0.000055,  29.771
   583.4,0.000056,0.000025, 29,0.001151,-0.000041,  29.760
   583.6,0.000064,0.000028, 29,0.001141,-0.000055,  29.750
   583.8,0.000058,0.000028, 29,0.001112,-0.000069,  29.748
   584.0,0.000058,0.000029, 29,0.001077,-0.000055,  29.742
   584.2,0.000059,0.000029, 29,0.001084,-0.000055,  29.742
   584.4,0.000058,0.000034, 29,0.001094,-0.000069,  29.738
   584.6,0.000063,0.000034, 29,0.001125,-0.000055,  29.735
   584.8,0.000076,0.000032, 29,0.001136,-0.000041,  29.732
   585.0,0.000072,0.000028, 29,0.001145,-0.000041,  29.735
   585.2,0.000070,0.000031, 29,0.001144,-0.000028,  29.729
   585.4,0.000068,0.000029, 29,0.001167,-0.000028,  29.722
   585.6,0.000063,0.000028, 29,0.001200,-0.000041,  29.727
   585.8,0.000065,0.000026, 29,0.001233,-0.000028,  29.723
   586.0,0.000071,0.000028, 29,0.001252,-0.000041,  29.722
   586.2,0.000065,0.000029, 29,0.001265,-0.000055,  29.719
   586.4,0.000068,0.000032, 29,0.001282,-0.000041,  29.713
   586.6,0.000071,0.000042, 29,0.001288,-0.000055,  29.711
   586.8,0.000065,0.000041, 29,0.001298,-0.000055,  29.710
   587.0,0.000065,0.000036, 29,0.001298,-0.000041,  29.712
   587.2,0.000068,0.000031, 29,0.001295,-0.000055,  29.705
   587.4,0.000061,0.000031, 29,0.001297,-0.000055,  29.708
   587.6,0.000064,0.000034, 29,0.001280,-0.000041,  29.707
   587.8,0.000065,0.000040, 29,0.001271,-0.000055,  29.701
   588.0,0.000064,0.000041, 29,0.001270,-0.000055,  29.704
   588.2,0.000074,0.000045, 29,0.001260,-0.000041,  29.707
   588.4,0.000083,0.000048, 29,0.001254,-0.000055,  29.701
   588.6,0.000083,0.000046, 29,0.001243,-0.000055,  29.707
   588.8,0.000083,0.000042, 29,0.001226,-0.000041,  29.707
   589.0,0.000079,0.000041, 29,0.001199,-0.000055,  29.704
   589.2,0.000079,0.000033, 29,0.001160,-0.000069,  29.708
   589.4,0.000073,0.000031, 29,0.001111,-0.000055,  29.706
   589.6,0.000079,0.000031, 29,0.001112,-0.000055,  29.708
   589.8,0.000073,0.000027, 29,0.001134,-0.000069,  29.708
   590.0,0.000065,0.000025, 29,0.001164,-0.000091,  29.709
   590.2,0.000064,0.000033, 29,0.001177,-0.000091,  29.713
   590.4,0.000059,0.000032, 29,0.001194,-0.000091,  29.710
   590.6,0.000054,0.000031, 29,0.001199,-0.000112,  29.706
   590.8,0.000051,0.000031, 29,0.001191,-0.000126,  29.710
   591.0,0.000057,0.000027, 29,0.001184,-0.000091,  29.709
   591.2,0.000056,0.000025, 29,0.001157,-0.000077,  29.706
   591.4,0.000056,0.000020, 29,0.001125,-0.000091,  29.706
   591.6,0.000058,0.000014, 29,0.001103,-0.000104,  29.711
   591.8,0.000061,0.000020, 29,0.001062,-0.000104,  29.713
   592.0,0.000061,0.000028, 29,0.001035,-0.000104,  29.715
   592.2,0.000064,0.000028, 29,0.001016,-0.000126,  29.715
   592.4,0.000056,0.000032, 29,0.000994,-0.000091,  29.709
   592.6,0.000061,0.000037, 29,0.001006,-0.000112,  29.712
   592.8,0.000067,0.000038, 29,0.001035,-0.000098,  29.714
   593.0,0.000059,0.000042, 29,0.001079,-0.000063,  29.714
   593.2,0.000065,0.000047, 29,0.001095,-0.000063,  29.715
   593.4,0.000067,0.000048, 29,0.001117,-0.000063,  29.717
   593.6,0.000064,0.000046, 29,0.001119,-0.000063,  29.719
   593.8,0.000072,0.000044, 29,0.001120,-0.000063,  29.719
   594.0,0.000074,0.000044, 29,0.001122,-0.000063,  29.720
   594.2,0.000073,0.000039, 29,0.001120,-0.000077,  29.721
   594.4,0.000081,0.000032, 29,0.001124,-0.000063,  29.718
   594.6,0.000081,0.000031, 29,0.001124,-0.000063,  29.720
   594.8,0.000076,0.000027, 29,0.001134,-0.000077,  29.718
   595.0,0.000079,0.000025, 29,0.001136,-0.000063,  29.722
   595.2,0.000072,0.000027, 29,0.001109,-0.000063,  29.722
   595.4,0.000066,0.000034, 29,0.001075,-0.000077,  29.719
   595.6,0.000074,0.000042, 29,0.001027,-0.000063,  29.720
   595.8,0.000072,0.000043, 29,0.001008,-0.000063,  29.725
   596.0,0.000066,0.000045, 29,0.000997,-0.000077,  29.726
   596.2,0.000074,0.000043, 29,0.000985,-0.000063,  29.725
   596.4,0.000074,0.000045, 29,0.000980,-0.000077,  29.729
   596.6,0.000066,0.000047, 29,0.000989,-0.000091,  29.735
   596.8,0.000064,0.000045, 29,0.000985,-0.000077,  29.734
   597.0,0.000061,0.000045, 29,0.000958,-0.000091,  29.734
   597.2,0.000056,0.000039, 29,0.000928,-0.000091,  29.740
   597.4,0.000066,0.000034, 29,0.000872,-0.000077,  29.741
   597.6,0.000076,0.000033, 29,0.000885,-0.000091,  29.741
   597.8,0.000076,0.000031, 29,0.000931,-0.000091,  29.747
   598.0,0.000086,0.000031, 29,0.000999,-0.000077,  29.749
   598.2,0.000088,0.000033, 29,0.001019,-0.000091,  29.748
   598.4,0.000085,0.000028, 29,0.001031,-0.000091,  29.749
   598.6,0.000085,0.000022, 29,0.001041,-0.000077,  29.747
   598.8,0.000085,0.000011, 29,0.001043,-0.000091,  29.747
   599.0,0.000085,0.000009, 29,0.001041,-0.000091,  29.751
   599.2,0.000077,0.000011, 29,0.001026,-0.000077,  29.753
   599.4,0.000080,0.000014, 29,0.001039,-0.000091,  29.752
   599.6,0.000076,0.000014, 29,0.001066,-0.000091,  29.751
   599.8,0.000068,0.000017, 29,0.001089,-0.000077,  29.755
   600.0,0.000068,0.000020, 29,0.001095,-0.000091,  29.754
   600.2,0.000064,0.000020, 29,0.001093,-0.000091,  29.758
   600.4,0.000058,0.000021, 29,0.001080,-0.000077,  29.761
   600.6,0.000068,0.000020, 29,0.001080,-0.000091,  29.760
   600.8,0.000076,0.000021, 29,0.001090,-0.000091,  29.761
   601.0,0.000071,0.000019, 29,0.001097,-0.000077,  29.760
   601.2,0.000076,0.000018, 29,0.001098,-0.000077,  29.765
   601.4,0.000077,0.000022, 29,0.001103,-0.000077,  29.760
   601.6,0.000072,0.000021, 29,0.001097,-0.000077,  29.758
   601.8,0.000076,0.000027, 29,0.001088,-0.000063,  29.762
   602.0,0.000076,0.000031, 29,0.001085,-0.000112,  29.764
   602.2,0.000068,0.000031, 29,0.001077,-0.000077,  29.769
   602.4,0.000072,0.000032, 29,0.001084,-0.000077,  29.767
   602.6,0.000065,0.000037, 29,0.001095,-0.000091,  29.768
   602.8,0.000061,0.000041, 29,0.001123,-0.000069,  29.770
   603.0,0.000069,0.000046, 29,0.001139,-0.000020,  29.767
   603.2,0.000072,0.000043, 29,0.001147,-0.000020,  29.770
   603.4,0.000071,0.000045, 29,0.001173,-0.000069,  29.771
   603.6,0.000083,0.000048, 29,0.001180,-0.000055,  29.771
   603.8,0.000093,0.000044, 29,0.001174,-0.000055,  29.771
   604.0,0.000088,0.000039, 29,0.001158,-0.000069,  29.775
   604.2,0.000086,0.000039, 29,0.001134,-0.000055,  29.771
   604.4,0.000081,0.000037, 29,0.001111,-0.000055,  29.773
   604.6,0.000076,0.000041, 29,0.001082,-0.000055,  29.770
   604.8,0.000079,0.000047, 29,0.001049,-0.000041,  29.772
   605.0,0.000077,0.000047, 29,0.001050,-0.000055,  29.774
   605.2,0.000069,0.000042, 29,0.001073,-0.000055,  29.774
   605.4,0.000069,0.000039, 29,0.001123,-0.000041,  29.773
   605.6,0.000072,0.000039, 29,0.001136,-0.000041,  29.773
   605.8,0.000067,0.000035, 29,0.001146,-0.000041,  29.777
   606.0,0.000067,0.000040, 29,0.001146,-0.000028,  29.777
   606.2,0.000069,0.000043, 29,0.001146,-0.000028,  29.775
   606.4,0.000064,0.000045, 29,0.001131,-0.000041,  29.773
   606.6,0.000069,0.000046, 29,0.001109,-0.000028,  29.774
   606.8,0.000067,0.000046, 29,0.001102,-0.000028,  29.774
   607.0,0.000064,0.000050, 29,0.001094,-0.000041,  29.776
   607.2,0.000068,0.000048, 29,0.001082,-0.000028,  29.775
   607.4,0.000078,0.000051, 29,0.001095,-0.000028,  29.775
   607.6,0.000075,0.000053, 29,0.001114,-0.000041,  29.774
   607.8,0.000072,0.000050, 29,0.001147,-0.000028,  29.775
   608.0,0.000071,0.000053, 29,0.001164,-0.000028,  29.772
   608.2,0.000065,0.000051, 29,0.001166,-0.000041,  29.777
   608.4,0.000063,0.000052, 29,0.001173,-0.000028,  29.776
   608.6,0.000064,0.000050, 29,0.001166,-0.000028,  29.780
   608.8,0.000061,0.000048, 29,0.001150,-0.000041,  29.783
   609.0,0.000064,0.000042, 29,0.001130,-0.000028,  29.782
   609.2,0.000061,0.000039, 29,0.001120,-0.000028,  29.779
   609.4,0.000069,0.000037, 29,0.001120,-0.000041,  29.782
   609.6,0.000072,0.000037, 29,0.001125,-0.000028,  29.785
   609.8,0.000075,0.000043, 29,0.001143,-0.000028,  29.788
   610.0,0.000075,0.000041, 29,0.001160,-0.000041,  29.791
   610.2,0.000069,0.000036, 29,0.001187,-0.000028,  29.791
   610.4,0.000069,0.000036, 29,0.001199,-0.000028,  29.792
   610.6,0.000075,0.000041, 29,0.001200,-0.000041,  29.791
   610.8,0.000072,0.000040, 29,0.001195,-0.000028,  29.791
   611.0,0.000079,0.000045, 29,0.001190,-0.000028,  29.796
   611.2,0.000091,0.000047, 29,0.001174,-0.000041,  29.792
   611.4,0.000090,0.000045, 29,0.001154,-0.000041,  29.798
   611.6,0.000090,0.000046, 29,0.001137,-0.000028,  29.798
   611.8,0.000090,0.000046, 29,0.001124,-0.000041,  29.794
   612.0,0.000080,0.000040, 29,0.001101,-0.000041,  29.797
   612.2,0.000079,0.000039, 29,0.001102,-0.000028,  29.793
   612.4,0.000067,0.000039, 29,0.001119,-0.000041,  29.797
   612.6,0.000059,0.000036, 29,0.001128,-0.000041,  29.801
   612.8,0.000067,0.000040, 29,0.001130,-0.000028,  29.801
   613.0,0.000072,0.000039, 29,0.001128,-0.000028,  29.798
   613.2,0.000066,0.000031, 29,0.001125,-0.000041,  29.804
   613.4,0.000069,0.000030, 29,0.001111,-0.000028,  29.800
   613.6,0.000062,0.000030, 29,0.001091,-0.000041,  29.801
   613.8,0.000059,0.000026, 29,0.001078,-0.000069,  29.799
   614.0,0.000065,0.000030, 29,0.001054,-0.000055,  29.803
   614.2,0.000069,0.000028, 29,0.001044,-0.000055,  29.802
   614.4,0.000066,0.000023, 29,0.001046,-0.000069,  29.801
   614.6,0.000076,0.000020, 29,0.001041,-0.000055,  29.802
   614.8,0.000076,0.000022, 29,0.001043,-0.000055,  29.800
   615.0,0.000073,0.000022, 29,0.001053,-0.000069,  29.798
   615.2,0.000076,0.000029, 29,0.001070,-0.000055,  29.801
   615.4,0.000072,0.000027, 29,0.001078,-0.000055,  29.796
   615.6,0.000072,0.000029, 29,0.001088,-0.000069,  29.796
   615.8,0.000068,0.000027, 29,0.001089,-0.000055,  29.797
   616.0,0.000061,0.000028, 29,0.001056,-0.000055,  29.796
   616.2,0.000061,0.000026, 29,0.000995,-0.000069,  29.796
   616.4,0.000063,0.000025, 29,0.000914,-0.000055,  29.793
   616.6,0.000061,0.000023, 29,0.000909,-0.000055,  29.792
   616.8,0.000058,0.000019, 29,0.000922,-0.000069,  29.792
   617.0,0.000056,0.000020, 29,0.000968,-0.000091,  29.796
   617.2,0.000057,0.000015, 29,0.000973,-0.000091,  29.798
   617.4,0.000049,0.000014, 29,0.000966,-0.000104,  29.800
   617.6,0.000047,0.000013, 29,0.000957,-0.000126,  29.796
   617.8,0.000050,0.000012, 29,0.000967,-0.000126,  29.797
   618.0,0.000044,0.000008, 29,0.000979,-0.000104,  29.800
   618.2,0.000047,0.000011, 29,0.000997,-0.000091,  29.798
   618.4,0.000050,0.000013, 29,0.001015,-0.000104,  29.796
   618.6,0.000050,0.000012, 29,0.001024,-0.000118,  29.800
   618.8,0.000044,0.000014, 29,0.001035,-0.000104,  29.800
   619.0,0.000045,0.000021, 29,0.001015,-0.000104,  29.801
   619.2,0.000043,0.000023, 29,0.000981,-0.000104,  29.802
   619.4,0.000040,0.000019, 29,0.000920,-0.000091,  29.800
   619.6,0.000047,0.000012, 29,0.000911,-0.000077,  29.795
   619.8,0.000052,0.000014, 29,0.000923,-0.000077,  29.797
   620.0,0.000044,0.000015, 29,0.000950,-0.000063,  29.797
   620.2,0.000045,0.000021, 29,0.000940,-0.000077,  29.795
   620.4,0.000051,0.000023, 29,0.000928,-0.000091,  29.798
   620.6,0.000043,0.000020, 29,0.000910,-0.000077,  29.798
   620.8,0.000039,0.000028, 29,0.000906,-0.000091,  29.798
   621.0,0.000036,0.000028, 29,0.000913,-0.000091,  29.798
   621.2,0.000031,0.000022, 29,0.000935,-0.000091,  29.799
   621.4,0.000034,0.000019, 29,0.000931,-0.000091,  29.799
   621.6,0.000032,0.000021, 29,0.000919,-0.000112,  29.800
   621.8,0.000031,0.000020, 29,0.000897,-0.000091,  29.798
   622.0,0.000043,0.000020, 29,0.000899,-0.000126,  29.797
   622.2,0.000050,0.000019, 29,0.000909,-0.000126,  29.801
   622.4,0.000045,0.000015, 29,0.000916,-0.000104,  29.799
   622.6,0.000048,0.000010, 29,0.000899,-0.000091,  29.796
   622.8,0.000041,0.000008, 29,0.000870,-0.000091,  29.796
   623.0,0.000036,0.000006, 29,0.000816,-0.000104,  29.799
   623.2,0.000036,0.000005, 29,0.000763,-0.000091,  29.799
   623.4,0.000036,0.000001, 29,0.000742,-0.000091,  29.799
   623.6,0.000031,0.000004, 29,0.000732,-0.000091,  29.798
   623.8,0.000031,0.000008, 29,0.000722,-0.000077,  29.799
   624.0,0.000029,0.000003, 29,0.000723,-0.000091,  29.797
   624.2,0.000026,0.000003, 29,0.000730,-0.000091,  29.796
   624.4,0.000030,-0.000001, 29,0.000741,-0.000077,  29.798
   624.6,0.000040,0.000001, 29,0.000743,-0.000091,  29.792
   624.8,0.000035,0.000003, 29,0.000744,-0.000104,  29.795
   625.0,0.000033,0.000003, 29,0.000744,-0.000091,  29.787
   625.2,0.000030,0.000005, 29,0.000730,-0.000091,  29.786
   625.4,0.000033,0.000007, 29,0.000715,-0.000104,  29.786
   625.6,0.000030,0.000006, 29,0.000702,-0.000091,  29.786
   625.8,0.000030,0.000008, 29,0.000702,-0.000104,  29.785
   626.0,0.000033,0.000008, 29,0.000698,-0.000118,  29.783
   626.2,0.000030,0.000009, 29,0.000705,-0.000069,  29.784
   626.4,0.000028,0.000013, 29,0.000723,-0.000083,  29.788
   626.6,0.000030,0.000014, 29,0.000741,-0.000083,  29.787
   626.8,0.000033,0.000018, 29,0.000771,-0.000034,  29.782
   627.0,0.000035,0.000024, 29,0.000788,-0.000047,  29.786
   627.2,0.000035,0.000024, 29,0.000790,-0.000083,  29.785
   627.4,0.000035,0.000022, 29,0.000793,-0.000069,  29.784
   627.6,0.000035,0.000023, 29,0.000798,-0.000083,  29.783
   627.8,0.000035,0.000024, 29,0.000795,-0.000083,  29.783
   628.0,0.000035,0.000022, 29,0.000793,-0.000083,  29.784
   628.2,0.000040,0.000022, 29,0.000787,-0.000083,  29.780
   628.4,0.000038,0.000022, 29,0.000782,-0.000097,  29.781
   628.6,0.000038,0.000021, 29,0.000770,-0.000097,  29.779
   628.8,0.000036,0.000018, 29,0.000752,-0.000083,  29.781
   629.0,0.000041,0.000016, 29,0.000730,-0.000097,  29.781
   629.2,0.000036,0.000009, 29,0.000696,-0.000097,  29.775
   629.4,0.000039,0.000006, 29,0.000697,-0.000083,  29.777
   629.6,0.000036,0.000006, 29,0.000714,-0.000097,  29.774
   629.8,0.000033,0.000006, 29,0.000745,-0.000097,  29.778
   630.0,0.000030,0.000012, 29,0.000741,-0.000083,  29.772
   630.2,0.000033,0.000014, 29,0.000730,-0.000097,  29.776
   630.4,0.000033,0.000017, 29,0.000708,-0.000083,  29.775
   630.6,0.000035,0.000020, 29,0.000714,-0.000083,  29.776
   630.8,0.000043,0.000020, 29,0.000730,-0.000083,  29.768
   631.0,0.000037,0.000014, 29,0.000757,-0.000083,  29.772
   631.2,0.000037,0.000013, 29,0.000768,-0.000069,  29.770
   631.4,0.000038,0.000011, 29,0.000779,-0.000069,  29.768
   631.6,0.000035,0.000009, 29,0.000789,-0.000069,  29.758
   631.8,0.000037,0.000017, 29,0.000807,-0.000069,  29.764
   632.0,0.000045,0.000017, 29,0.000825,-0.000069,  29.762
   632.2,0.000042,0.000018, 29,0.000847,-0.000069,  29.762
   632.4,0.000047,0.000021, 29,0.000841,-0.000055,  29.761
   632.6,0.000050,0.000017, 29,0.000819,-0.000055,  29.760
   632.8,0.000047,0.000018, 29,0.000780,-0.000069,  29.758
   633.0,0.000057,0.000011, 29,0.000733,-0.000055,  29.757
   633.2,0.000067,0.000011, 29,0.000736,-0.000055,  29.756
   633.4,0.000064,0.000016, 29,0.000758,-0.000069,  29.752
   633.6,0.000072,0.000020, 29,0.000792,-0.000055,  29.754
   633.8,0.000072,0.000017, 29,0.000804,-0.000069,  29.753
   634.0,0.000064,0.000016, 29,0.000814,-0.000083,  29.750
   634.2,0.000067,0.000009, 29,0.000823,-0.000069,  29.753
   634.4,0.000055,0.000004, 29,0.000843,-0.000083,  29.754
   634.6,0.000047,0.000007, 29,0.000851,-0.000083,  29.747
   634.8,0.000053,0.000008, 29,0.000858,-0.000069,  29.753
   635.0,0.000056,0.000008, 29,0.000868,-0.000083,  29.756
   635.2,0.000048,0.000011,N/A,0.000864,-0.000083,  29.751
   635.4,0.000046,0.000008,N/A,0.000858,-0.000069,  29.752
   635.6,0.000041,0.000011,N/A,0.000836,-0.000083,  29.755
   635.8,0.000040,0.000013,N/A,0.000802,-0.000083,  29.753
