Run Name,dead time
Run Date,02:17:37 PM   03-02-09
Method Name,time delay
Export Format Version, 1.00
Method ID,  669
Points/Second, 5.00
Number of Records,   1396
Offset from Run Start Time,00:00:00
Run End Time,00:04:41
Time,Second
QuadTec 1, (280.0 nm), AU
QuadTec 2, (260.0 nm), AU
Gradient Pump,%B
QuadTec 3, (214.0 nm), AU
QuadTec 4, (405.0 nm), AU
Conductivity,mS/cm
Trace 6,<Not Available>
GP Pressure,<Not Selected>
Volume,<Not Selected>
Fraction,<Not Available>
Time,QuadTec 1,QuadTec 2,Gradient Pump,QuadTec 3,QuadTec 4,Conductivity
     0.0,0.014814,-0.355010, 75,0.148928,-0.409916,  64.601
     0.2,0.014816,-0.355006, 75,0.148940,-0.409937,  64.603
     0.4,0.014813,-0.355003, 75,0.148949,-0.409937,  64.598
     0.6,0.014816,-0.355001, 75,0.148957,-0.409937,  64.601
     0.8,0.014818,-0.355001, 75,0.148975,-0.409923,  64.601
     1.0,0.014815,-0.355001, 75,0.148995,-0.409937,  64.601
     1.2,0.014820,-0.355002, 75,0.149012,-0.409937,  64.602
     1.4,0.014815,-0.354997, 75,0.149024,-0.409923,  64.607
     1.6,0.014817,-0.354997, 75,0.149029,-0.409937,  64.607
     1.8,0.014815,-0.354995, 75,0.149029,-0.409937,  64.613
     2.0,0.014815,-0.354993, 75,0.149012,-0.409923,  64.619
     2.2,0.014815,-0.354995, 75,0.148978,-0.409937,  64.621
     2.4,0.014809,-0.355000, 75,0.148940,-0.409937,  64.614
     2.6,0.014815,-0.355000, 75,0.148945,-0.409923,  64.603
     2.8,0.014815,-0.354999, 75,0.148958,-0.409937,  64.604
     3.0,0.014815,-0.354988, 75,0.148994,-0.409937,  64.603
     3.2,0.014826,-0.354986, 75,0.148992,-0.409937,  64.603
     3.4,0.014826,-0.354990, 75,0.148970,-0.409972,  64.604
     3.6,0.014820,-0.354991, 75,0.148946,-0.409923,  64.604
     3.8,0.014826,-0.354993, 75,0.148904,-0.409937,  64.599
     4.0,0.014826,-0.354992, 75,0.148882,-0.409937,  64.597
     4.2,0.014820,-0.354994, 75,0.148867,-0.409937,  64.597
     4.4,0.014826,-0.354992, 75,0.148848,-0.409951,  64.594
     4.6,0.014826,-0.354990, 75,0.148872,-0.409937,  64.593
     4.8,0.014820,0.000000, 75,0.148904,-0.409937,  64.603
     5.0,0.015405,0.000000, 75,0.148962,-0.409951,  64.599
     5.2,0.015390,0.000000, 75,0.149178,-0.409937,  64.596
     5.4,0.015384,0.000000, 75,0.149481,-0.409937,  64.594
     5.6,0.015431,0.000000, 75,0.149860,-0.409951,  64.592
     5.8,0.000000,0.000000, 75,0.149791,-0.409937,  64.595
     6.0,0.000000,0.000000, 75,0.149545,-0.409937,  64.593
     6.2,0.000000,0.000000, 75,0.148593,-0.409951,  64.590
     6.4,0.000000,0.000000, 75,0.148593,-0.409937,  64.577
     6.6,0.000000,0.000000, 75,0.148593,-0.409937,  64.577
     6.8,0.000000,0.000000, 75,0.148593,-0.409916,  64.580
     7.0,0.000000,0.000000, 75,0.000000,-0.409931,  64.570
     7.2,0.000000,0.000000, 75,0.000000,0.000000,  64.572
     7.4,0.000000,0.000000, 75,0.000000,0.000000,  64.572
     7.6,0.000000,0.000000, 75,0.000000,0.000000,  64.561
     7.8,0.000000,0.000000, 75,0.000000,0.000000,  64.569
     8.0,0.000000,0.000000, 75,0.000000,0.000000,  64.565
     8.2,0.000000,0.000000, 75,0.000000,0.000000,  64.564
     8.4,0.000000,0.000000, 75,0.000000,0.000000,  64.557
     8.6,0.000000,0.000000, 75,0.000000,0.000000,  64.554
     8.8,0.000000,0.000000, 75,0.000000,0.000000,  64.556
     9.0,0.000000,0.000000, 75,0.000000,0.000000,  64.559
     9.2,0.000000,0.000000, 75,0.000000,0.000000,  64.551
     9.4,0.000000,0.000017, 75,0.000000,0.000000,  64.542
     9.6,0.000000,0.000018, 75,0.000000,0.000000,  64.540
     9.8,-0.000026,0.000021, 75,0.000000,0.000000,  64.549
    10.0,-0.000026,0.000023, 75,0.000000,0.000000,  64.549
    10.2,-0.000024,0.000022, 75,0.000000,0.000000,  64.549
    10.4,-0.000021,0.000021, 75,0.000000,0.000000,  64.543
    10.6,-0.000019,0.000019, 75,0.000000,0.000000,  64.539
    10.8,-0.000024,0.000019, 75,0.000000,0.000000,  64.533
    11.0,-0.000016,0.000018, 75,-0.000041,0.000000,  64.534
    11.2,-0.000014,0.000016, 75,-0.000076,0.000000,  64.532
    11.4,-0.000014,0.000012, 75,-0.000107,0.000000,  64.524
    11.6,-0.000009,0.000009, 75,-0.000131,0.000000,  64.528
    11.8,-0.000006,0.000005, 75,-0.000148,0.000000,  64.530
    12.0,-0.000006,0.000001, 75,-0.000160,0.000000,  64.528
    12.2,-0.000009,0.000003, 75,-0.000170,-0.000028,  64.524
    12.4,-0.000011,-0.000002, 75,-0.000171,-0.000063,  64.520
    12.6,-0.000011,-0.000001, 75,-0.000173,-0.000014,  64.522
    12.8,-0.000011,0.000002, 75,-0.000166,0.000000,  64.525
    13.0,-0.000013,0.000004, 75,-0.000149,0.000014,  64.524
    13.2,-0.000016,0.000010, 75,-0.000134,-0.000022,  64.526
    13.4,-0.000012,0.000013, 75,-0.000114,-0.000022,  64.531
    13.6,-0.000010,0.000014, 75,-0.000081,-0.000008,  64.531
    13.8,-0.000016,0.000019, 75,-0.000052,0.000006,  64.526
    14.0,-0.000012,0.000020, 75,-0.000044,-0.000008,  64.531
    14.2,-0.000008,0.000020, 75,-0.000040,-0.000008,  64.532
    14.4,-0.000011,0.000017, 75,-0.000052,0.000006,  64.532
    14.6,-0.000009,0.000017, 75,-0.000045,0.000006,  64.532
    14.8,-0.000006,0.000018, 75,-0.000035,0.000006,  64.531
    15.0,-0.000004,0.000019, 75,-0.000030,0.000006,  64.539
    15.2,-0.000006,0.000013, 75,-0.000018,0.000006,  64.535
    15.4,-0.000006,0.000010, 75,0.000004,0.000006,  64.541
    15.6,-0.000006,0.000010, 75,0.000016,-0.000029,  64.538
    15.8,-0.000009,0.000006, 75,0.000028,-0.000029,  64.539
    16.0,-0.000011,0.000004, 75,0.000038,-0.000029,  64.540
    16.2,-0.000013,0.000004, 75,0.000044,-0.000065,  64.540
    16.4,-0.000020,-0.000001, 75,0.000035,-0.000029,  64.544
    16.6,-0.000025,-0.000004, 75,0.000019,-0.000029,  64.547
    16.8,-0.000025,-0.000003, 75,-0.000003,-0.000051,  64.548
    17.0,-0.000027,-0.000005, 75,-0.000002,-0.000016,  64.546
    17.2,-0.000027,-0.000005, 75,0.000008,-0.000016,  64.545
    17.4,-0.000030,0.000003, 75,0.000028,-0.000037,  64.551
    17.6,-0.000030,0.000003, 75,0.000014,-0.000016,  64.554
    17.8,-0.000034,-0.000004, 75,0.000001,-0.000016,  64.556
    18.0,-0.000034,-0.000008, 75,-0.000023,-0.000037,  64.551
    18.2,-0.000034,-0.000013, 75,-0.000061,-0.000016,  64.559
    18.4,-0.000032,-0.000014, 75,-0.000096,-0.000016,  64.563
    18.6,-0.000032,-0.000014, 75,-0.000142,-0.000037,  64.566
    18.8,-0.000032,-0.000018, 75,-0.000141,-0.000016,  64.572
    19.0,-0.000034,-0.000018, 75,-0.000124,-0.000016,  64.577
    19.2,-0.000032,-0.000018, 75,-0.000095,-0.000037,  64.579
    19.4,-0.000037,-0.000020, 75,-0.000107,-0.000016,  64.574
    19.6,-0.000041,-0.000021, 75,-0.000145,-0.000016,  64.569
    19.8,-0.000047,-0.000025, 75,-0.000194,-0.000051,  64.566
    20.0,-0.000047,-0.000027, 75,-0.000192,-0.000029,  64.560
    20.2,-0.000054,-0.000025, 75,-0.000177,-0.000029,  64.563
    20.4,-0.000058,-0.000023, 75,-0.000142,-0.000029,  64.569
    20.6,-0.000052,-0.000023, 75,-0.000133,-0.000016,  64.567
    20.8,-0.000052,-0.000025, 75,-0.000125,-0.000029,  64.562
    21.0,-0.000052,-0.000025, 75,-0.000115,-0.000029,  64.562
    21.2,-0.000054,-0.000030, 75,-0.000113,-0.000029,  64.561
    21.4,-0.000054,-0.000035, 75,-0.000129,-0.000043,  64.552
    21.6,-0.000056,-0.000038, 75,-0.000156,-0.000043,  64.549
    21.8,-0.000062,-0.000044, 75,-0.000187,-0.000065,  64.551
    22.0,-0.000058,-0.000044, 75,-0.000209,-0.000043,  64.550
    22.2,-0.000058,-0.000042, 75,-0.000231,-0.000043,  64.547
    22.4,-0.000062,-0.000041, 75,-0.000248,-0.000078,  64.552
    22.6,-0.000054,-0.000042, 75,-0.000243,-0.000057,  64.542
    22.8,-0.000051,-0.000037, 75,-0.000236,-0.000057,  64.545
    23.0,-0.000052,-0.000030, 75,-0.000218,-0.000092,  64.542
    23.2,-0.000049,-0.000029, 75,-0.000215,-0.000057,  64.539
    23.4,-0.000047,-0.000029, 75,-0.000219,-0.000057,  64.533
    23.6,-0.000050,-0.000024, 75,-0.000224,-0.000092,  64.532
    23.8,-0.000044,-0.000026, 75,-0.000217,-0.000057,  64.534
    24.0,-0.000044,-0.000032, 75,-0.000221,-0.000057,  64.536
    24.2,-0.000052,-0.000033, 75,-0.000219,-0.000092,  64.533
    24.4,-0.000054,-0.000032, 75,-0.000224,-0.000057,  64.534
    24.6,-0.000056,-0.000034, 75,-0.000233,-0.000071,  64.537
    24.8,-0.000062,-0.000033, 75,-0.000251,-0.000106,  64.533
    25.0,-0.000058,-0.000035, 75,-0.000250,-0.000071,  64.532
    25.2,-0.000066,-0.000037, 75,-0.000229,-0.000084,  64.530
    25.4,-0.000066,-0.000041, 75,-0.000201,-0.000120,  64.528
    25.6,-0.000064,-0.000045, 75,-0.000190,-0.000071,  64.526
    25.8,-0.000064,-0.000046, 75,-0.000170,-0.000071,  64.525
    26.0,-0.000067,-0.000039, 75,-0.000155,-0.000106,  64.532
    26.2,-0.000064,-0.000038, 75,-0.000164,-0.000071,  64.524
    26.4,-0.000064,-0.000035, 75,-0.000170,-0.000071,  64.524
    26.6,-0.000065,-0.000026, 75,-0.000193,-0.000120,  64.522
    26.8,-0.000054,-0.000025, 75,-0.000213,-0.000098,  64.522
    27.0,-0.000047,-0.000027, 75,-0.000230,-0.000084,  64.521
    27.2,-0.000048,-0.000024, 75,-0.000249,-0.000134,  64.521
    27.4,-0.000043,-0.000024, 75,-0.000253,-0.000098,  64.521
    27.6,-0.000043,-0.000026, 75,-0.000242,-0.000084,  64.513
    27.8,-0.000046,-0.000026, 75,-0.000220,-0.000120,  64.516
    28.0,-0.000040,-0.000024, 75,-0.000208,-0.000084,  64.515
    28.2,-0.000040,-0.000022, 75,-0.000203,-0.000071,  64.509
    28.4,-0.000038,-0.000022, 75,-0.000207,-0.000106,  64.507
    28.6,-0.000038,-0.000018, 75,-0.000221,-0.000071,  64.505
    28.8,-0.000035,-0.000021, 75,-0.000234,-0.000057,  64.504
    29.0,-0.000037,-0.000023, 75,-0.000272,-0.000092,  64.504
    29.2,-0.000043,-0.000023, 75,-0.000270,-0.000057,  64.506
    29.4,-0.000037,-0.000020, 75,-0.000251,-0.000043,  64.502
    29.6,-0.000037,-0.000017, 75,-0.000220,-0.000078,  64.504
    29.8,-0.000043,-0.000017, 75,-0.000213,-0.000057,  64.500
    30.0,-0.000035,-0.000014, 75,-0.000213,-0.000057,  64.497
    30.2,-0.000035,-0.000012, 75,-0.000213,-0.000043,  64.496
    30.4,-0.000040,-0.000010, 75,-0.000212,-0.000043,  64.495
    30.6,-0.000037,-0.000010, 75,-0.000207,-0.000043,  64.498
    30.8,-0.000037,-0.000006, 75,-0.000196,-0.000043,  64.498
    31.0,-0.000038,-0.000004, 75,-0.000186,-0.000043,  64.496
    31.2,-0.000028,-0.000006, 75,-0.000184,-0.000043,  64.487
    31.4,-0.000028,-0.000009, 75,-0.000184,-0.000043,  64.490
    31.6,-0.000036,-0.000009, 75,-0.000181,-0.000065,  64.488
    31.8,-0.000037,-0.000009, 75,-0.000184,-0.000043,  64.495
    32.0,-0.000037,-0.000007, 75,-0.000186,-0.000043,  64.491
    32.2,-0.000040,-0.000008, 75,-0.000196,-0.000078,  64.491
    32.4,-0.000033,-0.000010, 75,-0.000200,-0.000057,  64.494
    32.6,-0.000030,-0.000012, 75,-0.000191,-0.000057,  64.495
    32.8,-0.000033,-0.000017, 75,-0.000193,-0.000092,  64.498
    33.0,-0.000033,-0.000017, 75,-0.000196,-0.000057,  64.499
    33.2,-0.000035,-0.000015, 75,-0.000196,-0.000057,  64.498
    33.4,-0.000040,-0.000009, 75,-0.000198,-0.000092,  64.498
    33.6,-0.000040,-0.000009, 75,-0.000237,-0.000057,  64.493
    33.8,-0.000040,-0.000008, 75,-0.000290,-0.000057,  64.496
    34.0,-0.000040,-0.000009, 75,-0.000361,-0.000092,  64.488
    34.2,-0.000032,-0.000015, 75,-0.000361,-0.000057,  64.490
    34.4,-0.000030,-0.000014, 75,-0.000342,-0.000057,  64.491
    34.6,-0.000030,-0.000014, 75,-0.000296,-0.000078,  64.491
    34.8,-0.000030,-0.000018, 75,-0.000305,-0.000043,  64.493
    35.0,-0.000025,-0.000019, 75,-0.000328,-0.000043,  64.488
    35.2,-0.000023,-0.000019, 75,-0.000367,-0.000078,  64.490
    35.4,-0.000020,-0.000017, 75,-0.000353,-0.000057,  64.500
    35.6,-0.000020,-0.000015, 75,-0.000319,-0.000057,  64.498
    35.8,-0.000023,-0.000010, 75,-0.000261,-0.000092,  64.498
    36.0,-0.000024,-0.000010, 75,-0.000244,-0.000057,  64.506
    36.2,-0.000033,-0.000010, 75,-0.000246,-0.000057,  64.507
    36.4,-0.000039,-0.000012, 75,-0.000253,-0.000092,  64.513
    36.6,-0.000033,-0.000017, 75,-0.000263,-0.000057,  64.505
    36.8,-0.000028,-0.000015, 75,-0.000285,-0.000057,  64.494
    37.0,-0.000026,-0.000015, 75,-0.000309,-0.000092,  64.488
    37.2,-0.000033,-0.000014, 75,-0.000297,-0.000057,  64.484
    37.4,-0.000036,-0.000014, 75,-0.000279,-0.000057,  64.482
    37.6,-0.000031,-0.000013, 75,-0.000250,-0.000092,  64.480
    37.8,-0.000034,-0.000011, 75,-0.000243,-0.000057,  64.476
    38.0,-0.000030,-0.000011, 75,-0.000241,-0.000057,  64.473
    38.2,-0.000030,-0.000016, 75,-0.000257,-0.000092,  64.474
    38.4,-0.000032,-0.000020, 75,-0.000261,-0.000057,  64.480
    38.6,-0.000033,-0.000020, 75,-0.000261,-0.000057,  64.474
    38.8,-0.000033,-0.000018, 75,-0.000262,-0.000092,  64.474
    39.0,-0.000037,-0.000020, 75,-0.000278,-0.000057,  64.475
    39.2,-0.000026,-0.000024, 75,-0.000290,-0.000057,  64.471
    39.4,-0.000026,-0.000021, 75,-0.000304,-0.000092,  64.467
    39.6,-0.000032,-0.000019, 75,-0.000298,-0.000057,  64.460
    39.8,-0.000032,-0.000020, 75,-0.000286,-0.000057,  64.463
    40.0,-0.000034,-0.000016, 75,-0.000258,-0.000057,  64.463
    40.2,-0.000039,-0.000012, 75,-0.000257,-0.000057,  64.469
    40.4,-0.000046,-0.000010, 75,-0.000255,-0.000071,  64.465
    40.6,-0.000046,-0.000010, 75,-0.000261,-0.000071,  64.460
    40.8,-0.000044,-0.000008, 75,-0.000266,-0.000035,  64.464
    41.0,-0.000044,-0.000007, 75,-0.000273,-0.000035,  64.457
    41.2,-0.000044,-0.000012, 75,-0.000295,-0.000035,  64.459
    41.4,-0.000046,-0.000018, 75,-0.000319,-0.000035,  64.458
    41.6,-0.000051,-0.000020, 75,-0.000327,-0.000035,  64.458
    41.8,-0.000053,-0.000027, 75,-0.000329,-0.000035,  64.454
    42.0,-0.000061,-0.000031, 75,-0.000324,-0.000071,  64.457
    42.2,-0.000065,-0.000035, 75,-0.000317,-0.000071,  64.458
    42.4,-0.000065,-0.000037, 75,-0.000307,-0.000071,  64.443
    42.6,-0.000069,-0.000034, 75,-0.000291,-0.000106,  64.450
    42.8,-0.000058,-0.000031, 75,-0.000269,-0.000071,  64.449
    43.0,-0.000056,-0.000029, 75,-0.000247,-0.000071,  64.448
    43.2,-0.000051,-0.000022, 75,-0.000216,-0.000106,  64.448
    43.4,-0.000038,-0.000018, 75,-0.000219,-0.000071,  64.444
    43.6,-0.000033,-0.000020, 75,-0.000222,-0.000071,  64.442
    43.8,-0.000034,-0.000023, 75,-0.000241,-0.000106,  64.436
    44.0,-0.000029,-0.000020, 75,-0.000280,-0.000084,  64.439
    44.2,-0.000026,-0.000023, 75,-0.000331,-0.000071,  64.439
    44.4,-0.000034,-0.000022, 75,-0.000391,-0.000106,  64.439
    44.6,-0.000037,-0.000020, 75,-0.000389,-0.000084,  64.438
    44.8,-0.000034,-0.000020, 75,-0.000364,-0.000071,  64.437
    45.0,-0.000037,-0.000017, 75,-0.000302,-0.000106,  64.433
    45.2,-0.000033,-0.000015, 75,-0.000279,-0.000084,  64.430
    45.4,-0.000033,-0.000016, 75,-0.000270,-0.000071,  64.426
    45.6,-0.000039,-0.000020, 75,-0.000255,-0.000106,  64.432
    45.8,-0.000039,-0.000025, 75,-0.000248,-0.000071,  64.425
    46.0,-0.000041,-0.000025, 75,-0.000247,-0.000071,  64.432
    46.2,-0.000041,-0.000024, 75,-0.000257,-0.000106,  64.436
    46.4,-0.000041,-0.000026, 75,-0.000271,-0.000071,  64.433
    46.6,-0.000041,-0.000025, 75,-0.000273,-0.000071,  64.431
    46.8,-0.000039,-0.000023, 75,-0.000286,-0.000106,  64.429
    47.0,-0.000041,-0.000027, 75,-0.000290,-0.000071,  64.428
    47.2,-0.000041,-0.000027, 75,-0.000279,-0.000057,  64.432
    47.4,-0.000041,-0.000025, 75,-0.000269,-0.000092,  64.436
    47.6,-0.000041,-0.000028, 75,-0.000291,-0.000057,  64.437
    47.8,-0.000044,-0.000025, 75,-0.000337,-0.000043,  64.431
    48.0,-0.000041,-0.000023, 75,-0.000395,-0.000078,  64.430
    48.2,-0.000044,-0.000028, 75,-0.000450,-0.000057,  64.432
    48.4,-0.000044,-0.000026, 75,-0.000504,-0.000057,  64.433
    48.6,-0.000042,-0.000024, 75,-0.000568,-0.000092,  64.433
    48.8,-0.000042,-0.000029, 75,-0.000572,-0.000057,  64.431
    49.0,-0.000039,-0.000031, 75,-0.000552,-0.000071,  64.429
    49.2,-0.000039,-0.000029, 75,-0.000499,-0.000106,  64.430
    49.4,-0.000039,-0.000033, 75,-0.000474,-0.000071,  64.431
    49.6,-0.000044,-0.000034, 75,-0.000447,-0.000071,  64.427
    49.8,-0.000041,-0.000036, 75,-0.000419,-0.000071,  64.430
    50.0,-0.000039,-0.000036, 75,-0.000412,-0.000071,  64.434
    50.2,-0.000037,-0.000037, 75,-0.000414,-0.000071,  64.431
    50.4,-0.000037,-0.000040, 75,-0.000422,-0.000071,  64.432
    50.6,-0.000041,-0.000037, 75,-0.000444,-0.000071,  64.427
    50.8,-0.000048,-0.000034, 75,-0.000443,-0.000071,  64.422
    51.0,-0.000048,-0.000033, 75,-0.000439,-0.000071,  64.390
    51.2,-0.000046,-0.000035, 75,-0.000429,-0.000106,  64.395
    51.4,-0.000043,-0.000028, 75,-0.000427,-0.000071,  64.392
    51.6,-0.000045,-0.000037, 75,-0.000421,-0.000071,  64.392
    51.8,-0.000045,-0.000037, 75,-0.000426,-0.000106,  64.394
    52.0,-0.000044,-0.000032, 75,-0.000423,-0.000071,  64.386
    52.2,-0.000044,-0.000030, 75,-0.000411,-0.000071,  64.400
    52.4,-0.000050,-0.000029, 75,-0.000404,-0.000106,  64.452
    52.6,-0.000050,-0.000029, 75,-0.000398,-0.000071,  64.522
    52.8,-0.000048,-0.000029, 75,-0.000391,-0.000071,  64.541
    53.0,-0.000053,-0.000031, 75,-0.000382,-0.000106,  64.566
    53.2,-0.000050,-0.000035, 75,-0.000418,-0.000071,  64.587
    53.4,-0.000048,-0.000029, 75,-0.000486,-0.000071,  64.608
    53.6,-0.000053,-0.000028, 75,-0.000573,-0.000106,  64.622
    53.8,-0.000050,-0.000029, 75,-0.000579,-0.000071,  64.638
    54.0,-0.000045,-0.000024, 75,-0.000564,-0.000071,  64.685
    54.2,-0.000051,-0.000020, 75,-0.000528,-0.000084,  64.696
    54.4,-0.000051,-0.000023, 75,-0.000504,-0.000077,  64.709
    54.6,-0.000046,-0.000023, 75,-0.000487,-0.000063,  64.729
    54.8,-0.000041,-0.000022, 75,-0.000464,-0.000063,  64.740
    55.0,-0.000039,-0.000028, 75,-0.000455,-0.000063,  64.745
    55.2,-0.000037,-0.000027, 75,-0.000452,-0.000049,  64.752
    55.4,-0.000032,-0.000024, 75,-0.000458,-0.000063,  64.763
    55.6,-0.000032,-0.000027, 75,-0.000464,-0.000063,  64.716
    55.8,-0.000032,-0.000028, 75,-0.000476,-0.000049,  64.669
    56.0,-0.000032,-0.000028, 75,-0.000498,-0.000049,  64.610
    56.2,-0.000032,-0.000028, 75,-0.000486,-0.000049,  64.531
    56.4,-0.000032,-0.000026, 75,-0.000467,-0.000035,  64.492
    56.6,-0.000030,-0.000028, 75,-0.000444,-0.000035,  64.458
    56.8,-0.000033,-0.000032, 75,-0.000437,-0.000049,  64.443
    57.0,-0.000033,-0.000028, 75,-0.000427,-0.000035,  64.431
    57.2,-0.000030,-0.000029, 75,-0.000433,-0.000049,  64.425
    57.4,-0.000031,-0.000004, 75,-0.000449,-0.000077,  64.412
    57.6,-0.000028,0.000044, 75,-0.000462,-0.000063,  64.376
    57.8,-0.000007,0.000104, 75,-0.000487,-0.000063,  64.371
    58.0,0.000020,0.000134, 75,-0.000516,-0.000063,  64.372
    58.2,0.000068,0.000168, 75,-0.000561,-0.000049,  64.366
    58.4,0.000089,0.000193, 75,-0.000603,-0.000049,  64.373
    58.6,0.000102,0.000214, 75,-0.000522,-0.000049,  64.365
    58.8,0.000119,0.000229, 75,-0.000396,-0.000035,  64.366
    59.0,0.000138,0.000245, 75,-0.000209,-0.000035,  64.363
    59.2,0.000157,0.000260, 75,-0.000040,-0.000049,  64.358
    59.4,0.000179,0.000273, 75,0.000147,-0.000049,  64.359
    59.6,0.000195,0.000290, 75,0.000354,-0.000057,  64.352
    59.8,0.000209,0.000295, 75,0.000496,-0.000008,  64.354
    60.0,0.000223,0.000295, 75,0.000613,0.000006,  64.352
    60.2,0.000230,0.000294, 75,0.000714,0.000020,  64.353
    60.4,0.000232,0.000282, 75,0.000791,0.000020,  64.350
    60.6,0.000228,0.000265, 75,0.000917,0.000020,  64.351
    60.8,0.000193,0.000244, 75,0.001057,0.000033,  64.349
    61.0,0.000137,0.000184, 75,0.001205,0.000047,  64.351
    61.2,0.000064,0.000111, 75,0.001307,0.000047,  64.353
    61.4,-0.000020,0.000015, 75,0.001393,0.000061,  64.350
    61.6,-0.000121,-0.000100, 75,0.001461,0.000061,  64.287
    61.8,-0.000238,-0.000152, 75,0.001587,0.000061,  64.271
    62.0,-0.000282,-0.000194, 75,0.001736,0.000089,  64.296
    62.2,-0.000299,-0.000212, 75,0.001904,0.000102,  64.348
    62.4,-0.000289,-0.000230, 75,0.001829,0.000116,  64.374
    62.6,-0.000289,-0.000234, 75,0.001641,0.000144,  64.374
    62.8,-0.000282,-0.000229, 75,0.001349,0.000157,  64.368
    63.0,-0.000266,-0.000231, 75,0.001146,0.000157,  64.371
    63.2,-0.000254,-0.000222, 75,0.000935,0.000102,  64.366
    63.4,-0.000245,-0.000211, 75,0.000714,0.000006,  64.372
    63.6,-0.000235,-0.000206, 75,0.000529,-0.000132,  64.373
    63.8,-0.000224,-0.000197, 75,0.000362,-0.000187,  64.376
    64.0,-0.000212,-0.000188, 75,0.000196,-0.000228,  64.374
    64.2,-0.000203,-0.000078, 75,0.000082,-0.000269,  64.382
    64.4,-0.000097,0.000086, 75,0.000005,-0.000283,  64.379
    64.6,0.000055,0.000302, 75,-0.000044,-0.000269,  64.384
    64.8,0.000251,0.000400, 75,-0.000130,-0.000255,  64.383
    65.0,0.000342,0.000466, 75,-0.000216,-0.000255,  64.385
    65.2,0.000408,0.000501, 75,-0.000304,-0.000228,  64.379
    65.4,0.000443,0.000526, 75,-0.000152,-0.000228,  64.384
    65.6,0.000448,0.000532, 75,0.000121,-0.000214,  64.383
    65.8,0.000464,0.000524, 75,0.000508,-0.000200,  64.388
    66.0,0.000469,0.000511, 75,0.000642,-0.000187,  64.383
    66.2,0.000460,0.000495, 75,0.000701,-0.000159,  64.382
    66.4,0.000448,0.000468, 75,0.000690,-0.000145,  64.382
    66.6,0.000429,0.000440, 75,0.000713,-0.000118,  64.386
    66.8,0.000399,0.000408, 75,0.000720,-0.000049,  64.382
    67.0,0.000361,0.000373, 75,0.000714,0.000033,  64.378
    67.2,0.000312,0.000343, 75,0.000659,0.000116,  64.379
    67.4,0.000259,0.000314, 75,0.000562,0.000157,  64.378
    67.6,0.000231,0.000289, 75,0.000438,0.000199,  64.375
    67.8,0.000207,0.000259, 75,0.000383,0.000199,  64.374
    68.0,0.000205,0.000241, 75,0.000335,0.000212,  64.373
    68.2,0.000189,0.000223, 75,0.000303,0.000212,  64.371
    68.4,0.000169,0.000208, 75,0.000193,0.000199,  64.370
    68.6,0.000163,0.000202, 75,0.000059,0.000212,  64.370
    68.8,0.000154,0.000196, 75,-0.000120,0.000199,  64.368
    69.0,0.000137,0.000179, 75,-0.000172,0.000185,  64.372
    69.2,0.000133,0.000162, 75,-0.000177,0.000199,  64.369
    69.4,0.000128,0.000141, 75,-0.000139,0.000185,  64.367
    69.6,0.000113,0.000139, 75,-0.000143,0.000171,  64.369
    69.8,0.000106,0.000143, 75,-0.000148,0.000157,  64.374
    70.0,0.000106,0.000157, 75,-0.000157,0.000108,  64.381
    70.2,0.000108,0.000156, 75,-0.000162,0.000116,  64.393
    70.4,0.000113,0.000160, 75,-0.000164,0.000075,  64.402
    70.6,0.000122,0.000160, 75,-0.000153,0.000061,  64.403
    70.8,0.000132,0.000157, 75,-0.000144,0.000061,  64.395
    71.0,0.000141,0.000152, 75,-0.000127,0.000061,  64.392
    71.2,0.000144,0.000143, 75,-0.000112,0.000075,  64.392
    71.4,0.000144,0.000139, 75,-0.000091,0.000061,  64.386
    71.6,0.000134,0.000135, 75,-0.000090,0.000061,  64.387
    71.8,0.000132,0.000129, 75,-0.000096,0.000075,  64.389
    72.0,0.000127,0.000123, 75,-0.000110,0.000061,  64.394
    72.2,0.000126,0.000119, 75,-0.000103,0.000061,  64.392
    72.4,0.000116,0.000116, 75,-0.000091,0.000075,  64.398
    72.6,0.000101,0.000118, 75,-0.000075,0.000075,  64.409
    72.8,0.000088,0.000124, 75,-0.000074,0.000075,  64.408
    73.0,0.000083,0.000126, 75,-0.000074,0.000089,  64.406
    73.2,0.000080,0.000131, 75,-0.000079,0.000075,  64.407
    73.4,0.000088,0.000126, 75,-0.000088,0.000061,  64.409
    73.6,0.000086,0.000120, 75,-0.000088,0.000075,  64.408
    73.8,0.000076,0.000104, 75,-0.000088,0.000061,  64.408
    74.0,0.000074,0.000097, 75,-0.000138,0.000061,  64.406
    74.2,0.000074,0.000099, 75,-0.000206,0.000075,  64.408
    74.4,0.000066,0.000098, 75,-0.000293,0.000061,  64.420
    74.6,0.000074,0.000096, 75,-0.000310,0.000061,  64.416
    74.8,0.000074,0.000099, 75,-0.000305,0.000075,  64.413
    75.0,0.000069,0.000102, 75,-0.000281,0.000047,  64.417
    75.2,0.000076,0.000099, 75,-0.000266,0.000033,  64.419
    75.4,0.000074,0.000095, 75,-0.000233,0.000047,  64.424
    75.6,0.000066,0.000094, 75,-0.000194,0.000012,  64.427
    75.8,0.000062,0.000087, 75,-0.000169,0.000012,  64.423
    76.0,0.000060,0.000086, 75,-0.000150,0.000026,  64.423
    76.2,0.000058,0.000084, 75,-0.000133,-0.000023,  64.431
    76.4,0.000050,0.000081, 75,-0.000115,-0.000002,  64.454
    76.6,0.000051,0.000077, 75,-0.000092,0.000012,  64.461
    76.8,0.000051,0.000080, 75,-0.000066,-0.000037,  64.458
    77.0,0.000045,0.000082, 75,-0.000075,-0.000002,  64.458
    77.2,0.000051,0.000078, 75,-0.000101,-0.000002,  64.460
    77.4,0.000058,0.000084, 75,-0.000142,-0.000016,  64.460
    77.6,0.000059,0.000083, 75,-0.000126,0.000006,  64.457
    77.8,0.000072,0.000085, 75,-0.000101,0.000006,  64.456
    78.0,0.000072,0.000090, 75,-0.000058,0.000006,  64.456
    78.2,0.000062,0.000088, 75,-0.000064,-0.000008,  64.459
    78.4,0.000055,0.000089, 75,-0.000087,-0.000008,  64.454
    78.6,0.000058,0.000090, 75,-0.000132,0.000006,  64.457
    78.8,0.000055,0.000091, 75,-0.000134,-0.000008,  64.457
    79.0,0.000065,0.000092, 75,-0.000117,-0.000008,  64.457
    79.2,0.000067,0.000095, 75,-0.000093,0.000006,  64.446
    79.4,0.000065,0.000102, 75,-0.000087,0.000006,  64.446
    79.6,0.000066,0.000107, 75,-0.000075,0.000006,  64.446
    79.8,0.000068,0.000112, 75,-0.000066,-0.000016,  64.453
    80.0,0.000073,0.000110, 75,-0.000052,0.000020,  64.453
    80.2,0.000077,0.000108, 75,-0.000045,0.000020,  64.447
    80.4,0.000077,0.000103, 75,-0.000036,0.000033,  64.449
    80.6,0.000075,0.000100, 75,-0.000035,0.000020,  64.449
    80.8,0.000070,0.000102, 75,-0.000035,0.000033,  64.448
    81.0,0.000076,0.000099, 75,-0.000038,0.000047,  64.450
    81.2,0.000076,0.000101, 75,-0.000045,0.000033,  64.445
    81.4,0.000073,0.000097, 75,-0.000057,0.000033,  64.448
    81.6,0.000076,0.000097, 75,-0.000079,0.000047,  64.443
    81.8,0.000080,0.000100, 75,-0.000098,0.000047,  64.450
    82.0,0.000080,0.000096, 75,-0.000104,0.000047,  64.446
    82.2,0.000076,0.000099, 75,-0.000113,0.000061,  64.442
    82.4,0.000074,0.000094, 75,-0.000119,0.000061,  64.439
    82.6,0.000080,0.000091, 75,-0.000102,0.000047,  64.440
    82.8,0.000082,0.000099, 75,-0.000085,0.000061,  64.443
    83.0,0.000082,0.000100, 75,-0.000051,0.000047,  64.443
    83.2,0.000082,0.000100, 75,-0.000032,0.000033,  64.441
    83.4,0.000084,0.000099, 75,-0.000015,0.000033,  64.441
    83.6,0.000084,0.000100, 75,0.000002,0.000033,  64.441
    83.8,0.000082,0.000098, 75,0.000003,0.000020,  64.444
    84.0,0.000090,0.000094, 75,-0.000001,0.000020,  64.442
    84.2,0.000085,0.000095, 75,-0.000004,0.000033,  64.442
    84.4,0.000080,0.000093, 75,-0.000015,0.000020,  64.448
    84.6,0.000080,0.000087, 75,-0.000043,0.000020,  64.441
    84.8,0.000075,0.000087, 75,-0.000077,0.000020,  64.443
    85.0,0.000077,0.000083, 75,-0.000075,0.000006,  64.441
    85.2,0.000069,0.000082, 75,-0.000064,0.000006,  64.442
    85.4,0.000066,0.000082, 75,-0.000040,0.000006,  64.443
    85.6,0.000064,0.000077, 75,-0.000038,0.000006,  64.443
    85.8,0.000067,0.000075, 75,-0.000047,0.000006,  64.450
    86.0,0.000065,0.000075, 75,-0.000064,0.000020,  64.450
    86.2,0.000057,0.000070, 75,-0.000064,0.000020,  64.446
    86.4,0.000055,0.000070, 75,-0.000063,0.000020,  64.453
    86.6,0.000053,0.000075, 75,-0.000058,0.000033,  64.456
    86.8,0.000045,0.000070, 75,-0.000051,0.000020,  64.460
    87.0,0.000046,0.000072, 75,-0.000051,0.000020,  64.459
    87.2,0.000046,0.000071, 75,-0.000051,0.000033,  64.464
    87.4,0.000041,0.000063, 75,-0.000049,0.000020,  64.470
    87.6,0.000044,0.000062, 75,-0.000041,0.000020,  64.470
    87.8,0.000046,0.000054, 75,-0.000046,0.000033,  64.469
    88.0,0.000051,0.000054, 75,-0.000049,0.000020,  64.462
    88.2,0.000061,0.000058, 75,-0.000041,0.000020,  64.453
    88.4,0.000063,0.000069, 75,-0.000046,0.000033,  64.454
    88.6,0.000061,0.000069, 75,-0.000056,0.000020,  64.457
    88.8,0.000056,0.000065, 75,-0.000063,0.000020,  64.454
    89.0,0.000062,0.000066, 75,-0.000081,0.000033,  64.446
    89.2,0.000057,0.000062, 75,-0.000083,0.000020,  64.457
    89.4,0.000050,0.000060, 75,-0.000090,0.000020,  64.449
    89.6,0.000048,0.000058, 75,-0.000090,-0.000002,  64.449
    89.8,0.000040,0.000054, 75,-0.000089,0.000020,  64.452
    90.0,0.000032,0.000054, 75,-0.000089,0.000020,  64.452
    90.2,0.000027,0.000058, 75,-0.000094,0.000020,  64.452
    90.4,0.000019,0.000056, 75,-0.000099,0.000041,  64.454
    90.6,0.000032,0.000055, 75,-0.000103,0.000041,  64.448
    90.8,0.000034,0.000058, 75,-0.000098,0.000041,  64.451
    91.0,0.000027,0.000056, 75,-0.000092,0.000020,  64.451
    91.2,0.000032,0.000052, 75,-0.000108,0.000055,  64.452
    91.4,0.000034,0.000053, 75,-0.000127,0.000055,  64.447
    91.6,0.000032,0.000060, 75,-0.000166,0.000033,  64.447
    91.8,0.000037,0.000060, 75,-0.000188,0.000055,  64.452
    92.0,0.000037,0.000065, 75,-0.000214,0.000055,  64.451
    92.2,0.000033,0.000070, 75,-0.000231,0.000020,  64.451
    92.4,0.000026,0.000066, 75,-0.000224,0.000041,  64.445
    92.6,0.000029,0.000056, 75,-0.000202,0.000041,  64.452
    92.8,0.000024,0.000047, 75,-0.000168,0.000006,  64.455
    93.0,0.000017,0.000038, 75,-0.000161,0.000041,  64.454
    93.2,0.000020,0.000032, 75,-0.000156,0.000041,  64.457
    93.4,0.000018,0.000022, 75,-0.000164,0.000006,  64.450
    93.6,0.000010,0.000025, 75,-0.000171,0.000041,  64.451
    93.8,0.000010,0.000029, 75,-0.000181,0.000041,  64.455
    94.0,0.000012,0.000038, 75,-0.000200,0.000006,  64.456
    94.2,0.000010,0.000043, 75,-0.000205,0.000041,  64.458
    94.4,0.000007,0.000042, 75,-0.000200,0.000041,  64.458
    94.6,0.000012,0.000043, 75,-0.000200,-0.000008,  64.459
    94.8,0.000011,0.000044, 75,-0.000226,0.000014,  64.455
    95.0,0.000021,0.000045, 75,-0.000264,0.000014,  64.458
    95.2,0.000020,0.000048, 75,-0.000310,-0.000022,  64.463
    95.4,0.000033,0.000052, 75,-0.000313,0.000014,  64.467
    95.6,0.000037,0.000057, 75,-0.000305,0.000014,  64.459
    95.8,0.000047,0.000061, 75,-0.000276,-0.000022,  64.464
    96.0,0.000046,0.000061, 75,-0.000259,0.000014,  64.463
    96.2,0.000045,0.000061, 75,-0.000256,0.000014,  64.464
    96.4,0.000052,0.000062, 75,-0.000255,-0.000008,  64.465
    96.6,0.000059,0.000067, 75,-0.000258,-0.000008,  64.466
    96.8,0.000062,0.000076, 75,-0.000269,-0.000008,  64.469
    97.0,0.000062,0.000078, 75,-0.000278,0.000006,  64.467
    97.2,0.000059,0.000078, 75,-0.000294,-0.000008,  64.467
    97.4,0.000050,0.000077, 75,-0.000310,-0.000008,  64.469
    97.6,0.000050,0.000073, 75,-0.000321,0.000020,  64.470
    97.8,0.000048,0.000064, 75,-0.000350,0.000020,  64.474
    98.0,0.000048,0.000059, 75,-0.000391,0.000033,  64.467
    98.2,0.000048,0.000058, 75,-0.000439,0.000033,  64.473
    98.4,0.000043,0.000057, 75,-0.000433,0.000033,  64.471
    98.6,0.000044,0.000062, 75,-0.000415,0.000033,  64.476
    98.8,0.000044,0.000072, 75,-0.000379,0.000033,  64.474
    99.0,0.000038,0.000070, 75,-0.000374,0.000020,  64.471
    99.2,0.000041,0.000072, 75,-0.000370,0.000020,  64.471
    99.4,0.000044,0.000067, 75,-0.000396,-0.000016,  64.472
    99.6,0.000045,0.000063, 75,-0.000415,0.000020,  64.470
    99.8,0.000055,0.000065, 75,-0.000413,0.000006,  64.472
   100.0,0.000058,0.000065, 75,-0.000396,0.000006,  64.474
   100.2,0.000048,0.000065, 75,-0.000376,0.000006,  64.476
   100.4,0.000048,0.000063, 75,-0.000362,0.000006,  64.476
   100.6,0.000051,0.000073, 75,-0.000340,0.000006,  64.476
   100.8,0.000048,0.000075, 75,-0.000321,0.000006,  64.479
   101.0,0.000055,0.000072, 75,-0.000337,0.000006,  64.482
   101.2,0.000060,0.000072, 75,-0.000364,0.000020,  64.481
   101.4,0.000057,0.000073, 75,-0.000405,0.000020,  64.484
   101.6,0.000062,0.000077, 75,-0.000439,0.000033,  64.483
   101.8,0.000069,0.000082, 75,-0.000485,0.000047,  64.481
   102.0,0.000073,0.000091, 75,-0.000543,0.000033,  64.476
   102.2,0.000083,0.000093, 75,-0.000536,0.000033,  64.479
   102.4,0.000090,0.000099, 75,-0.000504,0.000047,  64.481
   102.6,0.000094,0.000108, 75,-0.000449,0.000033,  64.481
   102.8,0.000107,0.000114, 75,-0.000427,0.000033,  64.481
   103.0,0.000121,0.000128, 75,-0.000416,0.000047,  64.483
   103.2,0.000129,0.000144, 75,-0.000402,0.000047,  64.480
   103.4,0.000154,0.000163, 75,-0.000375,0.000047,  64.481
   103.6,0.000172,0.000183, 75,-0.000342,0.000061,  64.480
   103.8,0.000186,0.000214, 75,-0.000303,0.000047,  64.484
   104.0,0.000210,0.000248, 75,-0.000276,0.000033,  64.483
   104.2,0.000233,0.000283, 75,-0.000250,0.000047,  64.489
   104.4,0.000256,0.000331, 75,-0.000229,0.000047,  64.495
   104.6,0.000285,0.000382, 75,-0.000204,0.000047,  64.496
   104.8,0.000313,0.000439, 75,-0.000192,0.000061,  64.500
   105.0,0.000354,0.000508, 75,-0.000186,0.000061,  64.490
   105.2,0.000410,0.000579, 75,-0.000121,0.000047,  64.492
   105.4,0.000481,0.000657, 75,-0.000028,0.000061,  64.483
   105.6,0.000549,0.000744, 75,0.000088,0.000075,  64.488
   105.8,0.000616,0.000841, 75,0.000185,0.000075,  64.482
   106.0,0.000702,0.000944, 75,0.000285,0.000102,  64.481
   106.2,0.000788,0.001062, 75,0.000396,0.000102,  64.478
   106.4,0.000880,0.001176, 75,0.000530,0.000102,  64.476
   106.6,0.000986,0.001298, 75,0.000670,0.000116,  64.471
   106.8,0.001096,0.001425, 75,0.000819,0.000144,  64.464
   107.0,0.001206,0.001552, 75,0.001005,0.000144,  64.459
   107.2,0.001328,0.001689, 75,0.001208,0.000157,  64.460
   107.4,0.001443,0.001825, 75,0.001422,0.000185,  64.462
   107.6,0.001552,0.001945, 75,0.001619,0.000212,  64.453
   107.8,0.001666,0.002066, 75,0.001820,0.000240,  64.453
   108.0,0.001767,0.002180, 75,0.002014,0.000281,  64.456
   108.2,0.001860,0.002274, 75,0.002245,0.000336,  64.452
   108.4,0.001957,0.002361, 75,0.002498,0.000392,  64.448
   108.6,0.002039,0.002434, 75,0.002771,0.000433,  64.443
   108.8,0.002114,0.002507, 75,0.002976,0.000474,  64.418
   109.0,0.002190,0.002576, 75,0.003166,0.000516,  64.411
   109.2,0.002249,0.002641, 75,0.003328,0.000522,  64.408
   109.4,0.002291,0.002685, 75,0.003469,0.000598,  64.406
   109.6,0.002324,0.002713, 75,0.003637,0.000626,  64.405
   109.8,0.002362,0.002737, 75,0.003806,0.000681,  64.405
   110.0,0.002395,0.002762, 75,0.003967,0.000722,  64.404
   110.2,0.002421,0.002783, 75,0.004120,0.000777,  64.400
   110.4,0.002447,0.002799, 75,0.004267,0.000833,  64.394
   110.6,0.002468,0.002815, 75,0.004396,0.000874,  64.390
   110.8,0.002484,0.002837, 75,0.004502,0.000915,  64.390
   111.0,0.002503,0.002860, 75,0.004584,0.000957,  64.391
   111.2,0.002520,0.002888, 75,0.004652,0.000984,  64.391
   111.4,0.002534,0.002920, 75,0.004717,0.000984,  64.378
   111.6,0.002567,0.002950, 75,0.004780,0.000998,  64.373
   111.8,0.002604,0.002988, 75,0.004822,0.001026,  64.374
   112.0,0.002651,0.003029, 75,0.004881,0.001012,  64.371
   112.2,0.002691,0.003074, 75,0.004940,0.001026,  64.374
   112.4,0.002729,0.003123, 75,0.004999,0.001040,  64.370
   112.6,0.002764,0.003176, 75,0.005035,0.001040,  64.375
   112.8,0.002817,0.003234, 75,0.005055,0.001053,  64.374
   113.0,0.002864,0.003296, 75,0.005061,0.001053,  64.375
   113.2,0.002916,0.003350, 75,0.005124,0.001053,  64.373
   113.4,0.002968,0.003407, 75,0.005213,0.001081,  64.374
   113.6,0.003017,0.003457, 75,0.005325,0.001081,  64.371
   113.8,0.003063,0.003502, 75,0.005416,0.001095,  64.374
   114.0,0.003091,0.003541, 75,0.005519,0.001109,  64.379
   114.2,0.003111,0.003572, 75,0.005619,0.001136,  64.376
   114.4,0.003136,0.003596, 75,0.005743,0.001136,  64.376
   114.6,0.003145,0.003613, 75,0.005887,0.001150,  64.378
   114.8,0.003149,0.003617, 75,0.006027,0.001178,  64.382
   115.0,0.003156,0.003612, 75,0.006100,0.001205,  64.378
   115.2,0.003159,0.003598, 75,0.006155,0.001233,  64.378
   115.4,0.003151,0.003578, 75,0.006175,0.001260,  64.380
   115.6,0.003125,0.003537, 75,0.006240,0.001288,  64.378
   115.8,0.003097,0.003481, 75,0.006301,0.001316,  64.380
   116.0,0.003067,0.003409, 75,0.006378,0.001329,  64.380
   116.2,0.003027,0.003352, 75,0.006360,0.001329,  64.380
   116.4,0.002972,0.003291, 75,0.006284,0.001343,  64.381
   116.6,0.002920,0.003228, 75,0.006174,0.001357,  64.382
   116.8,0.002866,0.003161, 75,0.006116,0.001371,  64.377
   117.0,0.002803,0.003093, 75,0.006056,0.001385,  64.377
   117.2,0.002739,0.003016, 75,0.005998,0.001385,  64.374
   117.4,0.002669,0.002940, 75,0.005912,0.001357,  64.378
   117.6,0.002593,0.002863, 75,0.005813,0.001343,  64.377
   117.8,0.002527,0.002786, 75,0.005690,0.001329,  64.376
   118.0,0.002464,0.002701, 75,0.005557,0.001302,  64.380
   118.2,0.002400,0.002610, 75,0.005422,0.001288,  64.378
   118.4,0.002332,0.002526, 75,0.005266,0.001274,  64.380
   118.6,0.002262,0.002445, 75,0.005141,0.001260,  64.378
   118.8,0.002186,0.002363, 75,0.005031,0.001268,  64.374
   119.0,0.002118,0.002288, 75,0.004933,0.001233,  64.376
   119.2,0.002052,0.002214, 75,0.004842,0.001240,  64.383
   119.4,0.001989,0.002144, 75,0.004690,0.001227,  64.381
   119.6,0.001925,0.002075, 75,0.004519,0.001213,  64.384
   119.8,0.001864,0.002021, 75,0.004327,0.001207,  64.385
   120.0,0.001806,0.001967, 75,0.004187,0.001130,  64.389
   120.2,0.001749,0.001926, 75,0.004059,0.001102,  64.394
   120.4,0.001693,0.001889, 75,0.003947,0.001040,  64.388
   120.6,0.001637,0.001840, 75,0.003796,0.001033,  64.396
   120.8,0.001585,0.001789, 75,0.003635,0.001006,  64.398
   121.0,0.001536,0.001739, 75,0.003454,0.000929,  64.406
   121.2,0.001494,0.001684, 75,0.003336,0.000937,  64.413
   121.4,0.001446,0.001633, 75,0.003238,0.000909,  64.418
   121.6,0.001409,0.001578, 75,0.003161,0.000846,  64.421
   121.8,0.001381,0.001530, 75,0.003062,0.000854,  64.424
   122.0,0.001336,0.001487, 75,0.002954,0.000840,  64.422
   122.2,0.001299,0.001454, 75,0.002849,0.000791,  64.418
   122.4,0.001259,0.001406, 75,0.002777,0.000799,  64.421
   122.6,0.001224,0.001358, 75,0.002718,0.000785,  64.422
   122.8,0.001186,0.001311, 75,0.002674,0.000736,  64.420
   123.0,0.001146,0.001270, 75,0.002597,0.000695,  64.423
   123.2,0.001111,0.001235, 75,0.002516,0.000681,  64.427
   123.4,0.001080,0.001207, 75,0.002410,0.000653,  64.427
   123.6,0.001048,0.001170, 75,0.002332,0.000626,  64.428
   123.8,0.001022,0.001133, 75,0.002253,0.000612,  64.429
   124.0,0.000995,0.001098, 75,0.002184,0.000598,  64.433
   124.2,0.000974,0.001067, 75,0.002111,0.000571,  64.437
   124.4,0.000963,0.001042, 75,0.002036,0.000557,  64.430
   124.6,0.000937,0.001018, 75,0.001966,0.000543,  64.429
   124.8,0.000905,0.000983, 75,0.001924,0.000516,  64.429
   125.0,0.000874,0.000953, 75,0.001879,0.000502,  64.430
   125.2,0.000848,0.000916, 75,0.001849,0.000488,  64.431
   125.4,0.000823,0.000885, 75,0.001814,0.000460,  64.429
   125.6,0.000797,0.000864, 75,0.001783,0.000447,  64.432
   125.8,0.000776,0.000841, 75,0.001743,0.000419,  64.427
   126.0,0.000755,0.000816, 75,0.001723,0.000405,  64.428
   126.2,0.000744,0.000790, 75,0.001709,0.000405,  64.428
   126.4,0.000722,0.000768, 75,0.001700,0.000392,  64.420
   126.6,0.000701,0.000746, 75,0.001670,0.000378,  64.424
   126.8,0.000687,0.000718, 75,0.001638,0.000378,  64.423
   127.0,0.000666,0.000698, 75,0.001598,0.000364,  64.424
   127.2,0.000647,0.000680, 75,0.001572,0.000350,  64.424
   127.4,0.000634,0.000662, 75,0.001555,0.000336,  64.418
   127.6,0.000614,0.000650, 75,0.001545,0.000323,  64.420
   127.8,0.000602,0.000636, 75,0.001533,0.000295,  64.419
   128.0,0.000598,0.000624, 75,0.001532,0.000295,  64.420
   128.2,0.000588,0.000617, 75,0.001538,0.000281,  64.418
   128.4,0.000581,0.000608, 75,0.001548,0.000281,  64.418
   128.6,0.000582,0.000596, 75,0.001560,0.000268,  64.413
   128.8,0.000574,0.000591, 75,0.001591,0.000232,  64.418
   129.0,0.000574,0.000580, 75,0.001610,0.000254,  64.413
   129.2,0.000580,0.000569, 75,0.001648,0.000226,  64.411
   129.4,0.000572,0.000557, 75,0.001691,0.000226,  64.416
   129.6,0.000572,0.000550, 75,0.001742,0.000212,  64.413
   129.8,0.000580,0.000547, 75,0.001797,0.000199,  64.417
   130.0,0.000574,0.000539, 75,0.001862,0.000199,  64.418
   130.2,0.000575,0.000539, 75,0.001933,0.000185,  64.414
   130.4,0.000576,0.000538, 75,0.001992,0.000185,  64.407
   130.6,0.000575,0.000538, 75,0.002048,0.000199,  64.409
   130.8,0.000583,0.000538, 75,0.002095,0.000171,  64.406
   131.0,0.000587,0.000538, 75,0.002159,0.000157,  64.411
   131.2,0.000587,0.000536, 75,0.002241,0.000157,  64.411
   131.4,0.000594,0.000534, 75,0.002324,0.000157,  64.412
   131.6,0.000598,0.000536, 75,0.002420,0.000144,  64.414
   131.8,0.000602,0.000532, 75,0.002540,0.000144,  64.415
   132.0,0.000614,0.000530, 75,0.002670,0.000144,  64.416
   132.2,0.000631,0.000530, 75,0.002788,0.000130,  64.416
   132.4,0.000635,0.000528, 75,0.002908,0.000130,  64.406
   132.6,0.000645,0.000530, 75,0.003023,0.000116,  64.412
   132.8,0.000652,0.000532, 75,0.003143,0.000102,  64.409
   133.0,0.000659,0.000535, 75,0.003262,0.000102,  64.405
   133.2,0.000670,0.000543, 75,0.003388,0.000116,  64.410
   133.4,0.000687,0.000548, 75,0.003529,0.000116,  64.405
   133.6,0.000699,0.000553, 75,0.003676,0.000116,  64.407
   133.8,0.000710,0.000560, 75,0.003838,0.000130,  64.401
   134.0,0.000730,0.000570, 75,0.004000,0.000116,  64.402
   134.2,0.000748,0.000575, 75,0.004177,0.000102,  64.400
   134.4,0.000762,0.000580, 75,0.004366,0.000102,  64.401
   134.6,0.000779,0.000594, 75,0.004577,0.000089,  64.400
   134.8,0.000795,0.000606, 75,0.004806,0.000089,  64.409
   135.0,0.000811,0.000616, 75,0.005065,0.000089,  64.403
   135.2,0.000834,0.000621, 75,0.005309,0.000102,  64.405
   135.4,0.000858,0.000631, 75,0.005563,0.000102,  64.413
   135.6,0.000874,0.000642, 75,0.005812,0.000102,  64.413
   135.8,0.000898,0.000650, 75,0.006069,0.000089,  64.415
   136.0,0.000922,0.000664, 75,0.006327,0.000075,  64.405
   136.2,0.000940,0.000677, 75,0.006593,0.000075,  64.412
   136.4,0.000966,0.000689, 75,0.006874,0.000089,  64.412
   136.6,0.000997,0.000701, 75,0.007174,0.000089,  64.416
   136.8,0.001019,0.000711, 75,0.007482,0.000089,  64.419
   137.0,0.001043,0.000721, 75,0.007771,0.000089,  64.414
   137.2,0.001071,0.000739, 75,0.008049,0.000089,  64.413
   137.4,0.001102,0.000760, 75,0.008323,0.000089,  64.415
   137.6,0.001130,0.000775, 75,0.008661,0.000089,  64.409
   137.8,0.001166,0.000795, 75,0.009019,0.000089,  64.413
   138.0,0.001193,0.000817, 75,0.009406,0.000089,  64.409
   138.2,0.001224,0.000842, 75,0.009710,0.000075,  64.413
   138.4,0.001262,0.000860, 75,0.009998,0.000110,  64.422
   138.6,0.001294,0.000881, 75,0.010253,0.000075,  64.422
   138.8,0.001329,0.000905, 75,0.010482,0.000096,  64.427
   139.0,0.001372,0.000922, 75,0.010849,0.000096,  64.433
   139.2,0.001407,0.000935, 75,0.011254,0.000096,  64.432
   139.4,0.001449,0.000952, 75,0.011701,0.000132,  64.426
   139.6,0.001491,0.000969, 75,0.011888,0.000083,  64.420
   139.8,0.001536,0.000986, 75,0.011956,0.000096,  64.418
   140.0,0.001578,0.000999, 75,0.011906,0.000061,  64.411
   140.2,0.001620,0.001022, 75,0.012345,0.000083,  64.414
   140.4,0.001665,0.001049, 75,0.012970,0.000096,  64.415
   140.6,0.001709,0.001075, 75,0.013784,0.000061,  64.412
   140.8,0.001762,0.001095, 75,0.014359,0.000083,  64.415
   141.0,0.001801,0.001120, 75,0.014916,0.000096,  64.416
   141.2,0.001846,0.001146, 75,0.015455,0.000061,  64.415
   141.4,0.001896,0.001169, 75,0.016027,0.000083,  64.413
   141.6,0.001942,0.001197, 75,0.016614,0.000096,  64.416
   141.8,0.001996,0.001231, 75,0.017209,0.000047,  64.420
   142.0,0.002055,0.001260, 75,0.017763,0.000069,  64.414
   142.2,0.002106,0.001288, 75,0.018302,0.000083,  64.424
   142.4,0.002158,0.001319, 75,0.018824,0.000047,  64.423
   142.6,0.002218,0.001348, 75,0.019407,0.000096,  64.424
   142.8,0.002266,0.001378, 75,0.020019,0.000110,  64.423
   143.0,0.002313,0.001402, 75,0.020651,0.000061,  64.424
   143.2,0.002366,0.001431, 75,0.021268,0.000096,  64.426
   143.4,0.002408,0.001460, 75,0.021881,0.000110,  64.422
   143.6,0.002445,0.001488, 75,0.022510,0.000061,  64.422
   143.8,0.002486,0.001515, 75,0.023158,0.000096,  64.422
   144.0,0.002519,0.001542, 75,0.023802,0.000110,  64.420
   144.2,0.002566,0.001573, 75,0.024462,0.000061,  64.422
   144.4,0.002613,0.001607, 75,0.025128,0.000096,  64.414
   144.6,0.002665,0.001637, 75,0.025799,0.000110,  64.414
   144.8,0.002716,0.001669, 75,0.026472,0.000061,  64.419
   145.0,0.002774,0.001704, 75,0.027128,0.000096,  64.414
   145.2,0.002836,0.001740, 75,0.027788,0.000110,  64.410
   145.4,0.002895,0.001775, 75,0.028432,0.000061,  64.414
   145.6,0.002956,0.001809, 75,0.029105,0.000096,  64.405
   145.8,0.003020,0.001845, 75,0.029787,0.000110,  64.410
   146.0,0.003081,0.001880, 75,0.030479,0.000061,  64.406
   146.2,0.003144,0.001913, 75,0.031151,0.000096,  64.408
   146.4,0.003213,0.001950, 75,0.031818,0.000110,  64.405
   146.6,0.003274,0.001987, 75,0.032476,0.000061,  64.404
   146.8,0.003340,0.002028, 75,0.033167,0.000083,  64.404
   147.0,0.003411,0.002068, 75,0.033877,0.000096,  64.409
   147.2,0.003477,0.002113, 75,0.034594,0.000061,  64.403
   147.4,0.003545,0.002151, 75,0.035338,0.000096,  64.402
   147.6,0.003619,0.002186, 75,0.036100,0.000110,  64.404
   147.8,0.003684,0.002219, 75,0.036875,0.000075,  64.401
   148.0,0.003750,0.002258, 75,0.037525,0.000110,  64.408
   148.2,0.003814,0.002297, 75,0.038125,0.000110,  64.405
   148.4,0.003877,0.002341, 75,0.038669,0.000110,  64.407
   148.6,0.003945,0.002383, 75,0.039165,0.000110,  64.408
   148.8,0.004011,0.002420, 75,0.039909,0.000110,  64.405
   149.0,0.004077,0.002462, 75,0.040727,0.000089,  64.406
   149.2,0.004148,0.002496, 75,0.041617,0.000110,  64.405
   149.4,0.004224,0.002528, 75,0.042439,0.000110,  64.404
   149.6,0.004298,0.002555, 75,0.043256,0.000124,  64.406
   149.8,0.004364,0.002581, 75,0.044076,0.000089,  64.405
   150.0,0.004428,0.002616, 75,0.044910,0.000110,  64.406
   150.2,0.004502,0.002661, 75,0.045728,0.000124,  64.411
   150.4,0.004573,0.002704, 75,0.046554,0.000089,  64.411
   150.6,0.004641,0.002744, 75,0.047390,0.000110,  64.418
   150.8,0.004714,0.002788, 75,0.048228,0.000124,  64.418
   151.0,0.004787,0.002831, 75,0.049065,0.000089,  64.422
   151.2,0.004864,0.002875, 75,0.049912,0.000110,  64.422
   151.4,0.004934,0.002919, 75,0.050755,0.000124,  64.420
   151.6,0.005010,0.002961, 75,0.051599,0.000089,  64.423
   151.8,0.005088,0.003006, 75,0.052478,0.000110,  64.431
   152.0,0.005159,0.003050, 75,0.053375,0.000124,  64.428
   152.2,0.005230,0.003091, 75,0.054291,0.000089,  64.430
   152.4,0.005303,0.003135, 75,0.055202,0.000110,  64.425
   152.6,0.005379,0.003178, 75,0.056118,0.000124,  64.422
   152.8,0.005462,0.003223, 75,0.057033,0.000089,  64.424
   153.0,0.005546,0.003269, 75,0.057927,0.000110,  64.418
   153.2,0.005612,0.003313, 75,0.058801,0.000124,  64.422
   153.4,0.005669,0.003363, 75,0.059662,0.000089,  64.424
   153.6,0.005721,0.003409, 75,0.060568,0.000110,  64.422
   153.8,0.005771,0.003451, 75,0.061475,0.000124,  64.423
   154.0,0.005842,0.003501, 75,0.062399,0.000089,  64.419
   154.2,0.005920,0.003549, 75,0.063321,0.000110,  64.420
   154.4,0.005995,0.003593, 75,0.064243,0.000124,  64.422
   154.6,0.006076,0.003642, 75,0.065172,0.000089,  64.422
   154.8,0.006152,0.003687, 75,0.066100,0.000110,  64.421
   155.0,0.006230,0.003731, 75,0.067028,0.000124,  64.421
   155.2,0.006308,0.003775, 75,0.067958,0.000089,  64.425
   155.4,0.006384,0.003826, 75,0.068871,0.000110,  64.429
   155.6,0.006460,0.003871, 75,0.069788,0.000124,  64.435
   155.8,0.006533,0.003922, 75,0.070690,0.000089,  64.425
   156.0,0.006614,0.003970, 75,0.071595,0.000124,  64.432
   156.2,0.006692,0.004014, 75,0.072496,0.000124,  64.435
   156.4,0.006763,0.004056, 75,0.073388,0.000089,  64.436
   156.6,0.006839,0.004101, 75,0.074292,0.000124,  64.420
   156.8,0.006916,0.004144, 75,0.075204,0.000124,  64.416
   157.0,0.006997,0.004187, 75,0.076111,0.000089,  64.409
   157.2,0.007073,0.004230, 75,0.077027,0.000124,  64.410
   157.4,0.007147,0.004274, 75,0.077941,0.000138,  64.400
   157.6,0.007228,0.004319, 75,0.078861,0.000102,  64.397
   157.8,0.007300,0.004364, 75,0.079640,0.000138,  64.401
   158.0,0.007369,0.004402, 75,0.080348,0.000138,  64.403
   158.2,0.007437,0.004452, 75,0.080975,0.000151,  64.398
   158.4,0.007511,0.004500, 75,0.081540,0.000138,  64.397
   158.6,0.007592,0.004542, 75,0.082365,0.000138,  64.387
   158.8,0.007661,0.004589, 75,0.083253,0.000116,  64.390
   159.0,0.007732,0.004628, 75,0.084206,0.000151,  64.385
   159.2,0.007809,0.004663, 75,0.085057,0.000151,  64.389
   159.4,0.007875,0.004692, 75,0.085892,0.000151,  64.389
   159.6,0.007944,0.004717, 75,0.086707,0.000130,  64.387
   159.8,0.008016,0.004758, 75,0.087550,0.000151,  64.382
   160.0,0.008082,0.004802, 75,0.088401,0.000151,  64.384
   160.2,0.008154,0.004854, 75,0.089254,0.000130,  64.380
   160.4,0.008233,0.004893, 75,0.090100,0.000151,  64.381
   160.6,0.008299,0.004940, 75,0.090924,0.000151,  64.377
   160.8,0.008366,0.004981, 75,0.091754,0.000130,  64.370
   161.0,0.008428,0.005015, 75,0.092597,0.000151,  64.371
   161.2,0.008488,0.005053, 75,0.093448,0.000151,  64.366
   161.4,0.008545,0.005080, 75,0.094301,0.000116,  64.361
   161.6,0.008593,0.005118, 75,0.095132,0.000138,  64.353
   161.8,0.008660,0.005159, 75,0.095959,0.000124,  64.350
   162.0,0.008731,0.005204, 75,0.096784,0.000089,  64.347
   162.2,0.008813,0.005243, 75,0.097572,0.000124,  64.334
   162.4,0.008877,0.005277, 75,0.098347,0.000124,  64.332
   162.6,0.008936,0.005317, 75,0.099093,0.000089,  64.331
   162.8,0.008999,0.005354, 75,0.099834,0.000138,  64.323
   163.0,0.009052,0.005392, 75,0.100560,0.000138,  64.319
   163.2,0.009096,0.005436, 75,0.101268,0.000102,  64.319
   163.4,0.009147,0.005474, 75,0.102006,0.000124,  64.312
   163.6,0.009188,0.005508, 75,0.102748,0.000110,  64.307
   163.8,0.009245,0.005549, 75,0.103487,0.000075,  64.304
   164.0,0.009305,0.005584, 75,0.104186,0.000110,  64.305
   164.2,0.009367,0.005624, 75,0.104866,0.000124,  64.300
   164.4,0.009421,0.005663, 75,0.105521,0.000089,  64.304
   164.6,0.009476,0.005697, 75,0.106222,0.000110,  64.301
   164.8,0.009537,0.005733, 75,0.106921,0.000138,  64.309
   165.0,0.009586,0.005764, 75,0.107634,0.000102,  64.308
   165.2,0.009637,0.005794, 75,0.108312,0.000102,  64.311
   165.4,0.009692,0.005827, 75,0.108958,0.000116,  64.310
   165.6,0.009742,0.005858, 75,0.109596,0.000130,  64.313
   165.8,0.009794,0.005888, 75,0.110253,0.000151,  64.310
   166.0,0.009853,0.005927, 75,0.110899,0.000151,  64.319
   166.2,0.009900,0.005961, 75,0.111542,0.000130,  64.313
   166.4,0.009958,0.005991, 75,0.112129,0.000151,  64.312
   166.6,0.010009,0.006028, 75,0.112688,0.000138,  64.317
   166.8,0.010054,0.006059, 75,0.113210,0.000138,  64.319
   167.0,0.010112,0.006089, 75,0.113779,0.000159,  64.312
   167.2,0.010160,0.006126, 75,0.114373,0.000145,  64.314
   167.4,0.010204,0.006164, 75,0.114971,0.000145,  64.322
   167.6,0.010265,0.006189, 75,0.115569,0.000159,  64.314
   167.8,0.010315,0.006222, 75,0.116183,0.000159,  64.316
   168.0,0.010358,0.006250, 75,0.116793,0.000173,  64.310
   168.2,0.010411,0.006279, 75,0.117303,0.000138,  64.312
   168.4,0.010457,0.006312, 75,0.117761,0.000138,  64.308
   168.6,0.010499,0.006346, 75,0.118166,0.000116,  64.307
   168.8,0.010552,0.006371, 75,0.118524,0.000138,  64.301
   169.0,0.010603,0.006402, 75,0.119025,0.000138,  64.300
   169.2,0.010645,0.006427, 75,0.119561,0.000124,  64.296
   169.4,0.010694,0.006453, 75,0.120115,0.000089,  64.294
   169.6,0.010737,0.006470, 75,0.120636,0.000124,  64.286
   169.8,0.010772,0.006493, 75,0.121140,0.000110,  64.287
   170.0,0.010819,0.006516, 75,0.121641,0.000075,  64.284
   170.2,0.010855,0.006534, 75,0.122146,0.000124,  64.281
   170.4,0.010890,0.006558, 75,0.122647,0.000124,  64.290
   170.6,0.010936,0.006582, 75,0.123146,0.000089,  64.287
   170.8,0.010972,0.006605, 75,0.123607,0.000124,  64.287
   171.0,0.011003,0.006625, 75,0.124028,0.000124,  64.287
   171.2,0.011034,0.006652, 75,0.124440,0.000089,  64.286
   171.4,0.011063,0.006671, 75,0.124858,0.000124,  64.284
   171.6,0.011088,0.006689, 75,0.125266,0.000124,  64.274
   171.8,0.011120,0.006708, 75,0.125671,0.000089,  64.287
   172.0,0.011151,0.006728, 75,0.126046,0.000124,  64.279
   172.2,0.011177,0.006754, 75,0.126407,0.000124,  64.276
   172.4,0.011211,0.006776, 75,0.126748,0.000089,  64.287
   172.6,0.011246,0.006793, 75,0.127072,0.000124,  64.293
   172.8,0.011269,0.006810, 75,0.127375,0.000124,  64.292
   173.0,0.011301,0.006822, 75,0.127658,0.000089,  64.300
   173.2,0.011327,0.006836, 75,0.127992,0.000124,  64.295
   173.4,0.011351,0.006859, 75,0.128350,0.000124,  64.283
   173.6,0.011370,0.006881, 75,0.128712,0.000089,  64.271
   173.8,0.011382,0.006894, 75,0.129036,0.000124,  64.270
   174.0,0.011402,0.006908, 75,0.129357,0.000124,  64.264
   174.2,0.011423,0.006921, 75,0.129665,0.000110,  64.261
   174.4,0.011442,0.006937, 75,0.129958,0.000118,  64.255
   174.6,0.011466,0.006945, 75,0.130238,0.000132,  64.223
   174.8,0.011482,0.006959, 75,0.130503,0.000110,  64.222
   175.0,0.011504,0.006971, 75,0.130756,0.000110,  64.217
   175.2,0.011531,0.006982, 75,0.130994,0.000124,  64.213
   175.4,0.011544,0.006990, 75,0.131201,0.000089,  64.212
   175.6,0.011559,0.006996, 75,0.131401,0.000110,  64.213
   175.8,0.011576,0.007008, 75,0.131598,0.000124,  64.208
   176.0,0.011588,0.007017, 75,0.131767,0.000075,  64.206
   176.2,0.011605,0.007025, 75,0.131922,0.000096,  64.210
   176.4,0.011622,0.007040, 75,0.132073,0.000110,  64.215
   176.6,0.011631,0.007054, 75,0.132207,0.000061,  64.209
   176.8,0.011645,0.007068, 75,0.132351,0.000096,  64.212
   177.0,0.011663,0.007079, 75,0.132495,0.000110,  64.217
   177.2,0.011667,0.007086, 75,0.132647,0.000061,  64.215
   177.4,0.011674,0.007093, 75,0.132742,0.000096,  64.221
   177.6,0.011684,0.007100, 75,0.132809,0.000110,  64.222
   177.8,0.011686,0.007100, 75,0.132845,0.000075,  64.220
   178.0,0.011696,0.007101, 75,0.132919,0.000110,  64.221
   178.2,0.011708,0.007107, 75,0.133000,0.000110,  64.218
   178.4,0.011708,0.007114, 75,0.133077,0.000110,  64.223
   178.6,0.011721,0.007115, 75,0.133165,0.000110,  64.222
   178.8,0.011731,0.007124, 75,0.133221,0.000110,  64.225
   179.0,0.011728,0.007126, 75,0.133264,0.000075,  64.228
   179.2,0.011738,0.007129, 75,0.133314,0.000096,  64.227
   179.4,0.011746,0.007127, 75,0.133395,0.000083,  64.228
   179.6,0.011743,0.007133, 75,0.133497,0.000096,  64.228
   179.8,0.011745,0.007134, 75,0.133616,0.000061,  64.225
   180.0,0.011740,0.007136, 75,0.133644,0.000083,  64.233
   180.2,0.011735,0.007138, 75,0.133630,0.000096,  64.235
   180.4,0.011740,0.007144, 75,0.133592,0.000061,  64.235
   180.6,0.011736,0.007146, 75,0.133582,0.000083,  64.234
   180.8,0.011730,0.007144, 75,0.133567,0.000096,  64.236
   181.0,0.011736,0.007147, 75,0.133553,0.000061,  64.238
   181.2,0.011733,0.007149, 75,0.133524,0.000083,  64.231
   181.4,0.011725,0.007147, 75,0.133482,0.000096,  64.237
   181.6,0.011726,0.007149, 75,0.133429,0.000061,  64.237
   181.8,0.011721,0.007146, 75,0.133354,0.000083,  64.238
   182.0,0.011704,0.007139, 75,0.133266,0.000096,  64.244
   182.2,0.011700,0.007133, 75,0.133161,0.000061,  64.241
   182.4,0.011686,0.007126, 75,0.133044,0.000096,  64.240
   182.6,0.011674,0.007129, 75,0.132925,0.000110,  64.242
   182.8,0.011674,0.007127, 75,0.132787,0.000075,  64.242
   183.0,0.011670,0.007122, 75,0.132640,0.000110,  64.244
   183.2,0.011662,0.007118, 75,0.132478,0.000124,  64.243
   183.4,0.011650,0.007111, 75,0.132305,0.000110,  64.247
   183.6,0.011643,0.007102, 75,0.132119,0.000132,  64.240
   183.8,0.011633,0.007099, 75,0.131912,0.000145,  64.246
   184.0,0.011616,0.007090, 75,0.131687,0.000132,  64.239
   184.2,0.011607,0.007078, 75,0.131529,0.000132,  64.236
   184.4,0.011593,0.007070, 75,0.131392,0.000145,  64.242
   184.6,0.011575,0.007063, 75,0.131262,0.000145,  64.246
   184.8,0.011566,0.007054, 75,0.131093,0.000159,  64.243
   185.0,0.011549,0.007046, 75,0.130924,0.000159,  64.238
   185.2,0.011525,0.007041, 75,0.130728,0.000124,  64.243
   185.4,0.011511,0.007029, 75,0.130538,0.000124,  64.243
   185.6,0.011489,0.007021, 75,0.130332,0.000124,  64.238
   185.8,0.011465,0.007005, 75,0.130125,0.000110,  64.235
   186.0,0.011451,0.006989, 75,0.129897,0.000132,  64.234
   186.2,0.011434,0.006979, 75,0.129645,0.000145,  64.238
   186.4,0.011409,0.006964, 75,0.129387,0.000145,  64.239
   186.6,0.011389,0.006948, 75,0.129115,0.000145,  64.241
   186.8,0.011364,0.006939, 75,0.128808,0.000159,  64.235
   187.0,0.011335,0.006928, 75,0.128491,0.000159,  64.239
   187.2,0.011314,0.006914, 75,0.128205,0.000145,  64.236
   187.4,0.011288,0.006902, 75,0.127923,0.000159,  64.236
   187.6,0.011258,0.006890, 75,0.127644,0.000159,  64.238
   187.8,0.011237,0.006878, 75,0.127383,0.000145,  64.235
   188.0,0.011215,0.006862, 75,0.127143,0.000145,  64.230
   188.2,0.011188,0.006848, 75,0.126906,0.000145,  64.229
   188.4,0.011162,0.006835, 75,0.126698,0.000110,  64.236
   188.6,0.011138,0.006823, 75,0.126378,0.000145,  64.232
   188.8,0.011109,0.006807, 75,0.126028,0.000124,  64.233
   189.0,0.011082,0.006795, 75,0.125651,0.000124,  64.228
   189.2,0.011059,0.006786, 75,0.125308,0.000159,  64.235
   189.4,0.011027,0.006772, 75,0.124955,0.000159,  64.232
   189.6,0.011001,0.006769, 75,0.124599,0.000159,  64.236
   189.8,0.010974,0.006754, 75,0.124257,0.000145,  64.232
   190.0,0.010940,0.006737, 75,0.123908,0.000159,  64.241
   190.2,0.010917,0.006716, 75,0.123560,0.000159,  64.248
   190.4,0.010891,0.006703, 75,0.123187,0.000145,  64.250
   190.6,0.010862,0.006680, 75,0.122795,0.000159,  64.241
   190.8,0.010835,0.006662, 75,0.122383,0.000124,  64.235
   191.0,0.010814,0.006644, 75,0.121981,0.000110,  64.225
   191.2,0.010780,0.006627, 75,0.121580,0.000124,  64.224
   191.4,0.010752,0.006610, 75,0.121172,0.000089,  64.223
   191.6,0.010722,0.006591, 75,0.120777,0.000110,  64.223
   191.8,0.010682,0.006577, 75,0.120397,0.000124,  64.225
   192.0,0.010647,0.006562, 75,0.120016,0.000089,  64.226
   192.2,0.010613,0.006538, 75,0.119596,0.000124,  64.222
   192.4,0.010572,0.006513, 75,0.119155,0.000138,  64.216
   192.6,0.010536,0.006490, 75,0.118699,0.000102,  64.213
   192.8,0.010503,0.006465, 75,0.118253,0.000138,  64.217
   193.0,0.010472,0.006440, 75,0.117793,0.000151,  64.220
   193.2,0.010445,0.006427, 75,0.117321,0.000116,  64.217
   193.4,0.010422,0.006410, 75,0.116869,0.000138,  64.218
   193.6,0.010398,0.006381, 75,0.116424,0.000138,  64.215
   193.8,0.010359,0.006361, 75,0.115979,0.000102,  64.217
   194.0,0.010324,0.006336, 75,0.115532,0.000138,  64.217
   194.2,0.010283,0.006312, 75,0.115095,0.000138,  64.218
   194.4,0.010239,0.006286, 75,0.114656,0.000102,  64.211
   194.6,0.010201,0.006259, 75,0.114206,0.000138,  64.209
   194.8,0.010160,0.006237, 75,0.113748,0.000138,  64.220
   195.0,0.010114,0.006211, 75,0.113280,0.000102,  64.214
   195.2,0.010071,0.006183, 75,0.112748,0.000138,  64.214
   195.4,0.010033,0.006155, 75,0.112182,0.000138,  64.218
   195.6,0.009987,0.006125, 75,0.111590,0.000102,  64.227
   195.8,0.009949,0.006101, 75,0.111082,0.000138,  64.224
   196.0,0.009911,0.006080, 75,0.110590,0.000138,  64.227
   196.2,0.009868,0.006064, 75,0.110128,0.000102,  64.228
   196.4,0.009832,0.006038, 75,0.109687,0.000138,  64.228
   196.6,0.009801,0.006012, 75,0.109250,0.000124,  64.228
   196.8,0.009757,0.005986, 75,0.108833,0.000089,  64.236
   197.0,0.009714,0.005957, 75,0.108386,0.000124,  64.236
   197.2,0.009677,0.005931, 75,0.107926,0.000110,  64.239
   197.4,0.009628,0.005904, 75,0.107467,0.000061,  64.237
   197.6,0.009585,0.005875, 75,0.107058,0.000096,  64.238
   197.8,0.009545,0.005849, 75,0.106676,0.000096,  64.240
   198.0,0.009494,0.005818, 75,0.106305,0.000096,  64.239
   198.2,0.009449,0.005790, 75,0.105963,0.000096,  64.240
   198.4,0.009407,0.005768, 75,0.105460,0.000096,  64.250
   198.6,0.009358,0.005744, 75,0.104896,0.000075,  64.257
   198.8,0.009315,0.005720, 75,0.104293,0.000110,  64.256
   199.0,0.009275,0.005699, 75,0.103749,0.000110,  64.263
   199.2,0.009224,0.005671, 75,0.103222,0.000124,  64.264
   199.4,0.009181,0.005653, 75,0.102692,0.000089,  64.263
   199.6,0.009132,0.005627, 75,0.102173,0.000124,  64.268
   199.8,0.009079,0.005598, 75,0.101674,0.000138,  64.271
   200.0,0.009033,0.005567, 75,0.101185,0.000102,  64.272
   200.2,0.008993,0.005539, 75,0.100632,0.000138,  64.280
   200.4,0.008945,0.005511, 75,0.100057,0.000151,  64.282
   200.6,0.008900,0.005483, 75,0.099466,0.000116,  64.316
   200.8,0.008857,0.005450, 75,0.098912,0.000138,  64.321
   201.0,0.008808,0.005419, 75,0.098342,0.000124,  64.317
   201.2,0.008768,0.005390, 75,0.097783,0.000089,  64.323
   201.4,0.008720,0.005357, 75,0.097237,0.000124,  64.323
   201.6,0.008670,0.005333, 75,0.096698,0.000110,  64.331
   201.8,0.008630,0.005308, 75,0.096160,0.000075,  64.332
   202.0,0.008584,0.005282, 75,0.095620,0.000124,  64.329
   202.2,0.008534,0.005258, 75,0.095080,0.000124,  64.332
   202.4,0.008499,0.005235, 75,0.094540,0.000089,  64.333
   202.6,0.008462,0.005204, 75,0.093970,0.000124,  64.336
   202.8,0.008421,0.005171, 75,0.093376,0.000124,  64.337
   203.0,0.008388,0.005143, 75,0.092767,0.000075,  64.342
   203.2,0.008352,0.005112, 75,0.092209,0.000096,  64.339
   203.4,0.008326,0.005079, 75,0.091661,0.000110,  64.339
   203.6,0.008284,0.005052, 75,0.091123,0.000061,  64.347
   203.8,0.008231,0.005026, 75,0.090592,0.000096,  64.344
   204.0,0.008176,0.005002, 75,0.090083,0.000110,  64.347
   204.2,0.008123,0.004976, 75,0.089572,0.000061,  64.350
   204.4,0.008078,0.004947, 75,0.089029,0.000096,  64.350
   204.6,0.008030,0.004915, 75,0.088472,0.000110,  64.355
   204.8,0.007980,0.004883, 75,0.087903,0.000075,  64.358
   205.0,0.007942,0.004852, 75,0.087353,0.000110,  64.360
   205.2,0.007897,0.004824, 75,0.086799,0.000138,  64.366
   205.4,0.007849,0.004799, 75,0.086251,0.000102,  64.363
   205.6,0.007799,0.004770, 75,0.085680,0.000138,  64.367
   205.8,0.007748,0.004735, 75,0.085097,0.000138,  64.369
   206.0,0.007697,0.004705, 75,0.084510,0.000102,  64.372
   206.2,0.007644,0.004677, 75,0.083956,0.000124,  64.373
   206.4,0.007598,0.004640, 75,0.083417,0.000110,  64.373
   206.6,0.007544,0.004613, 75,0.082892,0.000096,  64.369
   206.8,0.007496,0.004584, 75,0.082364,0.000132,  64.376
   207.0,0.007453,0.004555, 75,0.081836,0.000145,  64.374
   207.2,0.007400,0.004528, 75,0.081313,0.000096,  64.386
   207.4,0.007358,0.004495, 75,0.080832,0.000096,  64.387
   207.6,0.007316,0.004467, 75,0.080379,0.000096,  64.375
   207.8,0.007265,0.004436, 75,0.079944,0.000096,  64.370
   208.0,0.007223,0.004407, 75,0.079531,0.000096,  64.363
   208.2,0.007173,0.004375, 75,0.079033,0.000096,  64.364
   208.4,0.007120,0.004344, 75,0.078494,0.000061,  64.364
   208.6,0.007078,0.004319, 75,0.077941,0.000110,  64.362
   208.8,0.007031,0.004294, 75,0.077413,0.000096,  64.363
   209.0,0.006978,0.004279, 75,0.076889,0.000110,  64.359
   209.2,0.006928,0.004260, 75,0.076371,0.000061,  64.353
   209.4,0.006878,0.004233, 75,0.075854,0.000096,  64.355
   209.6,0.006827,0.004208, 75,0.075326,0.000110,  64.349
   209.8,0.006785,0.004181, 75,0.074805,0.000061,  64.351
   210.0,0.006747,0.004152, 75,0.074276,0.000096,  64.357
   210.2,0.006694,0.004121, 75,0.073728,0.000110,  64.356
   210.4,0.006647,0.004094, 75,0.073179,0.000061,  64.361
   210.6,0.006605,0.004070, 75,0.072651,0.000083,  64.359
   210.8,0.006554,0.004040, 75,0.072120,0.000096,  64.362
   211.0,0.006509,0.004020, 75,0.071594,0.000061,  64.365
   211.2,0.006469,0.003993, 75,0.071041,0.000083,  64.367
   211.4,0.006419,0.003960, 75,0.070481,0.000096,  64.365
   211.6,0.006376,0.003931, 75,0.069900,0.000061,  64.376
   211.8,0.006341,0.003904, 75,0.069397,0.000083,  64.376
   212.0,0.006293,0.003878, 75,0.068927,0.000096,  64.380
   212.2,0.006246,0.003853, 75,0.068479,0.000047,  64.379
   212.4,0.006204,0.003824, 75,0.067969,0.000069,  64.383
   212.6,0.006166,0.003800, 75,0.067436,0.000083,  64.388
   212.8,0.006137,0.003773, 75,0.066892,0.000033,  64.390
   213.0,0.006104,0.003745, 75,0.066416,0.000069,  64.392
   213.2,0.006080,0.003721, 75,0.065962,0.000083,  64.395
   213.4,0.006045,0.003699, 75,0.065532,0.000033,  64.399
   213.6,0.006007,0.003673, 75,0.065108,0.000069,  64.396
   213.8,0.005962,0.003651, 75,0.064695,0.000069,  64.395
   214.0,0.005916,0.003625, 75,0.064298,0.000033,  64.397
   214.2,0.005876,0.003597, 75,0.063861,0.000055,  64.393
   214.4,0.005836,0.003576, 75,0.063413,0.000055,  64.392
   214.6,0.005788,0.003558, 75,0.062947,0.000020,  64.388
   214.8,0.005751,0.003530, 75,0.062476,0.000041,  64.388
   215.0,0.005711,0.003504, 75,0.062003,0.000041,  64.386
   215.2,0.005665,0.003479, 75,0.061528,0.000006,  64.384
   215.4,0.005633,0.003453, 75,0.061040,0.000041,  64.393
   215.6,0.005592,0.003431, 75,0.060552,0.000041,  64.391
   215.8,0.005549,0.003405, 75,0.060065,0.000006,  64.396
   216.0,0.005514,0.003376, 75,0.059569,0.000041,  64.391
   216.2,0.005474,0.003358, 75,0.059068,0.000041,  64.389
   216.4,0.005431,0.003333, 75,0.058556,0.000006,  64.397
   216.6,0.005398,0.003307, 75,0.058085,0.000041,  64.389
   216.8,0.005360,0.003288, 75,0.057625,0.000041,  64.389
   217.0,0.005322,0.003268, 75,0.057172,0.000020,  64.385
   217.2,0.005285,0.003244, 75,0.056766,0.000055,  64.386
   217.4,0.005252,0.003218, 75,0.056379,0.000055,  64.391
   217.6,0.005214,0.003188, 75,0.056027,0.000069,  64.388
   217.8,0.005171,0.003164, 75,0.055692,0.000055,  64.387
   218.0,0.005134,0.003143, 75,0.055289,0.000055,  64.387
   218.2,0.005096,0.003125, 75,0.054876,0.000033,  64.384
   218.4,0.005050,0.003106, 75,0.054453,0.000055,  64.383
   218.6,0.005013,0.003089, 75,0.054046,0.000055,  64.386
   218.8,0.004975,0.003072, 75,0.053639,0.000055,  64.387
   219.0,0.004932,0.003061, 75,0.053230,0.000033,  64.385
   219.2,0.004895,0.003037, 75,0.052805,0.000055,  64.382
   219.4,0.004859,0.003015, 75,0.052375,0.000055,  64.385
   219.6,0.004816,0.002984, 75,0.051934,0.000033,  64.383
   219.8,0.004786,0.002960, 75,0.051524,0.000055,  64.384
   220.0,0.004751,0.002939, 75,0.051123,0.000055,  64.386
   220.2,0.004705,0.002918, 75,0.050736,0.000033,  64.391
   220.4,0.004670,0.002900, 75,0.050356,0.000055,  64.390
   220.6,0.004632,0.002879, 75,0.049976,0.000055,  64.386
   220.8,0.004598,0.002859, 75,0.049602,0.000033,  64.387
   221.0,0.004568,0.002837, 75,0.049209,0.000055,  64.390
   221.2,0.004527,0.002815, 75,0.048808,0.000069,  64.395
   221.4,0.004497,0.002791, 75,0.048396,0.000033,  64.396
   221.6,0.004459,0.002763, 75,0.047973,0.000069,  64.402
   221.8,0.004424,0.002743, 75,0.047542,0.000069,  64.398
   222.0,0.004386,0.002719, 75,0.047102,0.000069,  64.402
   222.2,0.004351,0.002698, 75,0.046691,0.000090,  64.407
   222.4,0.004320,0.002679, 75,0.046308,0.000104,  64.408
   222.6,0.004294,0.002667, 75,0.045922,0.000104,  64.409
   222.8,0.004268,0.002646, 75,0.045543,0.000104,  64.409
   223.0,0.004249,0.002629, 75,0.045177,0.000118,  64.410
   223.2,0.004219,0.002605, 75,0.044816,0.000104,  64.411
   223.4,0.004189,0.002584, 75,0.044450,0.000104,  64.418
   223.6,0.004151,0.002562, 75,0.044088,0.000118,  64.418
   223.8,0.004116,0.002538, 75,0.043727,0.000104,  64.420
   224.0,0.004080,0.002516, 75,0.043333,0.000104,  64.426
   224.2,0.004042,0.002494, 75,0.042920,0.000118,  64.430
   224.4,0.004009,0.002472, 75,0.042494,0.000104,  64.431
   224.6,0.003976,0.002450, 75,0.042116,0.000104,  64.416
   224.8,0.003946,0.002431, 75,0.041753,0.000118,  64.419
   225.0,0.003913,0.002413, 75,0.041414,0.000104,  64.411
   225.2,0.003877,0.002392, 75,0.041059,0.000104,  64.412
   225.4,0.003844,0.002375, 75,0.040705,0.000118,  64.409
   225.6,0.003813,0.002358, 75,0.040358,0.000104,  64.404
   225.8,0.003783,0.002336, 75,0.040013,0.000104,  64.407
   226.0,0.003754,0.002319, 75,0.039671,0.000118,  64.405
   226.2,0.003726,0.002301, 75,0.039325,0.000104,  64.403
   226.4,0.003695,0.002278, 75,0.038975,0.000104,  64.398
   226.6,0.003662,0.002263, 75,0.038627,0.000118,  64.398
   226.8,0.003637,0.002246, 75,0.038268,0.000104,  64.402
   227.0,0.003611,0.002220, 75,0.037954,0.000104,  64.399
   227.2,0.003582,0.002201, 75,0.037669,0.000104,  64.407
   227.4,0.003554,0.002179, 75,0.037409,0.000118,  64.405
   227.6,0.003520,0.002158, 75,0.037162,0.000083,  64.408
   227.8,0.003487,0.002141, 75,0.036866,0.000104,  64.411
   228.0,0.003459,0.002126, 75,0.036573,0.000083,  64.405
   228.2,0.003425,0.002109, 75,0.036274,0.000083,  64.414
   228.4,0.003400,0.002095, 75,0.035970,0.000118,  64.410
   228.6,0.003369,0.002084, 75,0.035662,0.000132,  64.414
   228.8,0.003333,0.002076, 75,0.035352,0.000132,  64.418
   229.0,0.003306,0.002057, 75,0.035056,0.000118,  64.419
   229.2,0.003277,0.002037, 75,0.034760,0.000132,  64.418
   229.4,0.003244,0.002018, 75,0.034471,0.000132,  64.412
   229.6,0.003219,0.001997, 75,0.034147,0.000118,  64.416
   229.8,0.003193,0.001990, 75,0.033798,0.000132,  64.417
   230.0,0.003163,0.001977, 75,0.033437,0.000118,  64.421
   230.2,0.003134,0.001961, 75,0.033138,0.000104,  64.420
   230.4,0.003111,0.001949, 75,0.032852,0.000118,  64.424
   230.6,0.003085,0.001937, 75,0.032595,0.000104,  64.424
   230.8,0.003061,0.001917, 75,0.032340,0.000104,  64.432
   231.0,0.003038,0.001902, 75,0.032096,0.000104,  64.427
   231.2,0.003017,0.001886, 75,0.031865,0.000104,  64.431
   231.4,0.002995,0.001872, 75,0.031610,0.000090,  64.431
   231.6,0.002970,0.001857, 75,0.031354,0.000090,  64.430
   231.8,0.002941,0.001852, 75,0.031088,0.000090,  64.434
   232.0,0.002915,0.001840, 75,0.030826,0.000063,  64.436
   232.2,0.002896,0.001826, 75,0.030570,0.000063,  64.432
   232.4,0.002874,0.001811, 75,0.030308,0.000077,  64.436
   232.6,0.002863,0.001795, 75,0.030027,0.000077,  64.442
   232.8,0.002849,0.001787, 75,0.029726,0.000077,  64.442
   233.0,0.002830,0.001775, 75,0.029402,0.000077,  64.443
   233.2,0.002806,0.001756, 75,0.029147,0.000077,  64.443
   233.4,0.002783,0.001743, 75,0.028912,0.000077,  64.443
   233.6,0.002759,0.001724, 75,0.028700,0.000090,  64.443
   233.8,0.002733,0.001705, 75,0.028469,0.000090,  64.447
   234.0,0.002712,0.001691, 75,0.028227,0.000104,  64.445
   234.2,0.002689,0.001674, 75,0.027991,0.000104,  64.447
   234.4,0.002655,0.001655, 75,0.027755,0.000104,  64.447
   234.6,0.002632,0.001645, 75,0.027508,0.000118,  64.450
   234.8,0.002609,0.001633, 75,0.027259,0.000069,  64.447
   235.0,0.002582,0.001615, 75,0.026992,0.000069,  64.442
   235.2,0.002564,0.001602, 75,0.026718,0.000083,  64.446
   235.4,0.002540,0.001587, 75,0.026435,0.000033,  64.450
   235.6,0.002507,0.001574, 75,0.026159,0.000069,  64.445
   235.8,0.002484,0.001558, 75,0.025899,0.000083,  64.446
   236.0,0.002455,0.001545, 75,0.025649,0.000033,  64.439
   236.2,0.002431,0.001528, 75,0.025424,0.000069,  64.444
   236.4,0.002406,0.001517, 75,0.025226,0.000083,  64.440
   236.6,0.002379,0.001504, 75,0.025044,0.000047,  64.438
   236.8,0.002363,0.001487, 75,0.024861,0.000096,  64.440
   237.0,0.002342,0.001477, 75,0.024685,0.000110,  64.440
   237.2,0.002318,0.001465, 75,0.024515,0.000096,  64.440
   237.4,0.002302,0.001453, 75,0.024361,0.000110,  64.438
   237.6,0.002281,0.001440, 75,0.024111,0.000083,  64.435
   237.8,0.002257,0.001431, 75,0.023818,0.000047,  64.435
   238.0,0.002239,0.001419, 75,0.023492,0.000069,  64.430
   238.2,0.002217,0.001407, 75,0.023244,0.000069,  64.434
   238.4,0.002196,0.001398, 75,0.023019,0.000083,  64.440
   238.6,0.002182,0.001390, 75,0.022813,0.000033,  64.434
   238.8,0.002163,0.001379, 75,0.022596,0.000069,  64.429
   239.0,0.002139,0.001365, 75,0.022391,0.000083,  64.427
   239.2,0.002123,0.001343, 75,0.022192,0.000047,  64.428
   239.4,0.002098,0.001329, 75,0.021986,0.000083,  64.420
   239.6,0.002076,0.001315, 75,0.021790,0.000096,  64.420
   239.8,0.002055,0.001309, 75,0.021590,0.000061,  64.422
   240.0,0.002040,0.001297, 75,0.021395,0.000083,  64.424
   240.2,0.002021,0.001285, 75,0.021196,0.000096,  64.418
   240.4,0.001999,0.001269, 75,0.020994,0.000047,  64.411
   240.6,0.001988,0.001254, 75,0.020798,0.000069,  64.415
   240.8,0.001966,0.001244, 75,0.020591,0.000083,  64.412
   241.0,0.001950,0.001232, 75,0.020387,0.000033,  64.415
   241.2,0.001931,0.001216, 75,0.020207,0.000069,  64.422
   241.4,0.001909,0.001205, 75,0.020030,0.000083,  64.423
   241.6,0.001898,0.001201, 75,0.019859,0.000033,  64.421
   241.8,0.001877,0.001191, 75,0.019671,0.000069,  64.418
   242.0,0.001863,0.001182, 75,0.019479,0.000083,  64.413
   242.2,0.001841,0.001172, 75,0.019286,0.000033,  64.407
   242.4,0.001834,0.001161, 75,0.019075,0.000069,  64.403
   242.6,0.001820,0.001153, 75,0.018836,0.000069,  64.396
   242.8,0.001803,0.001140, 75,0.018584,0.000033,  64.400
   243.0,0.001794,0.001131, 75,0.018418,0.000055,  64.389
   243.2,0.001783,0.001125, 75,0.018281,0.000055,  64.387
   243.4,0.001763,0.001120, 75,0.018169,0.000033,  64.379
   243.6,0.001750,0.001109, 75,0.018021,0.000055,  64.377
   243.8,0.001726,0.001096, 75,0.017866,0.000055,  64.378
   244.0,0.001702,0.001081, 75,0.017698,0.000033,  64.375
   244.2,0.001686,0.001075, 75,0.017538,0.000055,  64.377
   244.4,0.001665,0.001063, 75,0.017374,0.000055,  64.377
   244.6,0.001649,0.001051, 75,0.017203,0.000033,  64.375
   244.8,0.001635,0.001038, 75,0.017030,0.000055,  64.369
   245.0,0.001624,0.001033, 75,0.016850,0.000055,  64.365
   245.2,0.001604,0.001028, 75,0.016672,0.000033,  64.361
   245.4,0.001593,0.001019, 75,0.016523,0.000055,  64.361
   245.6,0.001576,0.001008, 75,0.016392,0.000055,  64.361
   245.8,0.001557,0.000994, 75,0.016273,0.000033,  64.361
   246.0,0.001550,0.000987, 75,0.016126,0.000055,  64.354
   246.2,0.001534,0.000979, 75,0.015975,0.000055,  64.350
   246.4,0.001515,0.000968, 75,0.015823,0.000033,  64.351
   246.6,0.001496,0.000955, 75,0.015681,0.000055,  64.349
   246.8,0.001476,0.000944, 75,0.015536,0.000055,  64.354
   247.0,0.001459,0.000936, 75,0.015405,0.000069,  64.358
   247.2,0.001440,0.000930, 75,0.015268,0.000069,  64.359
   247.4,0.001429,0.000919, 75,0.015133,0.000069,  64.354
   247.6,0.001417,0.000912, 75,0.014994,0.000047,  64.357
   247.8,0.001410,0.000903, 75,0.014854,0.000069,  64.355
   248.0,0.001406,0.000896, 75,0.014739,0.000069,  64.358
   248.2,0.001397,0.000887, 75,0.014634,0.000069,  64.355
   248.4,0.001382,0.000883, 75,0.014546,0.000055,  64.357
   248.6,0.001370,0.000878, 75,0.014426,0.000077,  64.356
   248.8,0.001363,0.000871, 75,0.014299,0.000077,  64.354
   249.0,0.001351,0.000868, 75,0.014161,0.000077,  64.349
   249.2,0.001347,0.000861, 75,0.014038,0.000063,  64.347
   249.4,0.001337,0.000859, 75,0.013904,0.000063,  64.348
   249.6,0.001326,0.000854, 75,0.013774,0.000077,  64.353
   249.8,0.001317,0.000847, 75,0.013636,0.000063,  64.351
   250.0,0.001305,0.000844, 75,0.013488,0.000063,  64.353
   250.2,0.001286,0.000839, 75,0.013340,0.000077,  64.344
   250.4,0.001269,0.000830, 75,0.013219,0.000077,  64.348
   250.6,0.001258,0.000822, 75,0.013103,0.000090,  64.344
   250.8,0.001238,0.000813, 75,0.012998,0.000055,  64.340
   251.0,0.001230,0.000799, 75,0.012887,0.000069,  64.339
   251.2,0.001215,0.000789, 75,0.012780,0.000083,  64.337
   251.4,0.001194,0.000782, 75,0.012673,0.000047,  64.338
   251.6,0.001180,0.000768, 75,0.012556,0.000083,  64.334
   251.8,0.001171,0.000759, 75,0.012439,0.000096,  64.335
   252.0,0.001159,0.000753, 75,0.012310,0.000061,  64.336
   252.2,0.001157,0.000744, 75,0.012188,0.000083,  64.337
   252.4,0.001150,0.000735, 75,0.012060,0.000096,  64.340
   252.6,0.001138,0.000725, 75,0.011916,0.000061,  64.340
   252.8,0.001126,0.000717, 75,0.011789,0.000083,  64.340
   253.0,0.001115,0.000714, 75,0.011677,0.000096,  64.330
   253.2,0.001105,0.000707, 75,0.011565,0.000047,  64.341
   253.4,0.001090,0.000700, 75,0.011445,0.000069,  64.342
   253.6,0.001084,0.000695, 75,0.011327,0.000083,  64.348
   253.8,0.001072,0.000689, 75,0.011219,0.000033,  64.347
   254.0,0.001058,0.000683, 75,0.011106,0.000069,  64.346
   254.2,0.001050,0.000678, 75,0.010982,0.000083,  64.342
   254.4,0.001043,0.000675, 75,0.010852,0.000033,  64.343
   254.6,0.001040,0.000667, 75,0.010728,0.000069,  64.340
   254.8,0.001038,0.000661, 75,0.010592,0.000083,  64.342
   255.0,0.001033,0.000661, 75,0.010447,0.000033,  64.345
   255.2,0.001024,0.000660, 75,0.010337,0.000069,  64.346
   255.4,0.001010,0.000653, 75,0.010238,0.000083,  64.345
   255.6,0.001000,0.000643, 75,0.010149,0.000033,  64.357
   255.8,0.000993,0.000640, 75,0.010057,0.000069,  64.351
   256.0,0.000984,0.000633, 75,0.009973,0.000069,  64.353
   256.2,0.000977,0.000625, 75,0.009895,0.000033,  64.349
   256.4,0.000965,0.000614, 75,0.009821,0.000055,  64.352
   256.6,0.000956,0.000614, 75,0.009759,0.000055,  64.349
   256.8,0.000947,0.000614, 75,0.009695,0.000069,  64.354
   257.0,0.000935,0.000607, 75,0.009646,0.000055,  64.355
   257.2,0.000923,0.000602, 75,0.009568,0.000055,  64.358
   257.4,0.000916,0.000596, 75,0.009478,0.000020,  64.355
   257.6,0.000909,0.000591, 75,0.009386,0.000041,  64.354
   257.8,0.000904,0.000588, 75,0.009307,0.000077,  64.365
   258.0,0.000897,0.000583, 75,0.009222,0.000077,  64.368
   258.2,0.000888,0.000587, 75,0.009132,0.000077,  64.378
   258.4,0.000876,0.000589, 75,0.009035,0.000077,  64.385
   258.6,0.000869,0.000584, 75,0.008933,0.000077,  64.391
   258.8,0.000854,0.000585, 75,0.008820,0.000090,  64.393
   259.0,0.000850,0.000578, 75,0.008730,0.000090,  64.389
   259.2,0.000843,0.000572, 75,0.008650,0.000104,  64.387
   259.4,0.000831,0.000560, 75,0.008574,0.000069,  64.385
   259.6,0.000825,0.000550, 75,0.008495,0.000069,  64.387
   259.8,0.000818,0.000544, 75,0.008410,0.000069,  64.384
   260.0,0.000811,0.000544, 75,0.008326,0.000069,  64.392
   260.2,0.000804,0.000535, 75,0.008241,0.000090,  64.397
   260.4,0.000797,0.000528, 75,0.008162,0.000104,  64.392
   260.6,0.000782,0.000521, 75,0.008082,0.000104,  64.396
   260.8,0.000772,0.000514, 75,0.007992,0.000104,  64.399
   261.0,0.000761,0.000507, 75,0.007912,0.000118,  64.403
   261.2,0.000749,0.000500, 75,0.007825,0.000104,  64.407
   261.4,0.000740,0.000495, 75,0.007702,0.000104,  64.409
   261.6,0.000731,0.000492, 75,0.007573,0.000118,  64.410
   261.8,0.000726,0.000488, 75,0.007417,0.000104,  64.416
   262.0,0.000722,0.000486, 75,0.007327,0.000104,  64.410
   262.2,0.000719,0.000477, 75,0.007271,0.000104,  64.417
   262.4,0.000712,0.000469, 75,0.007234,0.000104,  64.420
   262.6,0.000705,0.000464, 75,0.007179,0.000090,  64.427
   262.8,0.000696,0.000456, 75,0.007128,0.000090,  64.428
   263.0,0.000686,0.000450, 75,0.007068,0.000104,  64.427
   263.2,0.000672,0.000439, 75,0.007007,0.000090,  64.428
   263.4,0.000660,0.000433, 75,0.006946,0.000104,  64.424
   263.6,0.000648,0.000428, 75,0.006882,0.000104,  64.427
   263.8,0.000626,0.000417, 75,0.006810,0.000104,  64.432
   264.0,0.000615,0.000411, 75,0.006736,0.000104,  64.432
   264.2,0.000608,0.000402, 75,0.006656,0.000104,  64.434
   264.4,0.000596,0.000393, 75,0.006594,0.000090,  64.432
   264.6,0.000597,0.000388, 75,0.006536,0.000090,  64.429
   264.8,0.000594,0.000387, 75,0.006482,0.000104,  64.429
   265.0,0.000582,0.000382, 75,0.006403,0.000090,  64.437
   265.2,0.000583,0.000379, 75,0.006326,0.000090,  64.434
   265.4,0.000580,0.000382, 75,0.006230,0.000077,  64.434
   265.6,0.000578,0.000382, 75,0.006151,0.000049,  64.438
   265.8,0.000581,0.000376, 75,0.006078,0.000035,  64.430
   266.0,0.000576,0.000379, 75,0.006008,0.000035,  64.430
   266.2,0.000569,0.000381, 75,0.005955,0.000035,  64.432
   266.4,0.000565,0.000377, 75,0.005895,0.000035,  64.434
   266.6,0.000558,0.000381, 75,0.005864,0.000035,  64.434
   266.8,0.000551,0.000378, 75,0.005828,0.000000,  64.438
   267.0,0.000544,0.000367, 75,0.005783,0.000035,  64.439
   267.2,0.000541,0.000361, 75,0.005728,0.000000,  64.439
   267.4,0.000539,0.000355, 75,0.005672,0.000000,  64.433
   267.6,0.000542,0.000354, 75,0.005616,0.000049,  64.435
   267.8,0.000542,0.000350, 75,0.005563,0.000063,  64.437
   268.0,0.000534,0.000355, 75,0.005509,0.000063,  64.433
   268.2,0.000527,0.000350, 75,0.005447,0.000049,  64.438
   268.4,0.000522,0.000344, 75,0.005390,0.000049,  64.432
   268.6,0.000518,0.000343, 75,0.005335,0.000063,  64.433
   268.8,0.000506,0.000337, 75,0.005281,0.000063,  64.435
   269.0,0.000499,0.000330, 75,0.005239,0.000063,  64.432
   269.2,0.000497,0.000331, 75,0.005202,0.000077,  64.430
   269.4,0.000490,0.000329, 75,0.005156,0.000063,  64.430
   269.6,0.000485,0.000332, 75,0.005104,0.000063,  64.431
   269.8,0.000483,0.000334, 75,0.005050,0.000077,  64.427
   270.0,0.000480,0.000332, 75,0.004997,0.000063,  64.427
   270.2,0.000478,0.000331, 75,0.004950,0.000063,  64.420
   270.4,0.000470,0.000328, 75,0.004898,0.000077,  64.422
   270.6,0.000470,0.000325, 75,0.004826,0.000063,  64.420
   270.8,0.000470,0.000318, 75,0.004734,0.000063,  64.418
   271.0,0.000466,0.000318, 75,0.004630,0.000077,  64.414
   271.2,0.000464,0.000316, 75,0.004582,0.000063,  64.417
   271.4,0.000462,0.000319, 75,0.004551,0.000063,  64.403
   271.6,0.000462,0.000323, 75,0.004528,0.000077,  64.401
   271.8,0.000459,0.000322, 75,0.004503,0.000063,  64.399
   272.0,0.000457,0.000322, 75,0.004477,0.000063,  64.395
   272.2,0.000455,0.000320, 75,0.004447,0.000077,  64.395
   272.4,0.000450,0.000315, 75,0.004419,0.000063,  64.397
   272.6,0.000445,0.000311, 75,0.004398,0.000063,  64.393
   272.8,0.000441,0.000311, 75,0.004368,0.000077,  64.385
   273.0,0.000436,0.000309, 75,0.004326,0.000063,  64.382
   273.2,0.000427,0.000304, 75,0.004274,0.000063,  64.388
   273.4,0.000422,0.000303, 75,0.004213,0.000077,  64.379
   273.6,0.000415,0.000301, 75,0.004142,0.000077,  64.379
   273.8,0.000408,0.000296, 75,0.004069,0.000077,  64.374
   274.0,0.000405,0.000290, 75,0.003974,0.000077,  64.369
   274.2,0.000403,0.000284, 75,0.003923,0.000077,  64.368
   274.4,0.000403,0.000282, 75,0.003898,0.000077,  64.363
   274.6,0.000401,0.000286, 75,0.003895,0.000077,  64.362
   274.8,0.000398,0.000284, 75,0.003882,0.000077,  64.361
   275.0,0.000401,0.000283, 75,0.003876,0.000077,  64.364
   275.2,0.000399,0.000282, 75,0.003883,0.000077,  64.367
   275.4,0.000389,0.000279, 75,0.003840,0.000077,  64.367
   275.6,0.000392,0.000272, 75,0.003772,0.000077,  64.371
   275.8,0.000390,0.000267, 75,0.003672,0.000077,  64.360
   276.0,0.000377,0.000267, 75,0.003640,0.000077,  64.355
   276.2,0.000373,0.000261, 75,0.003626,0.000077,  64.347
   276.4,0.000371,0.000261, 75,0.003626,0.000077,  64.339
   276.6,0.000363,0.000257, 75,0.003651,0.000090,  64.340
   276.8,0.000366,0.000255, 75,0.003644,0.000112,  64.337
   277.0,0.000364,0.000250, 75,0.003633,0.000112,  64.334
   277.2,0.000356,0.000250, 75,0.003609,0.000112,  64.331
   277.4,0.000357,0.000250, 75,0.003586,0.000112,  64.326
   277.6,0.000357,0.000250, 75,0.003556,0.000112,  64.320
   277.8,0.000347,0.000254, 75,0.003526,0.000112,  64.325
   278.0,0.000350,0.000250, 75,0.003450,0.000112,  64.327
   278.2,0.000350,0.000248,N/A,0.003355,0.000112,  64.328
   278.4,0.000345,0.000250,N/A,0.003230,0.000126,  64.323
   278.6,0.000348,0.000248,N/A,0.003194,0.000126,  64.321
   278.8,0.000345,0.000248,N/A,0.003181,0.000126,  64.324
   279.0,0.000338,0.000251,N/A,0.003205,0.000139,  64.322
