Run Name,50
Run Date,02:02:37 PM   03-20-12
Method Name,Group 4 Billinger Alex Group 4.3
Export Format Version, 1.00
Method ID, 1416
Points/Second, 5.00
Number of Records,   2807
Offset from Run Start Time,00:00:00
Run End Time,00:09:23
Time,Second
QuadTec 1, (280.0 nm), AU
QuadTec 2, (260.0 nm), AU
Gradient Pump,<Not Selected>
QuadTec 3, (214.0 nm), AU
QuadTec 4, (405.0 nm), AU
Conductivity,mS/cm
Trace 6,<Not Available>
GP Pressure,<Not Selected>
Volume,<Not Selected>
Fraction,<Not Available>
Time,QuadTec 1,QuadTec 2,QuadTec 3,QuadTec 4,Conductivity
     0.0,0.001903,0.000000,0.114477,0.000000,  47.864
     0.2,0.001897,0.000000,0.114477,0.000000,  47.865
     0.4,0.001900,0.000000,0.114477,0.000000,  47.862
     0.6,0.001924,0.000000,0.114477,0.000000,  47.866
     0.8,0.000000,0.000000,0.000000,0.000000,  47.868
     1.0,0.000000,0.000000,0.000000,0.000000,  47.865
     1.2,0.000000,0.000000,0.000000,0.000000,  47.867
     1.4,0.000000,0.000000,0.000000,0.000000,  47.864
     1.6,0.000000,0.000000,0.000000,0.000000,  47.869
     1.8,0.000000,0.000000,0.000000,0.000000,  47.869
     2.0,0.000000,0.000000,0.000000,0.000000,  47.867
     2.2,0.000000,0.000000,0.000000,0.000000,  47.872
     2.4,0.000000,0.000000,0.000000,0.000000,  47.867
     2.6,0.000000,0.000000,0.000000,0.000000,  47.865
     2.8,0.000000,0.000000,0.000000,0.000000,  47.873
     3.0,0.000000,0.000000,0.000000,0.000000,  47.870
     3.2,0.000000,0.000000,0.000000,0.000000,  47.869
     3.4,0.000000,0.000000,0.000000,0.000000,  47.869
     3.6,0.000000,0.000000,0.000000,0.000000,  47.867
     3.8,0.000000,0.000000,0.000000,0.000000,  47.868
     4.0,0.000000,0.000000,0.000000,0.000000,  47.865
     4.2,0.000000,0.000000,0.000000,0.000000,  47.867
     4.4,0.000008,0.000000,0.000000,-0.000026,  47.865
     4.6,0.000017,0.000021,0.001591,-0.000013,  47.866
     4.8,0.000019,0.000016,0.001492,0.000000,  47.869
     5.0,0.000022,0.000015,0.001404,-0.000035,  47.867
     5.2,0.000027,0.000021,0.001326,-0.000045,  47.865
     5.4,0.000024,0.000022,0.001258,-0.000067,  47.862
     5.6,0.000033,0.000019,0.001202,-0.000032,  47.859
     5.8,0.000033,0.000023,0.001155,-0.000019,  47.860
     6.0,0.000033,0.000029,0.001132,-0.000042,  47.861
     6.2,0.000045,0.000030,0.001118,-0.000055,  47.863
     6.4,0.000047,0.000033,0.001132,-0.000042,  47.865
     6.6,0.000046,0.000035,0.001157,-0.000042,  47.861
     6.8,0.000049,0.000034,0.001184,-0.000029,  47.859
     7.0,0.000052,0.000040,0.001238,-0.000016,  47.860
     7.2,0.000058,0.000048,0.001240,-0.000051,  47.859
     7.4,0.000054,0.000048,0.001226,-0.000038,  47.853
     7.6,0.000066,0.000053,0.001201,-0.000026,  47.851
     7.8,0.000077,0.000062,0.001249,-0.000061,  47.851
     8.0,0.000079,0.000068,0.001313,-0.000013,  47.850
     8.2,0.000093,0.000077,0.001400,-0.000022,  47.848
     8.4,0.000103,0.000088,0.001440,-0.000009,  47.846
     8.6,0.000108,0.000096,0.001465,0.000016,  47.843
     8.8,0.000116,0.000102,0.001472,0.000007,  47.844
     9.0,0.000125,0.000111,0.001328,0.000042,  47.839
     9.2,0.000136,0.000119,0.001099,0.000029,  47.845
     9.4,0.000142,0.000123,0.000799,0.000007,  47.837
     9.6,0.000153,0.000134,0.000616,0.000020,  47.834
     9.8,0.000162,0.000138,0.000461,0.000033,  47.838
    10.0,0.000167,0.000144,0.000309,0.000010,  47.835
    10.2,0.000172,0.000146,0.000356,0.000023,  47.834
    10.4,0.000181,0.000144,0.000510,0.000036,  47.835
    10.6,0.000184,0.000154,0.000769,0.000013,  47.831
    10.8,0.000187,0.000159,0.000911,0.000049,  47.828
    11.0,0.000193,0.000161,0.001038,0.000036,  47.829
    11.2,0.000202,0.000166,0.001169,0.000036,  47.826
    11.4,0.000204,0.000174,0.001217,0.000036,  47.825
    11.6,0.000208,0.000173,0.001238,0.000049,  47.823
    11.8,0.000210,0.000177,0.001212,0.000049,  47.823
    12.0,0.000210,0.000180,0.001242,0.000026,  47.824
    12.2,0.000213,0.000181,0.001261,0.000062,  47.823
    12.4,0.000209,0.000185,0.001301,0.000062,  47.820
    12.6,0.000218,0.000193,0.001341,0.000039,  47.818
    12.8,0.000233,0.000197,0.001388,0.000062,  47.815
    13.0,0.000232,0.000198,0.001437,0.000062,  47.817
    13.2,0.000235,0.000197,0.001491,0.000039,  47.818
    13.4,0.000241,0.000199,0.001510,0.000039,  47.816
    13.6,0.000238,0.000201,0.001519,0.000039,  47.814
    13.8,0.000246,0.000202,0.001505,0.000017,  47.810
    14.0,0.000250,0.000204,0.001421,0.000030,  47.815
    14.2,0.000253,0.000204,0.001278,0.000042,  47.810
    14.4,0.000253,0.000201,0.001105,0.000042,  47.807
    14.6,0.000262,0.000206,0.001012,0.000042,  47.808
    14.8,0.000264,0.000204,0.000932,0.000042,  47.809
    15.0,0.000264,0.000210,0.000875,0.000055,  47.809
    15.2,0.000270,0.000214,0.000868,0.000068,  47.808
    15.4,0.000273,0.000220,0.000892,0.000068,  47.805
    15.6,0.000273,0.000222,0.000960,0.000081,  47.807
    15.8,0.000277,0.000223,0.001033,0.000094,  47.811
    16.0,0.000279,0.000225,0.001136,0.000081,  47.809
    16.2,0.000279,0.000228,0.001256,0.000081,  47.806
    16.4,0.000286,0.000228,0.001304,0.000094,  47.808
    16.6,0.000288,0.000230,0.001307,0.000094,  47.805
    16.8,0.000286,0.000234,0.001289,0.000107,  47.807
    17.0,0.000286,0.000240,0.001312,0.000120,  47.811
    17.2,0.000286,0.000246,0.001315,0.000120,  47.809
    17.4,0.000291,0.000248,0.001319,0.000133,  47.809
    17.6,0.000282,0.000240,0.001343,0.000133,  47.808
    17.8,0.000291,0.000242,0.001375,0.000120,  47.812
    18.0,0.000291,0.000244,0.001401,0.000133,  47.809
    18.2,0.000291,0.000244,0.001428,0.000133,  47.810
    18.4,0.000300,0.000246,0.001468,0.000133,  47.810
    18.6,0.000308,0.000250,0.001508,0.000146,  47.814
    18.8,0.000308,0.000253,0.001382,0.000146,  47.814
    19.0,0.000300,0.000254,0.001195,0.000146,  47.814
    19.2,0.000300,0.000262,0.000925,0.000123,  47.811
    19.4,0.000305,0.000268,0.000926,0.000123,  47.817
    19.6,0.000314,0.000268,0.001040,0.000123,  47.818
    19.8,0.000310,0.000271,0.001232,0.000123,  47.818
    20.0,0.000319,0.000274,0.001271,0.000088,  47.818
    20.2,0.000325,0.000276,0.001271,0.000136,  47.817
    20.4,0.000321,0.000280,0.001239,0.000123,  47.822
    20.6,0.000334,0.000287,0.001272,0.000136,  47.821
    20.8,0.000338,0.000287,0.001341,0.000136,  47.821
    21.0,0.000334,0.000286,0.001405,0.000136,  47.820
    21.2,0.000343,0.000287,0.001498,0.000149,  47.826
    21.4,0.000345,0.000287,0.001517,0.000149,  47.828
    21.6,0.000342,0.000289,0.001518,0.000136,  47.828
    21.8,0.000351,0.000295,0.001511,0.000136,  47.828
    22.0,0.000351,0.000294,0.001504,0.000149,  47.829
    22.2,0.000353,0.000292,0.001488,0.000162,  47.827
    22.4,0.000362,0.000296,0.001457,0.000162,  47.828
    22.6,0.000363,0.000293,0.001527,0.000139,  47.828
    22.8,0.000363,0.000297,0.001639,0.000139,  47.829
    23.0,0.000368,0.000293,0.001793,0.000152,  47.830
    23.2,0.000368,0.000299,0.001793,0.000117,  47.831
    23.4,0.000371,0.000306,0.001733,0.000152,  47.833
    23.6,0.000374,0.000311,0.001616,0.000165,  47.835
    23.8,0.000380,0.000317,0.001618,0.000130,  47.836
    24.0,0.000389,0.000317,0.001637,0.000178,  47.835
    24.2,0.000389,0.000315,0.001692,0.000191,  47.836
    24.4,0.000395,0.000317,0.001717,0.000143,  47.837
    24.6,0.000404,0.000322,0.001726,0.000178,  47.838
    24.8,0.000404,0.000322,0.001727,0.000191,  47.837
    25.0,0.000406,0.000323,0.001559,0.000155,  47.839
    25.2,0.000403,0.000323,0.001295,0.000191,  47.840
    25.4,0.000405,0.000329,0.000934,0.000204,  47.838
    25.6,0.000414,0.000331,0.000927,0.000168,  47.839
    25.8,0.000417,0.000328,0.001043,0.000204,  47.845
    26.0,0.000419,0.000332,0.001297,0.000217,  47.842
    26.2,0.000419,0.000336,0.001375,0.000194,  47.844
    26.4,0.000419,0.000337,0.001437,0.000194,  47.847
    26.6,0.000418,0.000340,0.001477,0.000207,  47.848
    26.8,0.000425,0.000343,0.001492,0.000197,  47.850
    27.0,0.000425,0.000344,0.001470,0.000185,  47.850
    27.2,0.000421,0.000346,0.001424,0.000185,  47.848
    27.4,0.000421,0.000349,0.001433,0.000162,  47.857
    27.6,0.000430,0.000354,0.001447,0.000185,  47.853
    27.8,0.000426,0.000356,0.001477,0.000185,  47.853
    28.0,0.000435,0.000360,0.001485,0.000162,  47.854
    28.2,0.000441,0.000365,0.001484,0.000197,  47.857
    28.4,0.000438,0.000363,0.001470,0.000197,  47.856
    28.6,0.000449,0.000364,0.001494,0.000175,  47.860
    28.8,0.000453,0.000366,0.001529,0.000210,  47.859
    29.0,0.000449,0.000368,0.001585,0.000210,  47.860
    29.2,0.000449,0.000374,0.001649,0.000223,  47.859
    29.4,0.000455,0.000376,0.001696,0.000188,  47.862
    29.6,0.000452,0.000378,0.001742,0.000210,  47.859
    29.8,0.000458,0.000388,0.001782,0.000188,  47.862
    30.0,0.000464,0.000385,0.001819,0.000188,  47.862
    30.2,0.000467,0.000387,0.001836,0.000188,  47.865
    30.4,0.000467,0.000391,0.001858,0.000165,  47.873
    30.6,0.000473,0.000395,0.001835,0.000201,  47.868
    30.8,0.000478,0.000392,0.001789,0.000214,  47.873
    31.0,0.000481,0.000396,0.001719,0.000191,  47.869
    31.2,0.000490,0.000398,0.001698,0.000227,  47.872
    31.4,0.000495,0.000402,0.001698,0.000227,  47.869
    31.6,0.000498,0.000406,0.001698,0.000204,  47.870
    31.8,0.000504,0.000412,0.001700,0.000252,  47.872
    32.0,0.000506,0.000412,0.001714,0.000239,  47.873
    32.2,0.000503,0.000412,0.001728,0.000204,  47.877
    32.4,0.000512,0.000420,0.001469,0.000252,  47.875
    32.6,0.000514,0.000424,0.001090,0.000252,  47.875
    32.8,0.000514,0.000422,0.000568,0.000217,  47.881
    33.0,0.000520,0.000430,0.000468,0.000265,  47.880
    33.2,0.000529,0.000436,0.000508,0.000265,  47.877
    33.4,0.000535,0.000433,0.000705,0.000243,  47.882
    33.6,0.000537,0.000440,0.000859,0.000278,  47.882
    33.8,0.000540,0.000442,0.001053,0.000278,  47.882
    34.0,0.000551,0.000445,0.001306,0.000256,  47.882
    34.2,0.000545,0.000450,0.001462,0.000291,  47.881
    34.4,0.000554,0.000452,0.001595,0.000291,  47.885
    34.6,0.000559,0.000456,0.001710,0.000269,  47.885
    34.8,0.000559,0.000459,0.001747,0.000317,  47.883
    35.0,0.000563,0.000461,0.001723,0.000317,  47.886
    35.2,0.000559,0.000463,0.001644,0.000294,  47.885
    35.4,0.000562,0.000465,0.001653,0.000330,  47.883
    35.6,0.000562,0.000469,0.001677,0.000317,  47.888
    35.8,0.000561,0.000469,0.001723,0.000294,  47.889
    36.0,0.000569,0.000474,0.001787,0.000330,  47.887
    36.2,0.000576,0.000477,0.001878,0.000330,  47.885
    36.4,0.000572,0.000479,0.001973,0.000294,  47.888
    36.6,0.000581,0.000484,0.002006,0.000294,  47.885
    36.8,0.000590,0.000491,0.002015,0.000272,  47.884
    37.0,0.000589,0.000493,0.001999,0.000307,  47.889
    37.2,0.000589,0.000496,0.001868,0.000320,  47.888
    37.4,0.000595,0.000499,0.001661,0.000320,  47.890
    37.6,0.000591,0.000505,0.001383,0.000320,  47.892
    37.8,0.000597,0.000507,0.001029,0.000285,  47.890
    38.0,0.000603,0.000509,0.001092,0.000298,  47.887
    38.2,0.000605,0.000508,0.001285,0.000320,  47.890
    38.4,0.000608,0.000510,0.001592,0.000285,  47.890
    38.6,0.000623,0.000509,0.001717,0.000285,  47.890
    38.8,0.000626,0.000510,0.001809,0.000307,  47.889
    39.0,0.000620,0.000519,0.001857,0.000272,  47.892
    39.2,0.000628,0.000520,0.001897,0.000285,  47.891
    39.4,0.000631,0.000520,0.001918,0.000333,  47.891
    39.6,0.000634,0.000523,0.001909,0.000298,  47.892
    39.8,0.000640,0.000527,0.001948,0.000298,  47.893
    40.0,0.000642,0.000523,0.001986,0.000333,  47.893
    40.2,0.000645,0.000525,0.002032,0.000311,  47.896
    40.4,0.000649,0.000523,0.001787,0.000323,  47.892
    40.6,0.000649,0.000527,0.001389,0.000336,  47.887
    40.8,0.000645,0.000533,0.000858,0.000314,  47.890
    41.0,0.000651,0.000533,0.000867,0.000362,  47.891
    41.2,0.000654,0.000532,0.001074,0.000375,  47.890
    41.4,0.000654,0.000540,0.001482,0.000340,  47.892
    41.6,0.000660,0.000540,0.001604,0.000375,  47.888
    41.8,0.000669,0.000542,0.001674,0.000375,  47.890
    42.0,0.000672,0.000545,0.001703,0.000340,  47.890
    42.2,0.000674,0.000552,0.001780,0.000375,  47.891
    42.4,0.000683,0.000556,0.001851,0.000375,  47.890
    42.6,0.000683,0.000551,0.001923,0.000353,  47.886
    42.8,0.000677,0.000554,0.001960,0.000401,  47.885
    43.0,0.000677,0.000558,0.001967,0.000401,  47.889
    43.2,0.000679,0.000556,0.001944,0.000378,  47.888
    43.4,0.000682,0.000558,0.001983,0.000414,  47.883
    43.6,0.000688,0.000560,0.002030,0.000388,  47.886
    43.8,0.000691,0.000561,0.002093,0.000353,  47.883
    44.0,0.000691,0.000569,0.002117,0.000366,  47.887
    44.2,0.000700,0.000571,0.002126,0.000366,  47.884
    44.4,0.000696,0.000571,0.002117,0.000330,  47.882
    44.6,0.000705,0.000574,0.001912,0.000343,  47.882
    44.8,0.000705,0.000577,0.001606,0.000366,  47.884
    45.0,0.000701,0.000580,0.001189,0.000330,  47.883
    45.2,0.000708,0.000587,0.001221,0.000356,  47.880
    45.4,0.000711,0.000589,0.001409,0.000391,  47.883
    45.6,0.000708,0.000593,0.001773,0.000404,  47.881
    45.8,0.000714,0.000599,0.001868,0.000404,  47.885
    46.0,0.000720,0.000600,0.001919,0.000395,  47.883
    46.2,0.000723,0.000602,0.001910,0.000382,  47.883
    46.4,0.000720,0.000605,0.001956,0.000359,  47.874
    46.6,0.000726,0.000600,0.001982,0.000359,  47.876
    46.8,0.000729,0.000603,0.002026,0.000382,  47.881
    47.0,0.000723,0.000606,0.002050,0.000395,  47.875
    47.2,0.000732,0.000608,0.002043,0.000395,  47.878
    47.4,0.000734,0.000610,0.002020,0.000395,  47.877
    47.6,0.000728,0.000616,0.001982,0.000408,  47.877
    47.8,0.000734,0.000622,0.001999,0.000408,  47.876
    48.0,0.000737,0.000621,0.002046,0.000408,  47.876
    48.2,0.000742,0.000622,0.002117,0.000433,  47.875
    48.4,0.000748,0.000622,0.002176,0.000433,  47.875
    48.6,0.000751,0.000622,0.002217,0.000433,  47.878
    48.8,0.000751,0.000627,0.002257,0.000446,  47.876
    49.0,0.000751,0.000632,0.002310,0.000446,  47.878
    49.2,0.000753,0.000632,0.002336,0.000433,  47.879
    49.4,0.000753,0.000629,0.002362,0.000433,  47.872
    49.6,0.000753,0.000628,0.002342,0.000433,  47.869
    49.8,0.000756,0.000625,0.002304,0.000433,  47.870
    50.0,0.000756,0.000623,0.002239,0.000398,  47.872
    50.2,0.000760,0.000626,0.002242,0.000411,  47.874
    50.4,0.000769,0.000628,0.002268,0.000411,  47.872
    50.6,0.000769,0.000629,0.002323,0.000375,  47.871
    50.8,0.000775,0.000632,0.002332,0.000388,  47.870
    51.0,0.000784,0.000634,0.002332,0.000424,  47.872
    51.2,0.000781,0.000631,0.002309,0.000424,  47.871
    51.4,0.000781,0.000640,0.002309,0.000411,  47.872
    51.6,0.000781,0.000644,0.002310,0.000398,  47.874
    51.8,0.000777,0.000642,0.002303,0.000398,  47.871
    52.0,0.000784,0.000643,0.002280,0.000411,  47.873
    52.2,0.000784,0.000645,0.002243,0.000411,  47.874
    52.4,0.000784,0.000650,0.002196,0.000411,  47.872
    52.6,0.000790,0.000650,0.002142,0.000424,  47.873
    52.8,0.000792,0.000647,0.002073,0.000424,  47.873
    53.0,0.000789,0.000647,0.001995,0.000424,  47.876
    53.2,0.000798,0.000652,0.002021,0.000401,  47.874
    53.4,0.000798,0.000656,0.002108,0.000401,  47.870
    53.6,0.000797,0.000653,0.002234,0.000401,  47.872
    53.8,0.000806,0.000654,0.002219,0.000392,  47.867
    54.0,0.000806,0.000662,0.002163,0.000392,  47.873
    54.2,0.000802,0.000665,0.002045,0.000440,  47.871
    54.4,0.000808,0.000670,0.002036,0.000405,  47.870
    54.6,0.000814,0.000675,0.002054,0.000418,  47.869
    54.8,0.000811,0.000675,0.002094,0.000453,  47.871
    55.0,0.000817,0.000674,0.002159,0.000466,  47.871
    55.2,0.000823,0.000675,0.002169,0.000430,  47.869
    55.4,0.000820,0.000674,0.002171,0.000466,  47.871
    55.6,0.000826,0.000681,0.002169,0.000479,  47.869
    55.8,0.000828,0.000681,0.002195,0.000443,  47.871
    56.0,0.000825,0.000683,0.002216,0.000443,  47.870
    56.2,0.000831,0.000684,0.002256,0.000456,  47.872
    56.4,0.000831,0.000687,0.002289,0.000469,  47.869
    56.6,0.000834,0.000687,0.002321,0.000456,  47.872
    56.8,0.000836,0.000687,0.002353,0.000456,  47.873
    57.0,0.000843,0.000691,0.002037,0.000469,  47.875
    57.2,0.000845,0.000693,0.001544,0.000456,  47.875
    57.4,0.000845,0.000698,0.000869,0.000456,  47.873
    57.6,0.000860,0.000698,0.000878,0.000469,  47.872
    57.8,0.000863,0.000700,0.001124,0.000456,  47.874
    58.0,0.000857,0.000699,0.001612,0.000456,  47.872
    58.2,0.000863,0.000699,0.001728,0.000469,  47.872
    58.4,0.000865,0.000699,0.001766,0.000469,  47.871
    58.6,0.000859,0.000698,0.001740,0.000469,  47.873
    58.8,0.000865,0.000707,0.001810,0.000456,  47.871
    59.0,0.000868,0.000705,0.001889,0.000479,  47.872
    59.2,0.000859,0.000707,0.001989,0.000479,  47.872
    59.4,0.000865,0.000707,0.002054,0.000469,  47.867
    59.6,0.000865,0.000708,0.002110,0.000482,  47.871
    59.8,0.000865,0.000710,0.002157,0.000495,  47.869
    60.0,0.000868,0.000714,0.002190,0.000460,  47.870
    60.2,0.000874,0.000713,0.002206,0.000460,  47.869
    60.4,0.000871,0.000715,0.002213,0.000473,  47.868
    60.6,0.000877,0.000721,0.002260,0.000437,  47.868
    60.8,0.000879,0.000721,0.002318,0.000485,  47.867
    61.0,0.000888,0.000721,0.002401,0.000498,  47.867
    61.2,0.000888,0.000730,0.002387,0.000463,  47.869
    61.4,0.000886,0.000735,0.002346,0.000498,  47.871
    61.6,0.000892,0.000737,0.002253,0.000511,  47.871
    61.8,0.000897,0.000742,0.002262,0.000476,  47.869
    62.0,0.000894,0.000748,0.002295,0.000498,  47.871
    62.2,0.000896,0.000748,0.002351,0.000498,  47.872
    62.4,0.000896,0.000744,0.002369,0.000511,  47.866
    62.6,0.000896,0.000748,0.002372,0.000511,  47.863
    62.8,0.000899,0.000748,0.002372,0.000511,  47.870
    63.0,0.000896,0.000750,0.002379,0.000511,  47.863
    63.2,0.000902,0.000754,0.002388,0.000511,  47.868
    63.4,0.000899,0.000756,0.002393,0.000524,  47.865
    63.6,0.000905,0.000757,0.002393,0.000502,  47.866
    63.8,0.000918,0.000759,0.002332,0.000515,  47.867
    64.0,0.000917,0.000757,0.002258,0.000502,  47.860
    64.2,0.000925,0.000762,0.002155,0.000466,  47.865
    64.4,0.000934,0.000759,0.002157,0.000515,  47.863
    64.6,0.000931,0.000764,0.002191,0.000515,  47.861
    64.8,0.000942,0.000775,0.002277,0.000492,  47.862
    65.0,0.000942,0.000777,0.002277,0.000528,  47.858
    65.2,0.000938,0.000783,0.002254,0.000540,  47.860
    65.4,0.000947,0.000782,0.002207,0.000518,  47.864
    65.6,0.000950,0.000782,0.002193,0.000553,  47.865
    65.8,0.000952,0.000786,0.002190,0.000553,  47.864
    66.0,0.000950,0.000788,0.002176,0.000531,  47.860
    66.2,0.000956,0.000786,0.002161,0.000566,  47.869
    66.4,0.000959,0.000785,0.002153,0.000566,  47.865
    66.6,0.000959,0.000791,0.002128,0.000544,  47.863
    66.8,0.000968,0.000793,0.002123,0.000566,  47.865
    67.0,0.000970,0.000791,0.002139,0.000566,  47.865
    67.2,0.000973,0.000803,0.002154,0.000544,  47.862
    67.4,0.000979,0.000808,0.002172,0.000566,  47.863
    67.6,0.000982,0.000805,0.002202,0.000566,  47.863
    67.8,0.000984,0.000812,0.002226,0.000544,  47.863
    68.0,0.000988,0.000812,0.002267,0.000544,  47.864
    68.2,0.000991,0.000814,0.002316,0.000544,  47.863
    68.4,0.000991,0.000814,0.002363,0.000534,  47.865
    68.6,0.000989,0.000816,0.002347,0.000547,  47.864
    68.8,0.000998,0.000818,0.002300,0.000547,  47.867
    69.0,0.001001,0.000814,0.002219,0.000525,  47.864
    69.2,0.001001,0.000818,0.002249,0.000573,  47.864
    69.4,0.001007,0.000820,0.002314,0.000560,  47.869
    69.6,0.001019,0.000818,0.002416,0.000525,  47.867
    69.8,0.001019,0.000827,0.002454,0.000573,  47.868
    70.0,0.001012,0.000831,0.002465,0.000573,  47.865
    70.2,0.001015,0.000826,0.002465,0.000538,  47.868
    70.4,0.001018,0.000833,0.002443,0.000586,  47.862
    70.6,0.001018,0.000835,0.002405,0.000573,  47.867
    70.8,0.001018,0.000835,0.002356,0.000573,  47.865
    71.0,0.001018,0.000837,0.002335,0.000550,  47.865
    71.2,0.001024,0.000841,0.002322,0.000573,  47.868
    71.4,0.001018,0.000851,0.002328,0.000573,  47.866
    71.6,0.001020,0.000860,0.002336,0.000573,  47.863
    71.8,0.001026,0.000867,0.002366,0.000586,  47.869
    72.0,0.001023,0.000867,0.002384,0.000586,  47.867
    72.2,0.001032,0.000863,0.002421,0.000563,  47.865
    72.4,0.001047,0.000869,0.002429,0.000586,  47.869
    72.6,0.001046,0.000871,0.002428,0.000586,  47.868
    72.8,0.001046,0.000870,0.002421,0.000550,  47.864
    73.0,0.001055,0.000872,0.002431,0.000550,  47.869
    73.2,0.001051,0.000872,0.002445,0.000538,  47.868
    73.4,0.001060,0.000879,0.002468,0.000515,  47.873
    73.6,0.001063,0.000877,0.002478,0.000528,  47.871
    73.8,0.001060,0.000875,0.002487,0.000563,  47.870
    74.0,0.001069,0.000875,0.002489,0.000541,  47.871
    74.2,0.001071,0.000882,0.002466,0.000541,  47.870
    74.4,0.001074,0.000882,0.002433,0.000576,  47.871
    74.6,0.001074,0.000886,0.002364,0.000554,  47.874
    74.8,0.001083,0.000885,0.002359,0.000554,  47.876
    75.0,0.001085,0.000885,0.002380,0.000602,  47.874
    75.2,0.001079,0.000889,0.002419,0.000580,  47.873
    75.4,0.001085,0.000894,0.002452,0.000580,  47.875
    75.6,0.001091,0.000896,0.002494,0.000615,  47.874
    75.8,0.001087,0.000896,0.002548,0.000580,  47.874
    76.0,0.001093,0.000904,0.002562,0.000580,  47.877
    76.2,0.001096,0.000903,0.002541,0.000602,  47.872
    76.4,0.001098,0.000907,0.002501,0.000567,  47.875
    76.6,0.001092,0.000907,0.002517,0.000567,  47.876
    76.8,0.001098,0.000907,0.002527,0.000615,  47.877
    77.0,0.001098,0.000911,0.002552,0.000593,  47.879
    77.2,0.001102,0.000911,0.002546,0.000605,  47.877
    77.4,0.001108,0.000913,0.002537,0.000641,  47.873
    77.6,0.001111,0.000919,0.002518,0.000618,  47.875
    77.8,0.001107,0.000922,0.002502,0.000618,  47.876
    78.0,0.001116,0.000925,0.002488,0.000631,  47.871
    78.2,0.001119,0.000924,0.002473,0.000644,  47.875
    78.4,0.001112,0.000928,0.002458,0.000644,  47.876
    78.6,0.001119,0.000932,0.002450,0.000644,  47.873
    78.8,0.001121,0.000931,0.002428,0.000644,  47.876
    79.0,0.001115,0.000933,0.002448,0.000644,  47.875
    79.2,0.001124,0.000937,0.002493,0.000644,  47.872
    79.4,0.001124,0.000937,0.002549,0.000631,  47.878
    79.6,0.001124,0.000938,0.002588,0.000644,  47.874
    79.8,0.001130,0.000931,0.002607,0.000644,  47.876
    80.0,0.001136,0.000935,0.002630,0.000644,  47.876
    80.2,0.001136,0.000940,0.002646,0.000657,  47.878
    80.4,0.001143,0.000942,0.002674,0.000657,  47.879
    80.6,0.001145,0.000942,0.002720,0.000644,  47.878
    80.8,0.001145,0.000949,0.002765,0.000657,  47.878
    81.0,0.001145,0.000952,0.002727,0.000657,  47.877
    81.2,0.001142,0.000950,0.002655,0.000657,  47.876
    81.4,0.001150,0.000949,0.002542,0.000670,  47.876
    81.6,0.001157,0.000949,0.002528,0.000670,  47.875
    81.8,0.001153,0.000947,0.002551,0.000670,  47.877
    82.0,0.001159,0.000952,0.002591,0.000683,  47.878
    82.2,0.001162,0.000954,0.002618,0.000683,  47.878
    82.4,0.001158,0.000956,0.002653,0.000683,  47.875
    82.6,0.001165,0.000961,0.002707,0.000696,  47.879
    82.8,0.001167,0.000963,0.002732,0.000709,  47.874
    83.0,0.001164,0.000960,0.002756,0.000709,  47.879
    83.2,0.001176,0.000965,0.002772,0.000722,  47.877
    83.4,0.001182,0.000969,0.002797,0.000735,  47.878
    83.6,0.001187,0.000968,0.002827,0.000722,  47.878
    83.8,0.001190,0.000971,0.002849,0.000722,  47.878
    84.0,0.001196,0.000972,0.002828,0.000735,  47.875
    84.2,0.001199,0.000971,0.002802,0.000735,  47.877
    84.4,0.001195,0.000978,0.002753,0.000735,  47.876
    84.6,0.001196,0.000983,0.002742,0.000748,  47.880
    84.8,0.001199,0.000989,0.002718,0.000735,  47.878
    85.0,0.001195,0.000993,0.002695,0.000735,  47.877
    85.2,0.001207,0.000999,0.002734,0.000748,  47.879
    85.4,0.001209,0.001004,0.002795,0.000735,  47.880
    85.6,0.001206,0.001006,0.002874,0.000735,  47.880
    85.8,0.001215,0.001011,0.002922,0.000748,  47.878
    86.0,0.001215,0.001011,0.002966,0.000735,  47.882
    86.2,0.001220,0.001014,0.003001,0.000712,  47.901
    86.4,0.001219,0.001021,0.003005,0.000725,  47.902
    86.6,0.001230,0.001021,0.002972,0.000725,  47.900
    86.8,0.001241,0.001027,0.002928,0.000703,  47.900
    87.0,0.001240,0.001032,0.002978,0.000703,  47.900
    87.2,0.001251,0.001036,0.003064,0.000738,  47.898
    87.4,0.001262,0.001040,0.003195,0.000738,  47.900
    87.6,0.001269,0.001046,0.003282,0.000764,  47.901
    87.8,0.001283,0.001050,0.003372,0.000716,  47.896
    88.0,0.001296,0.001061,0.003457,0.000764,  47.904
    88.2,0.001307,0.001068,0.003541,0.000777,  47.904
    88.4,0.001324,0.001075,0.003626,0.000741,  47.903
    88.6,0.001339,0.001089,0.003707,0.000741,  47.899
    88.8,0.001357,0.001099,0.003784,0.000754,  47.899
    89.0,0.001379,0.001112,0.003921,0.000719,  47.898
    89.2,0.001406,0.001124,0.004070,0.000741,  47.901
    89.4,0.001433,0.001140,0.004233,0.000741,  47.899
    89.6,0.001459,0.001157,0.004475,0.000706,  47.899
    89.8,0.001494,0.001173,0.004762,0.000741,  47.901
    90.0,0.001525,0.001196,0.005095,0.000741,  47.898
    90.2,0.001553,0.001216,0.005360,0.000719,  47.898
    90.4,0.001592,0.001230,0.005604,0.000754,  47.898
    90.6,0.001631,0.001247,0.005831,0.000754,  47.897
    90.8,0.001675,0.001266,0.006275,0.000732,  47.897
    91.0,0.001725,0.001289,0.006801,0.000754,  47.897
    91.2,0.001777,0.001320,0.007433,0.000754,  47.895
    91.4,0.001832,0.001353,0.008069,0.000754,  47.900
    91.6,0.001895,0.001386,0.008750,0.000777,  47.899
    91.8,0.001963,0.001420,0.009480,0.000777,  47.898
    92.0,0.002030,0.001463,0.010210,0.000754,  47.901
    92.2,0.002107,0.001502,0.010974,0.000767,  47.895
    92.4,0.002193,0.001550,0.011757,0.000767,  47.894
    92.6,0.002285,0.001601,0.012637,0.000767,  47.892
    92.8,0.002379,0.001649,0.013590,0.000790,  47.894
    93.0,0.002469,0.001700,0.014618,0.000790,  47.891
    93.2,0.002577,0.001750,0.015718,0.000780,  47.890
    93.4,0.002689,0.001808,0.016886,0.000780,  47.893
    93.6,0.002798,0.001869,0.018143,0.000793,  47.894
    93.8,0.002925,0.001934,0.019346,0.000771,  47.893
    94.0,0.003035,0.002002,0.020571,0.000806,  47.893
    94.2,0.003139,0.002079,0.021808,0.000819,  47.895
    94.4,0.003244,0.002161,0.023265,0.000784,  47.892
    94.6,0.003350,0.002246,0.024847,0.000806,  47.889
    94.8,0.003504,0.002335,0.026558,0.000819,  47.891
    95.0,0.003678,0.002430,0.028384,0.000784,  47.888
    95.2,0.003872,0.002529,0.030330,0.000819,  47.891
    95.4,0.004061,0.002627,0.032408,0.000832,  47.890
    95.6,0.004257,0.002737,0.034557,0.000797,  47.888
    95.8,0.004460,0.002857,0.036816,0.000845,  47.892
    96.0,0.004678,0.002984,0.039178,0.000858,  47.890
    96.2,0.004909,0.003118,0.041624,0.000822,  47.889
    96.4,0.005157,0.003257,0.044160,0.000822,  47.892
    96.6,0.005413,0.003400,0.046792,0.000835,  47.888
    96.8,0.005672,0.003547,0.049521,0.000800,  47.892
    97.0,0.005952,0.003700,0.052354,0.000835,  47.892
    97.2,0.006251,0.003862,0.055280,0.000822,  47.891
    97.4,0.006566,0.004026,0.057945,0.000800,  47.891
    97.6,0.006900,0.004204,0.060516,0.000787,  47.892
    97.8,0.007241,0.004396,0.063018,0.000822,  47.891
    98.0,0.007598,0.004600,0.065407,0.000822,  47.890
    98.2,0.007968,0.004810,0.068877,0.000787,  47.896
    98.4,0.008368,0.005035,0.072740,0.000787,  47.896
    98.6,0.008784,0.005269,0.076998,0.000787,  47.894
    98.8,0.009219,0.005506,0.081175,0.000764,  47.893
    99.0,0.009673,0.005759,0.085493,0.000800,  47.894
    99.2,0.010154,0.006018,0.089986,0.000800,  47.892
    99.4,0.010658,0.006246,0.094655,0.000777,  47.895
    99.6,0.011166,0.006456,0.099499,0.000813,  47.891
    99.8,0.011689,0.006661,0.104541,0.000813,  47.896
   100.0,0.012235,0.006849,0.109821,0.000777,  47.897
   100.2,0.012822,0.007139,0.115319,0.000813,  47.897
   100.4,0.013425,0.007464,0.121052,0.000777,  47.893
   100.6,0.014059,0.007822,0.127045,0.000777,  47.896
   100.8,0.014707,0.008172,0.133272,0.000777,  47.896
   101.0,0.015377,0.008526,0.139766,0.000742,  47.890
   101.2,0.016064,0.008894,0.146307,0.000777,  47.894
   101.4,0.016784,0.009282,0.153014,0.000777,  47.897
   101.6,0.017542,0.009678,0.159877,0.000742,  47.895
   101.8,0.018328,0.010096,0.167200,0.000777,  47.896
   102.0,0.019136,0.010532,0.174859,0.000764,  47.894
   102.2,0.019989,0.010984,0.182859,0.000729,  47.899
   102.4,0.020870,0.011455,0.191101,0.000777,  47.897
   102.6,0.021781,0.011944,0.199648,0.000764,  47.894
   102.8,0.022739,0.012455,0.208526,0.000752,  47.897
   103.0,0.023736,0.012981,0.217665,0.000752,  47.900
   103.2,0.024610,0.013541,0.227125,0.000774,  47.899
   103.4,0.025444,0.014118,0.236936,0.000739,  47.899
   103.6,0.026245,0.014726,0.247028,0.000752,  47.901
   103.8,0.026997,0.015340,0.257461,0.000777,  47.902
   104.0,0.028082,0.015960,0.268252,0.000755,  47.901
   104.2,0.029285,0.016601,0.279566,0.000803,  47.900
   104.4,0.030608,0.017281,0.291346,0.000790,  47.902
   104.6,0.031891,0.017990,0.303640,0.000768,  47.903
   104.8,0.033211,0.018735,0.316136,0.000803,  47.902
   105.0,0.034580,0.019481,0.329022,0.000803,  47.906
   105.2,0.035970,0.020244,0.342322,0.000803,  47.902
   105.4,0.037390,0.021031,0.355663,0.000816,  47.904
   105.6,0.038852,0.021838,0.369245,0.000768,  47.901
   105.8,0.040382,0.022670,0.383067,0.000803,  47.901
   106.0,0.041956,0.023520,0.395452,0.000768,  47.908
   106.2,0.043591,0.024404,0.407140,0.000768,  47.904
   106.4,0.045264,0.025320,0.418039,0.000790,  47.903
   106.6,0.046982,0.026259,0.428094,0.000755,  47.905
   106.8,0.048753,0.027232,0.442842,0.000803,  47.902
   107.0,0.050583,0.028244,0.459238,0.000790,  47.903
   107.2,0.052468,0.029286,0.477485,0.000755,  47.903
   107.4,0.054409,0.030356,0.494744,0.000790,  47.906
   107.6,0.056399,0.031454,0.512445,0.000777,  47.908
   107.8,0.058441,0.032586,0.530589,0.000742,  47.906
   108.0,0.060543,0.033546,0.549043,0.000742,  47.908
   108.2,0.062676,0.034434,0.567900,0.000742,  47.911
   108.4,0.064853,0.035249,0.587102,0.000706,  47.906
   108.6,0.067077,0.035997,0.606636,0.000719,  47.907
   108.8,0.069352,0.037127,0.626491,0.000755,  47.907
   109.0,0.071682,0.038372,0.646695,0.000719,  47.904
   109.2,0.074062,0.039735,0.667822,0.000732,  47.906
   109.4,0.076483,0.041023,0.689678,0.000719,  47.906
   109.6,0.078945,0.042338,0.712281,0.000684,  47.904
   109.8,0.081456,0.043668,0.734896,0.000732,  47.905
   110.0,0.084041,0.045034,0.757807,0.000719,  47.905
   110.2,0.086677,0.046438,0.781062,0.000684,  47.903
   110.4,0.089370,0.047864,0.804923,0.000732,  47.903
   110.6,0.092109,0.049323,0.829282,0.000719,  47.906
   110.8,0.094888,0.050823,0.854094,0.000684,  47.905
   111.0,0.097721,0.052348,0.879434,0.000732,  47.903
   111.2,0.100192,0.053904,0.905317,0.000719,  47.905
   111.4,0.102494,0.055496,0.931711,0.000684,  47.900
   111.6,0.104648,0.057123,0.958540,0.000732,  47.900
   111.8,0.106628,0.058793,0.985842,0.000719,  47.897
   112.0,0.109505,0.060507,1.013463,0.000684,  47.897
   112.2,0.112654,0.062263,1.041409,0.000732,  47.898
   112.4,0.116087,0.064015,1.069712,0.000719,  47.896
   112.6,0.119363,0.065785,1.098231,0.000684,  47.898
   112.8,0.122719,0.067576,1.127597,0.000732,  47.894
   113.0,0.126139,0.069399,1.157367,0.000719,  47.897
   113.2,0.129538,0.071246,1.187377,0.000719,  47.895
   113.4,0.132973,0.073121,1.217871,0.000719,  47.892
   113.6,0.136436,0.075004,1.248546,0.000697,  47.894
   113.8,0.139942,0.076911,1.279007,0.000719,  47.893
   114.0,0.143494,0.078834,1.310045,0.000684,  47.890
   114.2,0.147093,0.080784,1.341005,0.000697,  47.893
   114.4,0.150746,0.082760,1.371702,0.000684,  47.890
   114.6,0.154464,0.084757,1.399383,0.000649,  47.892
   114.8,0.158241,0.086776,1.425006,0.000661,  47.893
   115.0,0.162030,0.088811,1.447464,0.000684,  47.888
   115.2,0.165848,0.090870,1.466396,0.000661,  47.893
   115.4,0.169706,0.092979,1.495802,0.000661,  47.889
   115.6,0.173631,0.095125,1.527833,0.000697,  47.887
   115.8,0.177604,0.097310,1.563187,0.000674,  47.886
   116.0,0.181631,0.099499,1.596045,0.000661,  47.888
   116.2,0.185690,0.101711,1.628876,0.000697,  47.887
   116.4,0.189787,0.103944,1.661154,0.000674,  47.887
   116.6,0.193927,0.105849,1.693959,0.000661,  47.885
   116.8,0.198107,0.107607,1.726444,0.000697,  47.882
   117.0,0.202324,0.109205,1.758322,0.000674,  47.881
   117.2,0.206586,0.110647,1.790967,0.000674,  47.884
   117.4,0.210843,0.112754,1.822979,0.000710,  47.880
   117.6,0.215122,0.115045,1.854511,0.000687,  47.877
   117.8,0.219417,0.117519,1.886331,0.000687,  47.878
   118.0,0.223751,0.119828,1.917750,0.000723,  47.877
   118.2,0.228103,0.122149,1.948483,0.000700,  47.876
   118.4,0.232486,0.124482,1.979547,0.000700,  47.876
   118.6,0.236864,0.126838,2.009409,0.000736,  47.875
   118.8,0.241245,0.129212,2.038397,0.000713,  47.872
   119.0,0.245640,0.131600,2.067806,0.000713,  47.875
   119.2,0.249445,0.133986,2.097588,0.000736,  47.876
   119.4,0.252950,0.136379,2.123911,0.000713,  47.873
   119.6,0.256149,0.138776,2.150959,0.000713,  47.873
   119.8,0.259028,0.141208,2.177694,0.000749,  47.871
   120.0,0.263195,0.143660,2.202816,0.000713,  47.872
   120.2,0.267713,0.146127,2.228240,0.000713,  47.871
   120.4,0.272578,0.148604,2.252713,0.000749,  47.873
   120.6,0.277151,0.151093,2.275974,0.000726,  47.871
   120.8,0.281742,0.153590,2.300541,0.000739,  47.868
   121.0,0.286346,0.156093,2.322131,0.000775,  47.867
   121.2,0.291000,0.158600,2.340197,0.000765,  47.866
   121.4,0.295684,0.161114,2.362305,0.000778,  47.867
   121.6,0.300392,0.163626,2.380523,0.000778,  47.866
   121.8,0.305041,0.166144,2.397792,0.000791,  47.867
   122.0,0.309689,0.168666,2.415725,0.000791,  47.862
   122.2,0.314323,0.171160,2.432505,0.000804,  47.845
   122.4,0.318967,0.173652,2.446010,0.000817,  47.840
   122.6,0.323630,0.176131,2.462012,0.000781,  47.842
   122.8,0.328299,0.178633,2.474421,0.000807,  47.840
   123.0,0.332945,0.181147,2.485062,0.000794,  47.839
   123.2,0.337597,0.183664,2.495952,0.000820,  47.839
   123.4,0.342243,0.186155,2.507117,0.000833,  47.836
   123.6,0.346856,0.188628,2.511670,0.000846,  47.838
   123.8,0.351468,0.191099,2.518588,0.000872,  47.839
   124.0,0.356046,0.193597,2.530364,0.000872,  47.834
   124.2,0.360636,0.196102,2.537598,0.000859,  47.833
   124.4,0.365240,0.198619,2.547435,0.000872,  47.835
   124.6,0.369827,0.201105,2.557460,0.000872,  47.834
   124.8,0.374425,0.203594,2.565125,0.000885,  47.832
   125.0,0.379022,0.206065,2.572913,0.000911,  47.830
   125.2,0.383619,0.208188,2.580866,0.000911,  47.831
   125.4,0.388214,0.210128,2.588978,0.000924,  47.834
   125.6,0.392793,0.211881,2.591724,0.000950,  47.828
   125.8,0.397370,0.213450,2.600044,0.000962,  47.827
   126.0,0.401897,0.215700,2.605684,0.000975,  47.823
   126.2,0.406385,0.218111,2.608537,0.000988,  47.824
   126.4,0.410854,0.220692,2.614284,0.000953,  47.822
   126.6,0.415287,0.223086,2.620119,0.000966,  47.819
   126.8,0.419685,0.225474,2.623069,0.000979,  47.821
   127.0,0.424065,0.227846,2.629013,0.000943,  47.817
   127.2,0.428406,0.230201,2.632024,0.000992,  47.815
   127.4,0.432701,0.232544,2.635050,0.001005,  47.811
   127.6,0.436972,0.234873,2.638082,0.000995,  47.809
   127.8,0.441230,0.237174,2.644236,0.001044,  47.810
   128.0,0.445450,0.239446,2.644220,0.001069,  47.805
   128.2,0.449652,0.241707,2.647339,0.001060,  47.807
   128.4,0.453246,0.243988,2.650496,0.001095,  47.805
   128.6,0.456520,0.246262,2.653693,0.001121,  47.801
   128.8,0.459459,0.248543,2.656880,0.001099,  47.800
   129.0,0.462056,0.250784,2.656874,0.001134,  47.797
   129.2,0.465861,0.253000,2.660074,0.001147,  47.795
   129.4,0.469959,0.255196,2.663308,0.001125,  47.790
   129.6,0.474352,0.257413,2.666578,0.001134,  47.788
   129.8,0.478431,0.259624,2.666594,0.001147,  47.788
   130.0,0.482493,0.261837,2.669861,0.001138,  47.781
   130.2,0.486538,0.263984,2.676470,0.001186,  47.777
   130.4,0.490498,0.266092,2.673109,0.001212,  47.770
   130.6,0.494391,0.268170,2.676416,0.001202,  47.765
   130.8,0.498212,0.270250,2.679753,0.001251,  47.764
   131.0,0.502033,0.272319,2.679737,0.001264,  47.758
   131.2,0.505815,0.274388,2.683111,0.001254,  47.756
   131.4,0.509545,0.276402,2.686528,0.001303,  47.752
   131.6,0.513226,0.278394,2.686544,0.001303,  47.748
   131.8,0.516882,0.280359,2.686544,0.001293,  47.742
   132.0,0.520500,0.282323,2.689961,0.001341,  47.739
   132.2,0.524076,0.284266,2.689950,0.001354,  47.736
   132.4,0.527614,0.286200,2.689934,0.001380,  47.733
   132.6,0.531111,0.288108,2.693422,0.001358,  47.723
   132.8,0.534553,0.289996,2.693460,0.001371,  47.702
   133.0,0.537957,0.291857,2.693525,0.001384,  47.698
   133.2,0.541303,0.293685,2.697040,0.001397,  47.689
   133.4,0.544654,0.295496,2.700578,0.001423,  47.687
   133.6,0.547982,0.297267,2.700595,0.001449,  47.676
   133.8,0.551296,0.299039,2.700578,0.001462,  47.673
   134.0,0.554539,0.300799,2.704096,0.001487,  47.668
   134.2,0.557737,0.302536,2.704059,0.001513,  47.664
   134.4,0.560890,0.304016,2.707606,0.001526,  47.656
   134.6,0.563977,0.305349,2.707574,0.001526,  47.650
   134.8,0.567016,0.306552,2.707546,0.001552,  47.645
   135.0,0.570005,0.307601,2.711221,0.001565,  47.638
   135.2,0.572940,0.309091,2.711346,0.001578,  47.624
   135.4,0.575827,0.310674,2.711519,0.001604,  47.619
   135.6,0.578677,0.312350,2.715148,0.001604,  47.609
   135.8,0.581484,0.313903,2.715077,0.001604,  47.605
   136.0,0.584252,0.315442,2.714953,0.001617,  47.600
   136.2,0.587001,0.316958,2.718564,0.001617,  47.590
   136.4,0.589700,0.318456,2.718515,0.001630,  47.558
   136.6,0.592366,0.319936,2.718477,0.001656,  47.551
   136.8,0.594982,0.321384,2.722184,0.001656,  47.541
   137.0,0.597556,0.322817,2.722222,0.001669,  47.537
   137.2,0.600074,0.324226,2.722292,0.001695,  47.524
   137.4,0.602533,0.325608,2.722325,0.001685,  47.517
   137.6,0.605006,0.326970,2.722357,0.001711,  47.503
   137.8,0.607452,0.328303,2.722390,0.001724,  47.502
   138.0,0.609875,0.329612,2.726091,0.001711,  47.484
   138.2,0.611950,0.330949,2.726053,0.001747,  47.478
   138.4,0.613823,0.332294,2.725988,0.001773,  47.472
   138.6,0.615505,0.333635,2.729715,0.001737,  47.457
   138.8,0.616987,0.334915,2.733492,0.001750,  47.432
   139.0,0.619101,0.336160,2.729694,0.001763,  47.422
   139.2,0.621340,0.337368,2.729666,0.001754,  47.405
   139.4,0.623715,0.338570,2.733438,0.001789,  47.399
   139.6,0.625868,0.339764,2.733416,0.001767,  47.381
   139.8,0.627959,0.340939,2.733411,0.001793,  47.376
   140.0,0.629988,0.342096,2.737237,0.001806,  47.364
   140.2,0.632021,0.343240,2.737248,0.001796,  47.344
   140.4,0.634030,0.344374,2.737232,0.001844,  47.336
   140.6,0.635999,0.345503,2.741065,0.001844,  47.297
   140.8,0.637953,0.346617,2.737167,0.001857,  47.296
   141.0,0.639905,0.347721,2.741011,0.001848,  47.280
   141.2,0.641809,0.348778,2.741005,0.001883,  47.261
   141.4,0.643675,0.349806,2.741016,0.001896,  47.248
   141.6,0.645504,0.350808,2.744911,0.001922,  47.231
   141.8,0.647288,0.351824,2.744900,0.001935,  47.219
   142.0,0.649073,0.352838,2.744906,0.001948,  47.202
   142.2,0.650856,0.353850,2.744900,0.001926,  47.169
   142.4,0.652610,0.354842,2.748836,0.001987,  47.156
   142.6,0.654335,0.355829,2.748858,0.001987,  47.133
   142.8,0.656038,0.356809,2.744944,0.001965,  47.116
   143.0,0.657719,0.357756,2.748880,0.001965,  47.100
   143.2,0.659358,0.358683,2.748880,0.001965,  47.085
   143.4,0.660950,0.359586,2.748880,0.001942,  47.047
   143.6,0.662519,0.360368,2.752884,0.001942,  47.026
   143.8,0.664080,0.361081,2.748977,0.001991,  47.011
   144.0,0.665618,0.361724,2.749053,0.001968,  46.989
   144.2,0.667118,0.362289,2.753019,0.001968,  46.967
   144.4,0.668654,0.363111,2.749026,0.002004,  46.944
   144.6,0.670196,0.364001,2.748966,0.001981,  46.905
   144.8,0.671731,0.364955,2.752916,0.001981,  46.891
   145.0,0.673271,0.365840,2.752916,0.002004,  46.865
   145.2,0.674811,0.366727,2.752922,0.001994,  46.846
   145.4,0.676356,0.367616,2.756908,0.002007,  46.819
   145.6,0.677900,0.368470,2.756886,0.002056,  46.769
   145.8,0.679462,0.369313,2.756859,0.002033,  46.750
   146.0,0.681024,0.370139,2.756832,0.002046,  46.727
   146.2,0.682572,0.371017,2.756811,0.002069,  46.703
   146.4,0.684114,0.371918,2.756789,0.002046,  46.656
   146.6,0.685661,0.372836,2.760823,0.002059,  46.621
   146.8,0.687264,0.373783,2.760829,0.002095,  46.602
   147.0,0.688886,0.374754,2.760851,0.002072,  46.569
   147.2,0.690533,0.375751,2.764918,0.002072,  46.524
   147.4,0.691962,0.376722,2.769023,0.002095,  46.493
   147.6,0.693287,0.377690,2.764891,0.002059,  46.458
   147.8,0.694501,0.378656,2.764874,0.002059,  46.411
   148.0,0.695614,0.379657,2.768986,0.002033,  46.383
   148.2,0.697215,0.380670,2.764869,0.001998,  46.343
   148.4,0.698966,0.381698,2.764880,0.002033,  46.289
   148.6,0.700860,0.382752,2.769013,0.002020,  46.242
   148.8,0.702697,0.383823,2.769040,0.001972,  46.217
   149.0,0.704561,0.384923,2.769040,0.001994,  46.157
   149.2,0.706454,0.386055,2.769029,0.001968,  46.125
   149.4,0.708428,0.387203,2.769007,0.001920,  46.079
   149.6,0.710464,0.388386,2.768996,0.001942,  46.010
   149.8,0.712563,0.389593,2.773152,0.001916,  45.980
   150.0,0.714713,0.390822,2.773163,0.001903,  45.915
   150.2,0.716915,0.392070,2.777343,0.001903,  45.868
   150.4,0.719161,0.393386,2.777332,0.001877,  45.818
   150.6,0.721474,0.394740,2.777316,0.001864,  45.743
   150.8,0.723834,0.396132,2.781542,0.001816,  45.690
   151.0,0.726240,0.397566,2.781537,0.001838,  45.638
   151.2,0.728745,0.399043,2.781537,0.001825,  45.589
   151.4,0.731313,0.400559,2.781531,0.001790,  45.515
   151.6,0.733972,0.402105,2.781526,0.001799,  45.450
   151.8,0.736692,0.403695,2.785799,0.001761,  45.389
   152.0,0.739485,0.405335,2.785799,0.001699,  45.314
   152.2,0.742359,0.407026,2.790126,0.001722,  45.258
   152.4,0.745334,0.408772,2.790137,0.001683,  45.176
   152.6,0.748416,0.410580,2.790159,0.001621,  45.102
   152.8,0.751592,0.412434,2.794518,0.001631,  45.034
   153.0,0.754854,0.414336,2.794496,0.001592,  44.950
   153.2,0.758227,0.416291,2.794475,0.001530,  44.892
   153.4,0.761665,0.418009,2.798884,0.001527,  44.810
   153.6,0.765260,0.419629,2.798900,0.001488,  44.708
   153.8,0.769005,0.421158,2.798927,0.001427,  44.666
   154.0,0.772853,0.422586,2.803376,0.001410,  44.576
   154.2,0.776860,0.424664,2.807860,0.001359,  44.493
   154.4,0.780983,0.426946,2.803338,0.001297,  44.421
   154.6,0.785246,0.429431,2.803333,0.001294,  44.310
   154.8,0.789594,0.431874,2.807833,0.001255,  44.245
   155.0,0.794034,0.434403,2.807849,0.001193,  44.151
   155.2,0.798613,0.437010,2.807866,0.001155,  44.081
   155.4,0.803262,0.439720,2.812435,0.001116,  43.986
   155.6,0.807989,0.442516,2.812473,0.001054,  43.884
   155.8,0.812847,0.445407,2.817074,0.001015,  43.811
   156.0,0.817789,0.448303,2.817074,0.000999,  43.721
   156.2,0.822798,0.451241,2.817063,0.000938,  43.646
   156.4,0.827931,0.454215,2.821692,0.000899,  43.551
   156.6,0.833136,0.457253,2.821681,0.000895,  43.440
   156.8,0.838405,0.460340,2.821659,0.000834,  43.368
   157.0,0.843762,0.463475,2.826344,0.000808,  43.273
   157.2,0.848410,0.466688,2.831090,0.000805,  43.182
   157.4,0.852719,0.469976,2.831090,0.000743,  43.106
   157.6,0.856698,0.473334,2.835894,0.000730,  42.998
   157.8,0.860280,0.476695,2.835911,0.000714,  42.926
   158.0,0.865509,0.480088,2.835932,0.000653,  42.834
   158.2,0.871194,0.483538,2.840785,0.000640,  42.747
   158.4,0.877340,0.486988,2.840785,0.000662,  42.659
   158.6,0.883143,0.490446,2.840785,0.000601,  42.565
   158.8,0.888999,0.493931,2.845676,0.000588,  42.498
   159.0,0.894887,0.497472,2.850612,0.000562,  42.411
   159.2,0.900759,0.501055,2.845616,0.000549,  42.333
   159.4,0.906628,0.504676,2.845600,0.000536,  42.246
   159.6,0.912514,0.508273,2.850553,0.000536,  42.164
   159.8,0.918373,0.511892,2.850547,0.000523,  42.107
   160.0,0.924187,0.515517,2.855568,0.000523,  42.023
   160.2,0.929991,0.519100,2.855584,0.000497,  41.955
   160.4,0.935772,0.522667,2.860685,0.000497,  41.895
   160.6,0.941530,0.526213,2.860680,0.000462,  41.813
   160.8,0.947227,0.529733,2.865809,0.000462,  41.759
   161.0,0.952871,0.533239,2.865798,0.000462,  41.698
   161.2,0.958454,0.536719,2.865776,0.000452,  41.638
   161.4,0.963942,0.540159,2.870972,0.000452,  41.570
   161.6,0.969348,0.543552,2.870977,0.000488,  41.518
   161.8,0.974689,0.546909,2.870994,0.000501,  41.474
   162.0,0.979897,0.549776,2.876252,0.000527,  41.435
   162.2,0.985056,0.552367,2.876242,0.000527,  41.389
   162.4,0.990162,0.554660,2.876236,0.000540,  41.360
   162.6,0.995123,0.556683,2.881565,0.000566,  41.322
   162.8,1.000057,0.559604,2.881571,0.000591,  41.289
   163.0,1.004890,0.562735,2.881587,0.000591,  41.264
   163.2,1.009625,0.566065,2.886976,0.000591,  41.244
   163.4,1.014184,0.569061,2.886966,0.000591,  41.209
   163.6,1.018636,0.571987,2.886955,0.000604,  41.191
   163.8,1.022941,0.574849,2.892412,0.000630,  41.184
   164.0,1.027069,0.577635,2.892418,0.000643,  41.174
   164.2,1.031040,0.580347,2.886955,0.000682,  41.167
   164.4,1.034886,0.582971,2.886955,0.000734,  41.171
   164.6,1.038589,0.585500,2.892428,0.000760,  41.173
   164.8,1.042089,0.587947,2.892439,0.000799,  41.177
   165.0,1.045457,0.590284,2.892434,0.000837,  41.181
   165.2,1.048671,0.592547,2.897955,0.000850,  41.191
   165.4,1.051733,0.594720,2.897945,0.000876,  41.202
   165.6,1.054652,0.596806,2.897955,0.000915,  41.223
   165.8,1.057104,0.598802,2.897983,0.000941,  41.237
   166.0,1.059212,0.600709,2.898021,0.000967,  41.262
   166.2,1.060973,0.602516,2.898021,0.000993,  41.300
   166.4,1.062410,0.604255,2.898010,0.001032,  41.327
   166.6,1.064514,0.605892,2.897994,0.001084,  41.367
   166.8,1.066665,0.607446,2.898037,0.001087,  41.407
   167.0,1.068858,0.608928,2.898113,0.001139,  41.445
   167.2,1.070786,0.610317,2.898216,0.001178,  41.484
   167.4,1.072532,0.611624,2.898210,0.001155,  41.542
   167.6,1.074094,0.612849,2.898167,0.001204,  41.596
   167.8,1.075575,0.613986,2.898086,0.001217,  41.641
   168.0,1.076907,0.615049,2.898048,0.001220,  41.694
   168.2,1.078062,0.615999,2.903619,0.001255,  41.765
   168.4,1.079145,0.616865,2.903586,0.001281,  41.835
   168.6,1.080050,0.617622,2.903559,0.001285,  41.900
   168.8,1.080806,0.618385,2.909215,0.001346,  41.960
   169.0,1.081520,0.619102,2.903532,0.001372,  42.039
   169.2,1.082060,0.619770,2.903522,0.001398,  42.093
   169.4,1.082474,0.620337,2.903511,0.001402,  42.172
   169.6,1.082782,0.620812,2.909193,0.001476,  42.268
   169.8,1.082977,0.621216,2.903522,0.001528,  42.334
   170.0,1.083008,0.621557,2.903554,0.001505,  42.405
   170.2,1.082970,0.621821,2.903603,0.001554,  42.487
   170.4,1.082819,0.622018,2.903662,0.001593,  42.576
   170.6,1.082505,0.622150,2.903651,0.001583,  42.676
   170.8,1.082122,0.622226,2.909296,0.001645,  42.743
   171.0,1.081658,0.622234,2.903559,0.001671,  42.821
   171.2,1.081038,0.622218,2.903538,0.001661,  42.901
   171.4,1.080343,0.622157,2.909209,0.001722,  42.994
   171.6,1.079569,0.622037,2.903538,0.001748,  43.100
   171.8,1.078671,0.621880,2.903554,0.001726,  43.168
   172.0,1.077701,0.621656,2.909258,0.001752,  43.250
   172.2,1.076653,0.621375,2.903625,0.001791,  43.335
   172.4,1.075508,0.621035,2.903630,0.001804,  43.431
   172.6,1.074304,0.620631,2.909307,0.001817,  43.533
   172.8,1.072981,0.620152,2.903614,0.001843,  43.605
   173.0,1.071545,0.619618,2.903592,0.001869,  43.700
   173.2,1.070078,0.619071,2.909242,0.001895,  43.772
   173.4,1.068548,0.618470,2.903532,0.001921,  43.859
   173.6,1.066915,0.617826,2.903511,0.001934,  43.962
   173.8,1.065221,0.617146,2.909161,0.001947,  44.032
   174.0,1.063474,0.616432,2.903473,0.001973,  44.107
   174.2,1.061621,0.615660,2.903473,0.001963,  44.197
   174.4,1.059769,0.614865,2.909161,0.001976,  44.285
   174.6,1.057836,0.614032,2.903511,0.002002,  44.391
   174.8,1.055829,0.613150,2.903505,0.001980,  44.455
   175.0,1.054060,0.612219,2.909172,0.002041,  44.526
   175.2,1.052410,0.611247,2.903483,0.002067,  44.610
   175.4,1.050830,0.610231,2.903478,0.002067,  44.696
   175.6,1.049379,0.609182,2.909150,0.002102,  44.780
   175.8,1.047254,0.608076,2.903483,0.002115,  44.842
   176.0,1.044914,0.606935,2.903500,0.002115,  44.929
   176.2,1.042365,0.605793,2.903516,0.002128,  44.989
   176.4,1.039966,0.604628,2.897945,0.002154,  45.068
   176.6,1.037496,0.603431,2.897945,0.002132,  45.159
   176.8,1.035017,0.602165,2.897934,0.002145,  45.202
   177.0,1.032491,0.600861,2.897918,0.002158,  45.279
   177.2,1.029951,0.599509,2.897907,0.002148,  45.359
   177.4,1.027343,0.598216,2.897896,0.002171,  45.418
   177.6,1.024724,0.596917,2.892363,0.002171,  45.503
   177.8,1.022065,0.595618,2.892369,0.002197,  45.546
   178.0,1.019314,0.594260,2.897918,0.002184,  45.619
   178.2,1.016580,0.592847,2.892407,0.002197,  45.671
   178.4,1.013783,0.591408,2.892401,0.002174,  45.741
   178.6,1.010950,0.589985,2.897923,0.002210,  45.809
   178.8,1.008115,0.588539,2.897901,0.002223,  45.862
   179.0,1.005241,0.587088,2.892347,0.002249,  45.914
   179.2,1.002339,0.585590,2.892331,0.002213,  45.975
   179.4,0.999372,0.584053,2.892325,0.002249,  46.026
   179.6,0.996374,0.582498,2.886857,0.002262,  46.097
   179.8,0.993320,0.580910,2.881451,0.002239,  46.133
   180.0,0.990281,0.579299,2.881446,0.002262,  46.196
   180.2,0.987225,0.577655,2.881435,0.002262,  46.241
   180.4,0.984115,0.576266,2.876084,0.002239,  46.300
   180.6,0.980965,0.574970,2.876068,0.002275,  46.350
   180.8,0.977727,0.573798,2.881375,0.002288,  46.397
   181.0,0.974483,0.572717,2.881359,0.002265,  46.437
   181.2,0.971280,0.571146,2.881343,0.002314,  46.471
   181.4,0.968041,0.569443,2.881332,0.002327,  46.505
   181.6,0.964802,0.567616,2.881332,0.002304,  46.568
   181.8,0.961527,0.565894,2.881348,0.002340,  46.588
   182.0,0.958265,0.564169,2.876046,0.002330,  46.623
   182.2,0.954958,0.562437,2.881381,0.002330,  46.668
   182.4,0.951646,0.560666,2.876063,0.002330,  46.703
   182.6,0.948313,0.558882,2.870804,0.002308,  46.733
   182.8,0.944966,0.557072,2.876074,0.002343,  46.775
   183.0,0.941639,0.555271,2.870815,0.002330,  46.798
   183.2,0.938240,0.553462,2.870820,0.002295,  46.829
   183.4,0.934835,0.551638,2.876074,0.002343,  46.852
   183.6,0.931407,0.549792,2.870804,0.002356,  46.898
   183.8,0.927917,0.547929,2.870782,0.002343,  46.913
   184.0,0.924396,0.546063,2.876041,0.002330,  46.939
   184.2,0.921417,0.544155,2.870782,0.002353,  46.957
   184.4,0.918695,0.542211,2.865592,0.002340,  46.980
   184.6,0.916197,0.540256,2.870799,0.002304,  47.024
   184.8,0.913940,0.538334,2.865608,0.002353,  47.034
   185.0,0.910629,0.536397,2.860479,0.002330,  47.052
   185.2,0.907071,0.534466,2.860501,0.002356,  47.073
   185.4,0.903278,0.532552,2.860544,0.002369,  47.091
   185.6,0.899739,0.530659,2.855508,0.002360,  47.109
   185.8,0.896201,0.528764,2.855530,0.002395,  47.141
   186.0,0.892663,0.526836,2.860631,0.002382,  47.155
   186.2,0.889128,0.524917,2.855573,0.002360,  47.170
   186.4,0.885582,0.522979,2.855562,0.002395,  47.183
   186.6,0.882031,0.521011,2.855536,0.002395,  47.196
   186.8,0.878509,0.519035,2.850482,0.002373,  47.205
   187.0,0.874970,0.517032,2.850450,0.002373,  47.218
   187.2,0.871402,0.515066,2.850417,0.002373,  47.232
   187.4,0.867849,0.513113,2.845416,0.002373,  47.263
   187.6,0.864263,0.511168,2.845394,0.002386,  47.278
   187.8,0.860624,0.509152,2.845388,0.002373,  47.284
   188.0,0.857004,0.507116,2.840481,0.002373,  47.295
   188.2,0.853338,0.505052,2.840470,0.002373,  47.307
   188.4,0.849655,0.503029,2.840449,0.002373,  47.320
   188.6,0.846027,0.500999,2.840432,0.002373,  47.328
   188.8,0.842417,0.498984,2.840416,0.002350,  47.338
   189.0,0.838807,0.496935,2.840421,0.002337,  47.347
   189.2,0.835090,0.494869,2.840432,0.002373,  47.355
   189.4,0.831322,0.492784,2.835602,0.002363,  47.383
   189.6,0.827524,0.490704,2.830813,0.002363,  47.390
   189.8,0.823798,0.488618,2.830830,0.002412,  47.395
   190.0,0.820081,0.486520,2.830852,0.002389,  47.403
   190.2,0.816380,0.484749,2.835645,0.002389,  47.412
   190.4,0.812663,0.483137,2.830841,0.002412,  47.414
   190.6,0.808941,0.481666,2.826089,0.002376,  47.428
   190.8,0.805210,0.480350,2.830808,0.002389,  47.430
   191.0,0.801505,0.478396,2.826018,0.002389,  47.432
   191.2,0.797828,0.476283,2.821285,0.002354,  47.435
   191.4,0.794143,0.474013,2.825969,0.002389,  47.448
   191.6,0.790450,0.471923,2.825969,0.002376,  47.453
   191.8,0.786738,0.469849,2.821290,0.002341,  47.458
   192.0,0.783010,0.467790,2.825997,0.002376,  47.463
   192.2,0.779270,0.465673,2.821318,0.002376,  47.466
   192.4,0.775521,0.463536,2.816694,0.002341,  47.472
   192.6,0.771750,0.461376,2.816694,0.002389,  47.476
   192.8,0.768013,0.459258,2.816684,0.002389,  47.479
   193.0,0.764291,0.457140,2.812072,0.002354,  47.485
   193.2,0.760586,0.455027,2.812072,0.002402,  47.490
   193.4,0.757381,0.452897,2.812083,0.002389,  47.519
   193.6,0.754426,0.450760,2.807551,0.002354,  47.526
   193.8,0.751700,0.448612,2.807540,0.002402,  47.528
   194.0,0.749206,0.446485,2.807524,0.002402,  47.529
   194.2,0.745722,0.444347,2.803007,0.002367,  47.536
   194.4,0.741987,0.442214,2.803029,0.002389,  47.540
   194.6,0.738012,0.440107,2.803067,0.002412,  47.545
   194.8,0.734306,0.438007,2.798678,0.002376,  47.549
   195.0,0.730590,0.435917,2.794269,0.002389,  47.551
   195.2,0.726898,0.433810,2.794247,0.002389,  47.557
   195.4,0.723230,0.431702,2.794204,0.002354,  47.559
   195.6,0.719566,0.429594,2.789833,0.002402,  47.559
   195.8,0.715912,0.427501,2.789833,0.002389,  47.561
   196.0,0.712256,0.425409,2.789839,0.002402,  47.565
   196.2,0.708584,0.423320,2.794182,0.002367,  47.573
   196.4,0.704915,0.421207,2.789795,0.002380,  47.578
   196.6,0.701233,0.419075,2.785441,0.002367,  47.577
   196.8,0.697510,0.416942,2.789747,0.002367,  47.579
   197.0,0.693805,0.414829,2.785430,0.002367,  47.588
   197.2,0.690151,0.412712,2.781163,0.002367,  47.590
   197.4,0.686497,0.410608,2.781163,0.002344,  47.593
   197.6,0.682872,0.408478,2.781157,0.002344,  47.598
   197.8,0.679172,0.406338,2.776920,0.002393,  47.599
   198.0,0.675430,0.404180,2.776926,0.002370,  47.600
   198.2,0.671665,0.402057,2.781152,0.002357,  47.607
   198.4,0.667968,0.399938,2.776915,0.002393,  47.614
   198.6,0.664285,0.397826,2.772713,0.002370,  47.615
   198.8,0.660621,0.395709,2.772708,0.002357,  47.616
   199.0,0.656970,0.393602,2.772713,0.002393,  47.623
   199.2,0.653320,0.391486,2.768568,0.002370,  47.642
   199.4,0.649659,0.389691,2.768563,0.002357,  47.642
   199.6,0.646081,0.388050,2.768563,0.002393,  47.644
   199.8,0.642521,0.386558,2.764452,0.002357,  47.645
   200.0,0.638985,0.385221,2.764452,0.002357,  47.650
   200.2,0.635387,0.383285,2.764457,0.002380,  47.654
   200.4,0.631786,0.381197,2.760390,0.002344,  47.656
   200.6,0.628181,0.378976,2.756344,0.002357,  47.659
   200.8,0.624572,0.376880,2.756339,0.002380,  47.663
   201.0,0.620973,0.374777,2.756334,0.002357,  47.666
   201.2,0.617371,0.372670,2.752325,0.002357,  47.669
   201.4,0.613797,0.370577,2.748359,0.002393,  47.669
   201.6,0.610243,0.368495,2.748365,0.002370,  47.675
   201.8,0.606697,0.366418,2.752320,0.002370,  47.674
   202.0,0.603126,0.364333,2.744413,0.002406,  47.678
   202.2,0.599555,0.362245,2.740507,0.002383,  47.680
   202.4,0.595977,0.360154,2.740496,0.002383,  47.684
   202.6,0.592956,0.358086,2.740490,0.002383,  47.686
   202.8,0.590192,0.356024,2.736624,0.002396,  47.687
   203.0,0.587719,0.353967,2.736619,0.002396,  47.688
   203.2,0.585474,0.351929,2.736624,0.002396,  47.693
   203.4,0.582261,0.349904,2.732798,0.002409,  47.697
   203.6,0.578838,0.347893,2.732804,0.002409,  47.696
   203.8,0.575171,0.345908,2.732825,0.002396,  47.698
   204.0,0.571768,0.343936,2.729059,0.002409,  47.699
   204.2,0.568372,0.341981,2.725348,0.002409,  47.701
   204.4,0.564980,0.340010,2.725419,0.002409,  47.702
   204.6,0.561589,0.338031,2.721788,0.002374,  47.707
   204.8,0.558199,0.336053,2.718081,0.002374,  47.708
   205.0,0.554802,0.334063,2.718027,0.002374,  47.710
   205.2,0.551396,0.332070,2.717940,0.002374,  47.713
   205.4,0.547984,0.330078,2.721599,0.002338,  47.715
   205.6,0.544574,0.328107,2.717875,0.002374,  47.716
   205.8,0.541194,0.326145,2.714189,0.002361,  47.718
   206.0,0.537825,0.324201,2.717848,0.002374,  47.717
   206.2,0.534485,0.322189,2.710554,0.002396,  47.724
   206.4,0.531111,0.320154,2.706966,0.002370,  47.724
   206.6,0.527711,0.318098,2.706966,0.002383,  47.727
   206.8,0.524309,0.316114,2.706961,0.002396,  47.724
   207.0,0.520953,0.314150,2.703376,0.002361,  47.729
   207.2,0.517606,0.312206,2.699820,0.002338,  47.734
   207.4,0.514275,0.310259,2.699820,0.002338,  47.732
   207.6,0.510979,0.308328,2.696308,0.002361,  47.736
   207.8,0.507699,0.306411,2.692826,0.002374,  47.736
   208.0,0.504433,0.304498,2.689370,0.002374,  47.740
   208.2,0.501210,0.302597,2.689376,0.002361,  47.741
   208.4,0.498020,0.300713,2.685954,0.002374,  47.745
   208.6,0.494842,0.299089,2.685943,0.002374,  47.745
   208.8,0.491647,0.297599,2.682515,0.002374,  47.749
   209.0,0.488454,0.296236,2.679102,0.002374,  47.751
   209.2,0.485244,0.295010,2.679102,0.002374,  47.750
   209.4,0.482048,0.293256,2.679119,0.002374,  47.757
   209.6,0.478846,0.291366,2.672464,0.002374,  47.752
   209.8,0.475636,0.289351,2.672470,0.002374,  47.758
   210.0,0.472474,0.287482,2.672475,0.002374,  47.756
   210.2,0.469342,0.285614,2.665900,0.002387,  47.760
   210.4,0.466238,0.283752,2.662636,0.002387,  47.763
   210.6,0.463098,0.281877,2.662625,0.002387,  47.787
   210.8,0.459979,0.280004,2.656164,0.002400,  47.790
   211.0,0.456859,0.278124,2.656142,0.002364,  47.792
   211.2,0.453764,0.276273,2.649786,0.002351,  47.792
   211.4,0.450704,0.274450,2.646634,0.002351,  47.793
   211.6,0.447658,0.272642,2.646634,0.002316,  47.795
   211.8,0.445068,0.270828,2.640451,0.002351,  47.800
   212.0,0.442702,0.269038,2.634367,0.002351,  47.797
   212.2,0.440583,0.267251,2.631341,0.002316,  47.800
   212.4,0.438676,0.265475,2.628340,0.002351,  47.800
   212.6,0.435912,0.263714,2.622391,0.002338,  47.804
   212.8,0.432969,0.261960,2.619441,0.002325,  47.804
   213.0,0.429834,0.260208,2.616511,0.002348,  47.807
   213.2,0.426890,0.258461,2.610715,0.002348,  47.811
   213.4,0.423958,0.256724,2.607838,0.002312,  47.812
   213.6,0.421018,0.254984,2.604985,0.002338,  47.813
   213.8,0.418045,0.253242,2.596540,0.002338,  47.812
   214.0,0.415070,0.251508,2.591002,0.002303,  47.818
   214.2,0.412076,0.249791,2.585540,0.002338,  47.817
   214.4,0.409169,0.248081,2.580155,0.002338,  47.820
   214.6,0.406302,0.246384,2.574832,0.002303,  47.818
   214.8,0.403472,0.244654,2.569579,0.002303,  47.821
   215.0,0.400616,0.242911,2.564394,0.002338,  47.824
   215.2,0.397752,0.241156,2.559254,0.002303,  47.824
   215.4,0.394894,0.239451,2.554158,0.002338,  47.825
   215.6,0.392061,0.237762,2.551630,0.002338,  47.826
   215.8,0.389234,0.236087,2.546616,0.002338,  47.826
   216.0,0.386412,0.234421,2.544120,0.002303,  47.833
   216.2,0.383640,0.232770,2.536758,0.002338,  47.834
   216.4,0.380892,0.231125,2.527133,0.002351,  47.829
   216.6,0.378168,0.229502,2.522407,0.002316,  47.835
   216.8,0.375485,0.227903,2.515431,0.002351,  47.836
   217.0,0.372830,0.226323,2.506315,0.002364,  47.839
   217.2,0.370211,0.224722,2.499587,0.002329,  47.840
   217.4,0.367552,0.223110,2.492962,0.002351,  47.838
   217.6,0.364880,0.221499,2.482136,0.002338,  47.839
   217.8,0.362206,0.220134,2.475760,0.002303,  47.846
   218.0,0.359537,0.218886,2.469470,0.002338,  47.843
   218.2,0.356848,0.217757,2.459192,0.002325,  47.845
   218.4,0.354152,0.216749,2.451149,0.002290,  47.845
   218.6,0.351543,0.215298,2.443263,0.002338,  47.846
   218.8,0.348962,0.213736,2.433601,0.002351,  47.848
   219.0,0.346419,0.212078,2.424139,0.002329,  47.850
   219.2,0.343844,0.210515,2.413050,0.002364,  47.850
   219.4,0.341279,0.208961,2.404021,0.002377,  47.850
   219.6,0.338718,0.207395,2.395164,0.002355,  47.849
   219.8,0.336199,0.205870,2.384772,0.002342,  47.853
   220.0,0.333707,0.204368,2.374616,0.002342,  47.857
   220.2,0.331241,0.202886,2.364773,0.002342,  47.856
   220.4,0.328781,0.201398,2.353589,0.002342,  47.862
   220.6,0.326343,0.199920,2.341187,0.002342,  47.863
   220.8,0.323912,0.198450,2.332006,0.002342,  47.862
   221.0,0.321494,0.196989,2.320011,0.002342,  47.861
   221.2,0.319101,0.195549,2.311164,0.002342,  47.861
   221.4,0.316711,0.194111,2.301142,0.002342,  47.864
   221.6,0.314672,0.192670,2.289978,0.002342,  47.865
   221.8,0.312801,0.191240,2.279109,0.002342,  47.866
   222.0,0.311102,0.189817,2.267199,0.002342,  47.869
   222.2,0.309563,0.188388,2.255623,0.002342,  47.872
   222.4,0.307319,0.186961,2.243112,0.002342,  47.864
   222.6,0.304887,0.185537,2.233341,0.002342,  47.865
   222.8,0.302281,0.184131,2.220258,0.002329,  47.871
   223.0,0.299933,0.182744,2.207558,0.002329,  47.868
   223.2,0.297625,0.181364,2.196352,0.002342,  47.872
   223.4,0.295360,0.179965,2.182215,0.002342,  47.873
   223.6,0.293069,0.178566,2.168548,0.002342,  47.875
   223.8,0.290788,0.177160,2.156256,0.002355,  47.876
   224.0,0.288513,0.175778,2.143299,0.002342,  47.892
   224.2,0.286261,0.174414,2.130706,0.002342,  47.893
   224.4,0.284026,0.173057,2.119403,0.002342,  47.894
   224.6,0.281804,0.171712,2.110199,0.002342,  47.893
   224.8,0.279589,0.170382,2.101196,0.002329,  47.892
   225.0,0.277405,0.169062,2.093244,0.002329,  47.896
   225.2,0.275231,0.167765,2.081168,0.002342,  47.898
   225.4,0.273093,0.166487,2.068609,0.002329,  47.892
   225.6,0.270985,0.165216,2.054806,0.002329,  47.896
   225.8,0.268904,0.163937,2.042183,0.002319,  47.897
   226.0,0.266792,0.162659,2.029161,0.002319,  47.896
   226.2,0.264672,0.161382,2.015056,0.002319,  47.894
   226.4,0.262548,0.160297,2.002134,0.002297,  47.894
   226.6,0.260415,0.159306,1.988229,0.002319,  47.895
   226.8,0.258274,0.158407,1.973451,0.002319,  47.894
   227.0,0.256125,0.157602,1.960394,0.002297,  47.897
   227.2,0.254076,0.156444,1.947696,0.002319,  47.894
   227.4,0.252055,0.155201,1.933519,0.002319,  47.895
   227.6,0.250079,0.153884,1.919798,0.002297,  47.901
   227.8,0.248082,0.152654,1.906490,0.002319,  47.899
   228.0,0.246087,0.151430,1.892474,0.002284,  47.899
   228.2,0.244091,0.150206,1.878932,0.002297,  47.901
   228.4,0.242133,0.149013,1.865310,0.002284,  47.902
   228.6,0.240198,0.147838,1.851630,0.002248,  47.899
   228.8,0.238284,0.146676,1.838300,0.002297,  47.900
   229.0,0.236365,0.145512,1.825357,0.002284,  47.900
   229.2,0.234451,0.144351,1.811855,0.002248,  47.901
   229.4,0.232540,0.143196,1.798779,0.002297,  47.899
   229.6,0.230929,0.142054,1.786091,0.002284,  47.899
   229.8,0.229465,0.140921,1.772512,0.002261,  47.898
   230.0,0.228146,0.139791,1.759740,0.002297,  47.902
   230.2,0.226972,0.138669,1.746539,0.002297,  47.900
   230.4,0.225255,0.137552,1.733344,0.002297,  47.899
   230.6,0.223410,0.136443,1.720537,0.002297,  47.899
   230.8,0.221435,0.135317,1.707376,0.002319,  47.900
   231.0,0.219589,0.134196,1.694268,0.002319,  47.896
   231.2,0.217734,0.133075,1.681560,0.002297,  47.898
   231.4,0.215880,0.131982,1.668567,0.002319,  47.896
   231.6,0.214081,0.130919,1.655331,0.002319,  47.890
   231.8,0.212315,0.129876,1.642450,0.002297,  47.894
   232.0,0.210581,0.128805,1.629034,0.002319,  47.893
   232.2,0.208829,0.127731,1.615421,0.002297,  47.890
   232.4,0.207097,0.126658,1.602513,0.002297,  47.891
   232.6,0.205369,0.125605,1.589704,0.002297,  47.888
   232.8,0.203650,0.124565,1.576994,0.002297,  47.886
   233.0,0.201955,0.123538,1.566206,0.002310,  47.887
   233.2,0.200264,0.122507,1.556441,0.002310,  47.886
   233.4,0.198574,0.121490,1.547398,0.002297,  47.883
   233.6,0.196906,0.120482,1.539028,0.002274,  47.886
   233.8,0.195239,0.119490,1.527477,0.002274,  47.886
   234.0,0.193608,0.118512,1.514845,0.002274,  47.882
   234.2,0.192012,0.117550,1.501908,0.002252,  47.881
   234.4,0.190438,0.116575,1.489559,0.002252,  47.880
   234.6,0.188825,0.115599,1.476923,0.002274,  47.881
   234.8,0.187213,0.114634,1.464452,0.002252,  47.881
   235.0,0.185596,0.113799,1.452286,0.002252,  47.881
   235.2,0.183992,0.113034,1.440247,0.002287,  47.877
   235.4,0.182389,0.112334,1.428325,0.002265,  47.876
   235.6,0.180793,0.111706,1.416552,0.002287,  47.876
   235.8,0.179253,0.110838,1.404557,0.002323,  47.869
   236.0,0.177742,0.109913,1.392895,0.002300,  47.869
   236.2,0.176266,0.108934,1.380442,0.002323,  47.873
   236.4,0.174773,0.108017,1.367727,0.002310,  47.866
   236.6,0.173281,0.107097,1.354478,0.002287,  47.867
   236.8,0.171802,0.106191,1.342991,0.002323,  47.867
   237.0,0.170336,0.105297,1.332189,0.002310,  47.869
   237.2,0.168875,0.104405,1.321729,0.002287,  47.866
   237.4,0.167428,0.103530,1.310729,0.002323,  47.864
   237.6,0.165992,0.102653,1.299728,0.002310,  47.861
   237.8,0.164558,0.101785,1.288744,0.002287,  47.861
   238.0,0.163141,0.100924,1.277763,0.002300,  47.859
   238.2,0.161746,0.100069,1.266933,0.002313,  47.857
   238.4,0.160366,0.099223,1.255995,0.002278,  47.839
   238.6,0.159004,0.098384,1.245434,0.002278,  47.839
   238.8,0.157832,0.097543,1.234760,0.002300,  47.840
   239.0,0.156745,0.096707,1.224111,0.002278,  47.840
   239.2,0.155777,0.095877,1.213584,0.002278,  47.835
   239.4,0.154887,0.095039,1.202968,0.002278,  47.840
   239.6,0.153623,0.094196,1.192494,0.002242,  47.837
   239.8,0.152278,0.093359,1.182180,0.002278,  47.837
   240.0,0.150839,0.092550,1.171803,0.002278,  47.837
   240.2,0.149514,0.091752,1.161576,0.002255,  47.835
   240.4,0.148195,0.090969,1.151258,0.002291,  47.836
   240.6,0.146875,0.090178,1.140790,0.002291,  47.833
   240.8,0.145580,0.089389,1.130276,0.002268,  47.831
   241.0,0.144300,0.088602,1.120109,0.002317,  47.832
   241.2,0.143025,0.087832,1.110089,0.002304,  47.830
   241.4,0.141758,0.087066,1.100123,0.002304,  47.831
   241.6,0.140508,0.086310,1.090283,0.002281,  47.830
   241.8,0.139273,0.085556,1.080490,0.002304,  47.830
   242.0,0.138041,0.084807,1.070742,0.002291,  47.824
   242.2,0.136837,0.084061,1.062525,0.002268,  47.825
   242.4,0.135636,0.083334,1.055107,0.002291,  47.824
   242.6,0.134443,0.082625,1.048381,0.002291,  47.824
   242.8,0.133279,0.081926,1.042302,0.002255,  47.825
   243.0,0.132123,0.081209,1.033600,0.002291,  47.824
   243.2,0.130943,0.080494,1.024243,0.002291,  47.826
   243.4,0.129771,0.079779,1.014421,0.002255,  47.820
   243.6,0.128599,0.079062,1.005182,0.002268,  47.815
   243.8,0.127439,0.078352,0.996001,0.002268,  47.820
   244.0,0.126279,0.077646,0.986874,0.002233,  47.821
   244.2,0.125138,0.077053,0.977924,0.002246,  47.812
   244.4,0.124018,0.076516,0.969028,0.002281,  47.817
   244.6,0.122892,0.076041,0.960246,0.002246,  47.821
   244.8,0.121791,0.075619,0.951391,0.002259,  47.815
   245.0,0.120700,0.074997,0.942476,0.002294,  47.813
   245.2,0.119609,0.074328,0.933500,0.002259,  47.814
   245.4,0.118540,0.073619,0.924975,0.002259,  47.813
   245.6,0.117474,0.072968,0.916608,0.002281,  47.810
   245.8,0.116412,0.072330,0.908444,0.002246,  47.809
   246.0,0.115374,0.071699,0.900115,0.002259,  47.811
   246.2,0.114340,0.071058,0.891795,0.002294,  47.810
   246.4,0.113308,0.070417,0.883468,0.002259,  47.810
   246.6,0.112298,0.069780,0.874941,0.002259,  47.808
   246.8,0.111295,0.069162,0.866261,0.002281,  47.811
   247.0,0.110297,0.068558,0.857539,0.002246,  47.811
   247.2,0.109307,0.067968,0.849474,0.002246,  47.811
   247.4,0.108324,0.067364,0.841671,0.002268,  47.811
   247.6,0.107346,0.066763,0.834117,0.002233,  47.811
   247.8,0.106370,0.066165,0.826497,0.002259,  47.812
   248.0,0.105542,0.065567,0.818949,0.002294,  47.810
   248.2,0.104782,0.064973,0.811422,0.002259,  47.808
   248.4,0.104102,0.064377,0.804132,0.002272,  47.811
   248.6,0.103502,0.063797,0.796883,0.002294,  47.807
   248.8,0.102627,0.063234,0.789714,0.002272,  47.810
   249.0,0.101694,0.062674,0.782335,0.002285,  47.811
   249.2,0.100695,0.062108,0.774812,0.002320,  47.812
   249.4,0.099773,0.061553,0.767269,0.002298,  47.814
   249.6,0.098863,0.060993,0.760091,0.002298,  47.813
   249.8,0.097958,0.060440,0.753019,0.002320,  47.810
   250.0,0.097061,0.059901,0.746053,0.002298,  47.814
   250.2,0.096177,0.059365,0.739130,0.002298,  47.812
   250.4,0.095303,0.058829,0.732277,0.002298,  47.812
   250.6,0.094435,0.058301,0.725422,0.002298,  47.811
   250.8,0.093571,0.057777,0.718653,0.002311,  47.810
   251.0,0.092716,0.057263,0.711895,0.002285,  47.810
   251.2,0.091878,0.056761,0.705186,0.002285,  47.812
   251.4,0.091049,0.056268,0.699529,0.002285,  47.812
   251.6,0.090227,0.055760,0.694353,0.002298,  47.813
   251.8,0.089403,0.055246,0.689715,0.002298,  47.817
   252.0,0.088572,0.054735,0.685496,0.002311,  47.812
   252.2,0.087736,0.054227,0.679345,0.002298,  47.815
   252.4,0.086927,0.053726,0.672721,0.002298,  47.812
   252.6,0.086116,0.053228,0.665646,0.002311,  47.813
   252.8,0.085313,0.052741,0.659317,0.002298,  47.813
   253.0,0.084512,0.052263,0.653020,0.002298,  47.816
   253.2,0.083731,0.051795,0.646871,0.002311,  47.814
   253.4,0.082958,0.051392,0.640710,0.002311,  47.824
   253.6,0.082179,0.051023,0.634543,0.002311,  47.818
   253.8,0.081421,0.050687,0.628397,0.002324,  47.819
   254.0,0.080664,0.050396,0.622417,0.002311,  47.820
   254.2,0.079915,0.049975,0.616465,0.002298,  47.820
   254.4,0.079189,0.049526,0.610582,0.002311,  47.817
   254.6,0.078461,0.049045,0.604762,0.002311,  47.818
   254.8,0.077734,0.048599,0.598957,0.002311,  47.818
   255.0,0.077021,0.048152,0.593202,0.002324,  47.818
   255.2,0.076309,0.047716,0.587320,0.002324,  47.818
   255.4,0.075604,0.047286,0.581399,0.002311,  47.817
   255.6,0.074913,0.046863,0.575471,0.002324,  47.819
   255.8,0.074226,0.046448,0.569888,0.002324,  47.819
   256.0,0.073537,0.046019,0.564458,0.002324,  47.821
   256.2,0.072861,0.045593,0.559170,0.002324,  47.820
   256.4,0.072190,0.045174,0.553784,0.002324,  47.825
   256.6,0.071618,0.044753,0.548384,0.002324,  47.822
   256.8,0.071095,0.044337,0.542955,0.002324,  47.824
   257.0,0.070618,0.043933,0.537764,0.002324,  47.821
   257.2,0.070197,0.043526,0.532657,0.002324,  47.827
   257.4,0.069584,0.043124,0.527614,0.002324,  47.824
   257.6,0.068930,0.042724,0.522505,0.002324,  47.823
   257.8,0.068219,0.042327,0.517392,0.002311,  47.827
   258.0,0.067576,0.041939,0.512296,0.002288,  47.825
   258.2,0.066946,0.041556,0.507013,0.002288,  47.824
   258.4,0.066329,0.041177,0.501658,0.002275,  47.826
   258.6,0.065713,0.040798,0.496249,0.002266,  47.826
   258.8,0.065097,0.040434,0.491359,0.002230,  47.827
   259.0,0.064495,0.040068,0.486701,0.002266,  47.827
   259.2,0.063899,0.039698,0.482268,0.002279,  47.827
   259.4,0.063308,0.039340,0.477620,0.002256,  47.829
   259.6,0.062726,0.038987,0.472981,0.002279,  47.824
   259.8,0.062148,0.038637,0.468329,0.002279,  47.829
   260.0,0.061573,0.038298,0.463853,0.002292,  47.827
   260.2,0.061000,0.037945,0.459425,0.002292,  47.831
   260.4,0.060430,0.037596,0.455046,0.002292,  47.831
   260.6,0.059860,0.037246,0.451073,0.002292,  47.829
   260.8,0.059301,0.036896,0.447381,0.002292,  47.832
   261.0,0.058749,0.036552,0.443835,0.002292,  47.831
   261.2,0.058196,0.036212,0.440545,0.002292,  47.836
   261.4,0.057654,0.035884,0.436627,0.002269,  47.830
   261.6,0.057119,0.035548,0.432584,0.002305,  47.830
   261.8,0.056583,0.035224,0.428436,0.002305,  47.830
   262.0,0.056042,0.034906,0.424238,0.002282,  47.834
   262.2,0.055517,0.034584,0.419898,0.002305,  47.834
   262.4,0.054996,0.034273,0.415482,0.002318,  47.837
   262.6,0.054484,0.034008,0.411463,0.002282,  47.837
   262.8,0.053972,0.033769,0.407572,0.002318,  47.834
   263.0,0.053467,0.033545,0.403788,0.002331,  47.839
   263.2,0.052972,0.033353,0.399924,0.002282,  47.836
   263.4,0.052474,0.033074,0.396075,0.002318,  47.839
   263.6,0.051985,0.032770,0.392225,0.002331,  47.838
   263.8,0.051506,0.032452,0.388432,0.002282,  47.838
   264.0,0.051021,0.032156,0.384676,0.002318,  47.840
   264.2,0.050552,0.031859,0.380924,0.002331,  47.841
   264.4,0.050086,0.031577,0.377165,0.002282,  47.841
   264.6,0.049620,0.031291,0.373421,0.002318,  47.837
   264.8,0.049162,0.030999,0.369670,0.002331,  47.841
   265.0,0.048709,0.030714,0.365996,0.002282,  47.843
   265.2,0.048251,0.030430,0.362351,0.002318,  47.846
   265.4,0.047795,0.030153,0.358732,0.002331,  47.846
   265.6,0.047350,0.029876,0.355174,0.002282,  47.848
   265.8,0.046968,0.029596,0.351640,0.002282,  47.848
   266.0,0.046612,0.029326,0.348124,0.002295,  47.849
   266.2,0.046301,0.029058,0.344600,0.002295,  47.846
   266.4,0.046015,0.028791,0.341068,0.002295,  47.850
   266.6,0.045611,0.028523,0.337525,0.002308,  47.850
   266.8,0.045176,0.028260,0.334096,0.002273,  47.846
   267.0,0.044713,0.028002,0.330695,0.002260,  47.849
   267.2,0.044287,0.027743,0.327346,0.002273,  47.852
   267.4,0.043874,0.027487,0.324061,0.002237,  47.850
   267.6,0.043473,0.027234,0.320809,0.002273,  47.849
   267.8,0.043059,0.026981,0.317606,0.002286,  47.853
   268.0,0.042661,0.026743,0.314541,0.002237,  47.850
   268.2,0.042270,0.026503,0.311554,0.002273,  47.855
   268.4,0.041869,0.026265,0.308644,0.002273,  47.852
   268.6,0.041484,0.026031,0.305440,0.002237,  47.853
   268.8,0.041102,0.025793,0.302152,0.002286,  47.860
   269.0,0.040721,0.025559,0.298748,0.002273,  47.858
   269.2,0.040343,0.025320,0.296092,0.002286,  47.854
   269.4,0.039969,0.025087,0.293736,0.002286,  47.855
   269.6,0.039596,0.024863,0.291691,0.002286,  47.858
   269.8,0.039224,0.024633,0.289916,0.002299,  47.858
   270.0,0.038857,0.024406,0.287290,0.002263,  47.859
   270.2,0.038490,0.024189,0.284469,0.002286,  47.861
   270.4,0.038118,0.023972,0.281505,0.002299,  47.861
   270.6,0.037768,0.023753,0.278697,0.002299,  47.861
   270.8,0.037417,0.023536,0.275907,0.002321,  47.861
   271.0,0.037063,0.023324,0.273105,0.002334,  47.860
   271.2,0.036725,0.023116,0.270369,0.002334,  47.864
   271.4,0.036386,0.022910,0.267682,0.002334,  47.864
   271.6,0.036053,0.022708,0.265027,0.002347,  47.861
   271.8,0.035733,0.022533,0.262426,0.002347,  47.864
   272.0,0.035403,0.022375,0.259843,0.002347,  47.866
   272.2,0.035074,0.022237,0.257305,0.002361,  47.885
   272.4,0.034751,0.022114,0.254655,0.002338,  47.883
   272.6,0.034433,0.021933,0.251950,0.002325,  47.886
   272.8,0.034121,0.021739,0.249201,0.002325,  47.888
   273.0,0.033819,0.021531,0.246686,0.002302,  47.890
   273.2,0.033514,0.021336,0.244268,0.002325,  47.890
   273.4,0.033205,0.021144,0.241928,0.002325,  47.892
   273.6,0.032901,0.020958,0.239553,0.002302,  47.892
   273.8,0.032599,0.020769,0.237179,0.002338,  47.891
   274.0,0.032302,0.020579,0.234836,0.002302,  47.891
   274.2,0.032001,0.020401,0.232467,0.002315,  47.895
   274.4,0.031708,0.020218,0.230074,0.002315,  47.890
   274.6,0.031413,0.020034,0.227671,0.002280,  47.892
   274.8,0.031114,0.019858,0.225347,0.002328,  47.895
   275.0,0.030870,0.019677,0.223036,0.002315,  47.896
   275.2,0.030644,0.019505,0.220756,0.002280,  47.893
   275.4,0.030438,0.019337,0.218497,0.002315,  47.897
   275.6,0.030251,0.019165,0.216245,0.002302,  47.899
   275.8,0.029995,0.018995,0.214021,0.002267,  47.894
   276.0,0.029718,0.018823,0.211855,0.002302,  47.900
   276.2,0.029426,0.018657,0.209741,0.002302,  47.898
   276.4,0.029157,0.018491,0.207676,0.002267,  47.894
   276.6,0.028890,0.018333,0.205627,0.002315,  47.898
   276.8,0.028624,0.018171,0.203627,0.002315,  47.902
   277.0,0.028364,0.018010,0.201669,0.002315,  47.899
   277.2,0.028107,0.017852,0.199546,0.002293,  47.898
   277.4,0.027858,0.017695,0.197350,0.002293,  47.900
   277.6,0.027598,0.017539,0.195081,0.002328,  47.901
   277.8,0.027346,0.017386,0.193062,0.002328,  47.900
   278.0,0.027101,0.017232,0.191113,0.002315,  47.901
   278.2,0.026852,0.017078,0.189255,0.002351,  47.902
   278.4,0.026613,0.016928,0.187627,0.002351,  47.899
   278.6,0.026379,0.016776,0.186141,0.002328,  47.898
   278.8,0.026136,0.016631,0.184832,0.002351,  47.901
   279.0,0.025902,0.016489,0.183645,0.002364,  47.903
   279.2,0.025672,0.016345,0.181893,0.002328,  47.901
   279.4,0.025434,0.016202,0.179994,0.002364,  47.902
   279.6,0.025203,0.016067,0.177964,0.002377,  47.898
   279.8,0.024984,0.015928,0.176177,0.002342,  47.901
   280.0,0.024756,0.015789,0.174433,0.002377,  47.899
   280.2,0.024536,0.015657,0.172728,0.002355,  47.902
   280.4,0.024323,0.015537,0.171019,0.002355,  47.902
   280.6,0.024102,0.015440,0.169316,0.002342,  47.898
   280.8,0.023898,0.015338,0.167642,0.002319,  47.899
   281.0,0.023687,0.015262,0.165989,0.002355,  47.901
   281.2,0.023473,0.015145,0.164337,0.002342,  47.899
   281.4,0.023274,0.015023,0.162702,0.002319,  47.898
   281.6,0.023069,0.014888,0.161012,0.002355,  47.895
   281.8,0.022864,0.014761,0.159289,0.002342,  47.896
   282.0,0.022661,0.014641,0.157533,0.002319,  47.897
   282.2,0.022465,0.014516,0.155924,0.002355,  47.898
   282.4,0.022269,0.014392,0.154365,0.002355,  47.894
   282.6,0.022074,0.014271,0.152862,0.002332,  47.895
   282.8,0.021887,0.014151,0.151354,0.002355,  47.896
   283.0,0.021696,0.014033,0.149865,0.002355,  47.893
   283.2,0.021502,0.013909,0.148385,0.002332,  47.895
   283.4,0.021311,0.013789,0.146911,0.002332,  47.895
   283.6,0.021119,0.013674,0.145468,0.002332,  47.890
   283.8,0.020932,0.013561,0.144009,0.002309,  47.892
   284.0,0.020750,0.013451,0.142541,0.002309,  47.893
   284.2,0.020595,0.013341,0.141084,0.002332,  47.890
   284.4,0.020447,0.013233,0.139609,0.002322,  47.893
   284.6,0.020331,0.013128,0.138180,0.002322,  47.894
   284.8,0.020220,0.013019,0.136776,0.002358,  47.895
   285.0,0.020060,0.012919,0.135391,0.002335,  47.891
   285.2,0.019895,0.012810,0.134021,0.002335,  47.890
   285.4,0.019707,0.012703,0.132654,0.002358,  47.890
   285.6,0.019548,0.012604,0.131307,0.002322,  47.892
   285.8,0.019380,0.012506,0.129976,0.002322,  47.893
   286.0,0.019205,0.012401,0.128669,0.002358,  47.894
   286.2,0.019040,0.012299,0.127350,0.002322,  47.895
   286.4,0.018878,0.012200,0.126091,0.002322,  47.893
   286.6,0.018710,0.012098,0.124872,0.002358,  47.889
   286.8,0.018550,0.011997,0.123676,0.002358,  47.887
   287.0,0.018390,0.011897,0.122438,0.002358,  47.890
   287.2,0.018231,0.011798,0.121200,0.002358,  47.890
   287.4,0.018076,0.011709,0.119948,0.002358,  47.890
   287.6,0.017922,0.011616,0.118862,0.002371,  47.888
   287.8,0.017772,0.011524,0.117850,0.002384,  47.885
   288.0,0.017614,0.011432,0.116910,0.002384,  47.882
   288.2,0.017472,0.011340,0.116062,0.002349,  47.888
   288.4,0.017336,0.011252,0.114962,0.002349,  47.886
   288.6,0.017184,0.011157,0.113791,0.002384,  47.885
   288.8,0.017041,0.011070,0.112571,0.002349,  47.888
   289.0,0.016907,0.010996,0.111263,0.002349,  47.882
   289.2,0.016760,0.010926,0.109877,0.002384,  47.886
   289.4,0.016623,0.010863,0.108410,0.002349,  47.880
   289.6,0.016495,0.010812,0.107310,0.002362,  47.879
   289.8,0.016354,0.010733,0.106372,0.002397,  47.878
   290.0,0.016219,0.010653,0.105559,0.002375,  47.879
   290.2,0.016091,0.010569,0.104601,0.002375,  47.880
   290.4,0.015952,0.010486,0.103638,0.002410,  47.885
   290.6,0.015818,0.010402,0.102676,0.002388,  47.880
   290.8,0.015690,0.010325,0.101717,0.002375,  47.880
   291.0,0.015557,0.010244,0.100751,0.002410,  47.878
   291.2,0.015431,0.010165,0.099789,0.002388,  47.880
   291.4,0.015313,0.010094,0.098827,0.002388,  47.874
   291.6,0.015184,0.010016,0.097881,0.002401,  47.875
   291.8,0.015063,0.009937,0.096928,0.002378,  47.871
   292.0,0.014945,0.009864,0.095978,0.002401,  47.873
   292.2,0.014841,0.009787,0.095040,0.002401,  47.869
   292.4,0.014747,0.009716,0.094104,0.002378,  47.871
   292.6,0.014667,0.009644,0.093155,0.002414,  47.869
   292.8,0.014589,0.009571,0.092182,0.002414,  47.869
   293.0,0.014482,0.009507,0.091193,0.002391,  47.872
   293.2,0.014370,0.009438,0.090312,0.002427,  47.866
   293.4,0.014249,0.009365,0.089479,0.002414,  47.866
   293.6,0.014139,0.009301,0.088672,0.002391,  47.866
   293.8,0.014026,0.009233,0.087799,0.002427,  47.866
   294.0,0.013918,0.009166,0.086909,0.002414,  47.865
   294.2,0.013810,0.009102,0.086000,0.002391,  47.865
   294.4,0.013697,0.009038,0.085164,0.002427,  47.862
   294.6,0.013594,0.008974,0.084352,0.002427,  47.856
   294.8,0.013489,0.008907,0.083560,0.002427,  47.838
   295.0,0.013385,0.008841,0.082754,0.002440,  47.838
   295.2,0.013284,0.008778,0.081938,0.002391,  47.838
   295.4,0.013183,0.008716,0.081114,0.002427,  47.843
   295.6,0.013084,0.008655,0.080298,0.002427,  47.839
   295.8,0.012991,0.008596,0.079486,0.002427,  47.836
   296.0,0.012895,0.008537,0.078667,0.002427,  47.841
   296.2,0.012787,0.008480,0.077991,0.002391,  47.845
   296.4,0.012694,0.008423,0.077380,0.002427,  47.830
   296.6,0.012601,0.008366,0.076840,0.002427,  47.837
   296.8,0.012501,0.008308,0.076360,0.002404,  47.832
   297.0,0.012417,0.008249,0.075688,0.002417,  47.837
   297.2,0.012326,0.008196,0.074960,0.002417,  47.834
   297.4,0.012226,0.008141,0.074183,0.002395,  47.838
   297.6,0.012142,0.008086,0.073447,0.002408,  47.838
   297.8,0.012057,0.008031,0.072701,0.002430,  47.836
   298.0,0.011962,0.007983,0.071950,0.002395,  47.839
   298.2,0.011881,0.007938,0.071240,0.002395,  47.840
   298.4,0.011795,0.007894,0.070530,0.002430,  47.841
   298.6,0.011704,0.007862,0.069836,0.002395,  47.839
   298.8,0.011622,0.007826,0.069187,0.002395,  47.839
   299.0,0.011540,0.007777,0.068575,0.002430,  47.844
   299.2,0.011457,0.007723,0.067981,0.002408,  47.844
   299.4,0.011378,0.007670,0.067227,0.002408,  47.837
   299.6,0.011305,0.007615,0.066409,0.002456,  47.839
   299.8,0.011225,0.007566,0.065538,0.002434,  47.839
   300.0,0.011140,0.007515,0.064865,0.002421,  47.841
   300.2,0.011066,0.007466,0.064265,0.002456,  47.839
   300.4,0.010989,0.007415,0.063728,0.002434,  47.846
   300.6,0.010909,0.007374,0.063107,0.002434,  47.844
   300.8,0.010826,0.007323,0.062485,0.002434,  47.843
   301.0,0.010757,0.007281,0.061849,0.002447,  47.846
   301.2,0.010692,0.007235,0.061288,0.002447,  47.846
   301.4,0.010628,0.007190,0.060757,0.002434,  47.843
   301.6,0.010570,0.007144,0.060262,0.002447,  47.843
   301.8,0.010516,0.007099,0.059690,0.002447,  47.845
   302.0,0.010469,0.007061,0.059093,0.002434,  47.842
   302.2,0.010396,0.007021,0.058482,0.002434,  47.845
   302.4,0.010333,0.006981,0.057912,0.002434,  47.844
   302.6,0.010261,0.006933,0.057334,0.002408,  47.845
   302.8,0.010186,0.006894,0.056768,0.002421,  47.846
   303.0,0.010123,0.006852,0.056227,0.002434,  47.847
   303.2,0.010054,0.006802,0.055689,0.002434,  47.844
   303.4,0.009982,0.006765,0.055155,0.002447,  47.851
   303.6,0.009919,0.006727,0.054629,0.002447,  47.848
   303.8,0.009854,0.006688,0.054111,0.002447,  47.847
   304.0,0.009784,0.006650,0.053600,0.002447,  47.847
   304.2,0.009720,0.006611,0.053129,0.002424,  47.850
   304.4,0.009656,0.006575,0.052671,0.002460,  47.848
   304.6,0.009589,0.006535,0.052256,0.002460,  47.855
   304.8,0.009535,0.006499,0.051864,0.002437,  47.852
   305.0,0.009474,0.006459,0.051511,0.002437,  47.851
   305.2,0.009406,0.006424,0.051166,0.002473,  47.849
   305.4,0.009354,0.006392,0.050864,0.002473,  47.849
   305.6,0.009300,0.006355,0.050457,0.002473,  47.850
   305.8,0.009238,0.006313,0.050018,0.002473,  47.853
   306.0,0.009182,0.006284,0.049548,0.002473,  47.850
   306.2,0.009127,0.006249,0.049055,0.002473,  47.848
   306.4,0.009066,0.006217,0.048556,0.002473,  47.853
   306.6,0.009019,0.006185,0.048030,0.002450,  47.852
   306.8,0.008967,0.006156,0.047537,0.002450,  47.856
   307.0,0.008905,0.006133,0.047060,0.002450,  47.856
   307.2,0.008858,0.006105,0.046604,0.002428,  47.858
   307.4,0.008800,0.006085,0.046193,0.002428,  47.858
   307.6,0.008747,0.006049,0.045808,0.002450,  47.853
   307.8,0.008694,0.006018,0.045443,0.002450,  47.858
   308.0,0.008647,0.005983,0.044889,0.002463,  47.856
   308.2,0.008595,0.005948,0.044231,0.002476,  47.862
   308.4,0.008542,0.005920,0.043498,0.002476,  47.863
   308.6,0.008498,0.005888,0.043080,0.002476,  47.865
   308.8,0.008447,0.005861,0.042774,0.002463,  47.883
   309.0,0.008397,0.005832,0.042595,0.002463,  47.880
   309.2,0.008350,0.005805,0.042270,0.002476,  47.884
   309.4,0.008305,0.005780,0.041935,0.002476,  47.886
   309.6,0.008254,0.005754,0.041588,0.002476,  47.886
   309.8,0.008204,0.005722,0.041258,0.002489,  47.883
   310.0,0.008165,0.005688,0.040916,0.002489,  47.886
   310.2,0.008128,0.005662,0.040564,0.002489,  47.887
   310.4,0.008096,0.005632,0.040251,0.002454,  47.890
   310.6,0.008067,0.005604,0.039941,0.002441,  47.887
   310.8,0.008027,0.005572,0.039640,0.002441,  47.886
   311.0,0.007989,0.005547,0.039322,0.002405,  47.887
   311.2,0.007941,0.005522,0.038995,0.002441,  47.888
   311.4,0.007899,0.005490,0.038673,0.002454,  47.890
   311.6,0.007848,0.005467,0.038330,0.002418,  47.889
   311.8,0.007806,0.005440,0.037986,0.002467,  47.890
   312.0,0.007764,0.005413,0.037637,0.002480,  47.890
   312.2,0.007722,0.005392,0.037302,0.002444,  47.889
   312.4,0.007686,0.005367,0.036984,0.002480,  47.890
   312.6,0.007652,0.005344,0.036679,0.002480,  47.888
   312.8,0.007610,0.005320,0.036341,0.002480,  47.890
   313.0,0.007574,0.005297,0.035993,0.002444,  47.894
   313.2,0.007535,0.005274,0.035639,0.002480,  47.889
   313.4,0.007495,0.005250,0.035356,0.002444,  47.889
   313.6,0.007455,0.005228,0.035118,0.002444,  47.887
   313.8,0.007410,0.005201,0.034901,0.002493,  47.888
   314.0,0.007373,0.005179,0.034732,0.002506,  47.886
   314.2,0.007342,0.005161,0.034449,0.002457,  47.891
   314.4,0.007299,0.005137,0.034136,0.002493,  47.891
   314.6,0.007262,0.005117,0.033796,0.002506,  47.887
   314.8,0.007234,0.005096,0.033508,0.002457,  47.887
   315.0,0.007193,0.005079,0.033236,0.002493,  47.888
   315.2,0.007157,0.005055,0.032973,0.002506,  47.887
   315.4,0.007129,0.005037,0.032669,0.002470,  47.884
   315.6,0.007088,0.005022,0.032358,0.002506,  47.886
   315.8,0.007054,0.005010,0.032030,0.002519,  47.886
   316.0,0.007026,0.004998,0.031669,0.002483,  47.885
   316.2,0.006985,0.004980,0.031282,0.002519,  47.887
   316.4,0.006955,0.004958,0.030869,0.002532,  47.889
   316.6,0.006927,0.004933,0.030606,0.002496,  47.890
   316.8,0.006891,0.004917,0.030404,0.002532,  47.889
   317.0,0.006863,0.004896,0.030270,0.002545,  47.893
   317.2,0.006832,0.004874,0.030052,0.002522,  47.891
   317.4,0.006796,0.004855,0.029827,0.002545,  47.892
   317.6,0.006771,0.004836,0.029581,0.002545,  47.890
   317.8,0.006739,0.004822,0.029082,0.002522,  47.893
   318.0,0.006704,0.004800,0.028454,0.002545,  47.894
   318.2,0.006682,0.004781,0.027697,0.002545,  47.892
   318.4,0.006659,0.004770,0.027457,0.002522,  47.895
   318.6,0.006633,0.004750,0.027404,0.002558,  47.897
   318.8,0.006609,0.004728,0.027540,0.002558,  47.898
   319.0,0.006585,0.004714,0.027449,0.002535,  47.900
   319.2,0.006564,0.004696,0.027328,0.002571,  47.897
   319.4,0.006538,0.004673,0.027194,0.002571,  47.901
   319.6,0.006511,0.004658,0.027027,0.002549,  47.898
   319.8,0.006486,0.004642,0.026826,0.002535,  47.903
   320.0,0.006456,0.004627,0.026607,0.002535,  47.902
   320.2,0.006436,0.004614,0.026450,0.002549,  47.904
   320.4,0.006407,0.004593,0.026308,0.002535,  47.904
   320.6,0.006375,0.004580,0.026178,0.002549,  47.905
   320.8,0.006354,0.004566,0.025987,0.002549,  47.905
   321.0,0.006326,0.004549,0.025772,0.002549,  47.909
   321.2,0.006296,0.004536,0.025543,0.002549,  47.908
   321.4,0.006276,0.004526,0.025365,0.002562,  47.915
   321.6,0.006252,0.004513,0.025190,0.002549,  47.913
   321.8,0.006228,0.004494,0.025037,0.002549,  47.917
   322.0,0.006205,0.004478,0.024891,0.002562,  47.917
   322.2,0.006184,0.004465,0.024766,0.002549,  47.918
   322.4,0.006161,0.004445,0.024638,0.002549,  47.920
   322.6,0.006131,0.004436,0.024533,0.002562,  47.919
   322.8,0.006111,0.004422,0.024380,0.002562,  47.924
   323.0,0.006090,0.004404,0.024220,0.002562,  47.919
   323.2,0.006062,0.004393,0.024052,0.002575,  47.919
   323.4,0.006048,0.004382,0.023858,0.002562,  47.922
   323.6,0.006027,0.004366,0.023640,0.002584,  47.919
   323.8,0.006003,0.004360,0.023410,0.002597,  47.925
   324.0,0.005983,0.004346,0.023180,0.002562,  47.924
   324.2,0.005962,0.004337,0.022942,0.002597,  47.929
   324.4,0.005941,0.004326,0.022684,0.002610,  47.926
   324.6,0.005920,0.004319,0.022498,0.002588,  47.925
   324.8,0.005901,0.004307,0.022338,0.002588,  47.925
   325.0,0.005880,0.004298,0.022211,0.002601,  47.930
   325.2,0.005868,0.004289,0.022021,0.002601,  47.930
   325.4,0.005850,0.004279,0.021807,0.002588,  47.932
   325.6,0.005823,0.004263,0.021569,0.002601,  47.937
   325.8,0.005808,0.004254,0.021434,0.002601,  47.934
   326.0,0.005787,0.004242,0.021353,0.002601,  47.934
   326.2,0.005768,0.004229,0.021300,0.002601,  47.935
   326.4,0.005754,0.004222,0.021131,0.002601,  47.935
   326.6,0.005735,0.004211,0.020938,0.002601,  47.937
   326.8,0.005717,0.004200,0.020711,0.002614,  47.937
   327.0,0.005693,0.004190,0.020245,0.002614,  47.938
   327.2,0.005684,0.004178,0.019646,0.002614,  47.936
   327.4,0.005663,0.004167,0.018911,0.002627,  47.937
   327.6,0.005644,0.004154,0.018749,0.002604,  47.937
   327.8,0.005628,0.004141,0.018820,0.002591,  47.939
   328.0,0.005615,0.004123,0.019089,0.002591,  47.939
   328.2,0.005602,0.004115,0.019097,0.002569,  47.939
   328.4,0.005589,0.004103,0.019079,0.002591,  47.942
   328.6,0.005576,0.004097,0.019030,0.002591,  47.941
   328.8,0.005566,0.004089,0.019001,0.002569,  47.942
   329.0,0.005548,0.004080,0.018972,0.002591,  47.944
   329.2,0.005526,0.004070,0.018949,0.002591,  47.941
   329.4,0.005510,0.004057,0.018842,0.002569,  47.944
   329.6,0.005498,0.004043,0.018685,0.002604,  47.945
   329.8,0.005474,0.004038,0.018506,0.002604,  47.946
   330.0,0.005464,0.004027,0.018366,0.002582,  47.946
   330.2,0.005454,0.004020,0.018237,0.002617,  47.945
   330.4,0.005430,0.004012,0.018097,0.002630,  47.950
   330.6,0.005420,0.004006,0.018017,0.002595,  47.949
   330.8,0.005407,0.003994,0.017967,0.002630,  47.945
   331.0,0.005385,0.003986,0.017935,0.002630,  47.949
   331.2,0.005382,0.003977,0.017800,0.002643,  47.951
   331.4,0.005372,0.003962,0.017625,0.002608,  47.945
   331.6,0.005353,0.003955,0.017399,0.002630,  47.944
   331.8,0.005344,0.003951,0.017279,0.002608,  47.945
   332.0,0.005328,0.003939,0.017200,0.002595,  47.947
   332.2,0.005308,0.003933,0.017138,0.002630,  47.946
   332.4,0.005302,0.003928,0.017114,0.002643,  47.946
   332.6,0.005283,0.003921,0.017030,0.002608,  47.947
   332.8,0.005261,0.003913,0.016951,0.002643,  47.941
   333.0,0.005257,0.003909,0.016860,0.002621,  47.947
   333.2,0.005241,0.003901,0.016545,0.002585,  47.948
   333.4,0.005222,0.003894,0.016089,0.002585,  47.948
   333.6,0.005218,0.003893,0.015532,0.002563,  47.947
   333.8,0.005207,0.003888,0.015406,0.002563,  47.951
   334.0,0.005194,0.003878,0.015428,0.002598,  47.946
   334.2,0.005183,0.003872,0.015602,0.002576,  47.948
   334.4,0.005177,0.003863,0.015599,0.002576,  47.952
   334.6,0.005166,0.003857,0.015572,0.002598,  47.950
   334.8,0.005149,0.003847,0.015534,0.002576,  47.952
   335.0,0.005140,0.003845,0.015450,0.002576,  47.948
   335.2,0.005132,0.003841,0.015338,0.002611,  47.949
   335.4,0.005113,0.003834,0.015199,0.002576,  47.946
   335.6,0.005108,0.003821,0.015104,0.002576,  47.946
   335.8,0.005100,0.003816,0.015018,0.002611,  47.943
   336.0,0.005081,0.003805,0.014937,0.002589,  47.945
   336.2,0.005074,0.003805,0.014892,0.002589,  47.944
   336.4,0.005066,0.003797,0.014863,0.002624,  47.945
   336.6,0.005056,0.003788,0.014858,0.002602,  47.944
   336.8,0.005051,0.003784,0.014788,0.002637,  47.945
   337.0,0.005040,0.003774,0.014708,0.002660,  47.942
   337.2,0.005036,0.003775,0.014597,0.002624,  47.945
   337.4,0.005023,0.003768,0.014536,0.002637,  47.943
   337.6,0.005012,0.003757,0.014505,0.002637,  47.941
   337.8,0.005002,0.003756,0.014476,0.002602,  47.944
   338.0,0.004994,0.003752,0.014352,0.002615,  47.944
   338.2,0.004981,0.003746,0.014219,0.002650,  47.944
   338.4,0.004973,0.003742,0.014025,0.002615,  47.938
   338.6,0.004969,0.003736,0.013923,0.002615,  47.934
   338.8,0.004964,0.003730,0.013852,0.002637,  47.937
   339.0,0.004957,0.003727,0.013798,0.002602,  47.936
   339.2,0.004946,0.003724,0.013737,0.002615,  47.937
   339.4,0.004933,0.003715,0.013710,0.002637,  47.934
   339.6,0.004931,0.003709,0.013685,0.002637,  47.934
   339.8,0.004923,0.003707,0.013625,0.002615,  47.938
   340.0,0.004916,0.003703,0.013568,0.002650,  47.934
   340.2,0.004914,0.003701,0.013512,0.002650,  47.932
   340.4,0.004903,0.003697,0.013439,0.002650,  47.934
   340.6,0.004887,0.003689,0.013351,0.002650,  47.934
   340.8,0.004879,0.003689,0.013266,0.002650,  47.932
   341.0,0.004871,0.003682,0.013166,0.002615,  47.935
   341.2,0.004863,0.003669,0.013086,0.002615,  47.935
   341.4,0.004853,0.003672,0.013006,0.002650,  47.932
   341.6,0.004846,0.003667,0.012933,0.002628,  47.929
   341.8,0.004845,0.003661,0.012853,0.002628,  47.931
   342.0,0.004831,0.003657,0.012765,0.002676,  47.929
   342.2,0.004823,0.003657,0.012667,0.002654,  47.929
   342.4,0.004827,0.003653,0.012636,0.002641,  47.926
   342.6,0.004815,0.003654,0.012631,0.002676,  47.930
   342.8,0.004807,0.003648,0.012649,0.002654,  47.930
   343.0,0.004808,0.003649,0.012611,0.002641,  47.934
   343.2,0.004794,0.003639,0.012562,0.002676,  47.932
   343.4,0.004786,0.003633,0.012497,0.002654,  47.924
   343.6,0.004785,0.003632,0.012408,0.002654,  47.926
   343.8,0.004773,0.003628,0.012302,0.002690,  47.929
   344.0,0.004768,0.003626,0.012197,0.002667,  47.930
   344.2,0.004766,0.003626,0.012113,0.002667,  47.931
   344.4,0.004755,0.003620,0.012026,0.002703,  47.924
   344.6,0.004750,0.003614,0.011961,0.002680,  47.925
   344.8,0.004737,0.003613,0.011903,0.002667,  47.927
   345.0,0.004723,0.003611,0.011854,0.002703,  47.924
   345.2,0.004724,0.003603,0.011819,0.002680,  47.928
   345.4,0.004722,0.003605,0.011756,0.002680,  47.925
   345.6,0.004708,0.003603,0.011690,0.002680,  47.928
   345.8,0.004703,0.003593,0.011621,0.002670,  47.925
   346.0,0.004701,0.003590,0.011572,0.002706,  47.927
   346.2,0.004702,0.003588,0.011523,0.002706,  47.927
   346.4,0.004693,0.003581,0.011469,0.002684,  47.929
   346.6,0.004694,0.003579,0.011427,0.002719,  47.926
   346.8,0.004691,0.003580,0.011384,0.002706,  47.925
   347.0,0.004683,0.003579,0.011335,0.002670,  47.926
   347.2,0.004681,0.003575,0.011295,0.002719,  47.925
   347.4,0.004673,0.003576,0.011273,0.002732,  47.924
   347.6,0.004668,0.003572,0.011253,0.002697,  47.924
   347.8,0.004663,0.003566,0.010735,0.002732,  47.925
   348.0,0.004664,0.003562,0.009980,0.002732,  47.925
   348.2,0.004661,0.003556,0.008980,0.002697,  47.926
   348.4,0.004647,0.003552,0.008899,0.002732,  47.922
   348.6,0.004645,0.003548,0.009149,0.002732,  47.921
   348.8,0.004640,0.003543,0.009718,0.002732,  47.921
   349.0,0.004629,0.003541,0.009893,0.002745,  47.919
   349.2,0.004630,0.003533,0.010032,0.002732,  47.918
   349.4,0.004627,0.003536,0.010133,0.002732,  47.922
   349.6,0.004616,0.003537,0.010218,0.002745,  47.923
   349.8,0.004614,0.003529,0.010270,0.002745,  47.922
   350.0,0.004611,0.003529,0.010305,0.002745,  47.924
   350.2,0.004600,0.003529,0.010299,0.002710,  47.921
   350.4,0.004598,0.003525,0.010303,0.002758,  47.918
   350.6,0.004593,0.003524,0.010276,0.002745,  47.919
   350.8,0.004585,0.003527,0.010240,0.002723,  47.920
   351.0,0.004586,0.003520,0.010212,0.002758,  47.919
   351.2,0.004583,0.003516,0.010171,0.002758,  47.920
   351.4,0.004576,0.003513,0.010138,0.002736,  47.919
   351.6,0.004577,0.003511,0.010079,0.002771,  47.922
   351.8,0.004571,0.003505,0.009997,0.002771,  47.921
   352.0,0.004562,0.003512,0.009898,0.002749,  47.919
   352.2,0.004561,0.003513,0.009523,0.002784,  47.919
   352.4,0.004558,0.003508,0.009013,0.002771,  47.922
   352.6,0.004556,0.003508,0.008348,0.002749,  47.920
   352.8,0.004559,0.003501,0.008305,0.002784,  47.920
   353.0,0.004554,0.003498,0.008506,0.002771,  47.918
   353.2,0.004549,0.003494,0.008935,0.002749,  47.921
   353.4,0.004541,0.003497,0.009045,0.002749,  47.920
   353.6,0.004542,0.003490,0.009119,0.002749,  47.924
   353.8,0.004537,0.003491,0.009146,0.002726,  47.919
   354.0,0.004534,0.003496,0.009225,0.002713,  47.920
   354.2,0.004538,0.003492,0.009317,0.002749,  47.917
   354.4,0.004532,0.003487,0.009410,0.002726,  47.917
   354.6,0.004521,0.003489,0.009409,0.002713,  47.917
   354.8,0.004516,0.003483,0.009372,0.002749,  47.915
   355.0,0.004516,0.003485,0.009293,0.002726,  47.912
   355.2,0.004510,0.003482,0.009290,0.002726,  47.918
   355.4,0.004508,0.003476,0.009311,0.002762,  47.918
   355.6,0.004511,0.003479,0.009354,0.002739,  47.913
   355.8,0.004509,0.003485,0.009342,0.002739,  47.914
   356.0,0.004506,0.003485,0.009307,0.002775,  47.914
   356.2,0.004497,0.003476,0.009269,0.002739,  47.913
   356.4,0.004495,0.003480,0.009215,0.002739,  47.912
   356.6,0.004496,0.003478,0.009123,0.002775,  47.914
   356.8,0.004487,0.003472,0.009021,0.002739,  47.915
   357.0,0.004484,0.003475,0.009017,0.002739,  47.917
   357.2,0.004485,0.003475,0.009055,0.002775,  47.914
   357.4,0.004479,0.003462,0.009125,0.002775,  47.911
   357.6,0.004476,0.003462,0.009091,0.002765,  47.912
   357.8,0.004477,0.003462,0.009020,0.002788,  47.912
   358.0,0.004469,0.003459,0.008918,0.002801,  47.913
   358.2,0.004470,0.003459,0.008891,0.002778,  47.915
   358.4,0.004470,0.003457,0.008880,0.002778,  47.915
   358.6,0.004462,0.003455,0.008907,0.002778,  47.916
   358.8,0.004465,0.003455,0.008936,0.002778,  47.917
   359.0,0.004463,0.003450,0.008925,0.002778,  47.916
   359.2,0.004454,0.003452,0.008905,0.002778,  47.916
   359.4,0.004457,0.003458,0.008890,0.002778,  47.916
   359.6,0.004452,0.003454,0.008845,0.002778,  47.916
   359.8,0.004443,0.003454,0.008770,0.002778,  47.919
   360.0,0.004447,0.003450,0.008685,0.002778,  47.919
   360.2,0.004451,0.003446,0.008676,0.002791,  47.919
   360.4,0.004442,0.003448,0.008710,0.002791,  47.920
   360.6,0.004445,0.003448,0.008762,0.002791,  47.917
   360.8,0.004446,0.003446,0.008759,0.002805,  47.919
   361.0,0.004437,0.003448,0.008748,0.002791,  47.919
   361.2,0.004441,0.003445,0.008724,0.002791,  47.922
   361.4,0.004441,0.003448,0.008528,0.002805,  47.924
   361.6,0.004435,0.003447,0.008237,0.002791,  47.921
   361.8,0.004436,0.003445,0.007856,0.002791,  47.920
   362.0,0.004428,0.003444,0.007804,0.002805,  47.922
   362.2,0.004419,0.003442,0.007862,0.002791,  47.922
   362.4,0.004425,0.003439,0.008030,0.002805,  47.926
   362.6,0.004423,0.003438,0.008073,0.002805,  47.924
   362.8,0.004420,0.003438,0.008100,0.002805,  47.926
   363.0,0.004417,0.003434,0.008118,0.002818,  47.928
   363.2,0.004421,0.003438,0.007813,0.002818,  47.925
   363.4,0.004421,0.003438,0.007322,0.002818,  47.926
   363.6,0.004415,0.003435,0.006672,0.002831,  47.922
   363.8,0.004416,0.003433,0.006628,0.002831,  47.925
   364.0,0.004413,0.003429,0.006787,0.002818,  47.927
   364.2,0.004413,0.003432,0.007171,0.002795,  47.926
   364.4,0.004413,0.003429,0.007334,0.002808,  47.928
   364.6,0.004417,0.003430,0.007488,0.002808,  47.929
   364.8,0.004417,0.003432,0.007649,0.002786,  47.928
   365.0,0.004412,0.003439,0.007771,0.002786,  47.925
   365.2,0.004409,0.003441,0.007848,0.002808,  47.928
   365.4,0.004406,0.003441,0.007914,0.002821,  47.926
   365.6,0.004407,0.003436,0.007916,0.002821,  47.928
   365.8,0.004408,0.003436,0.007868,0.002821,  47.929
   366.0,0.004408,0.003432,0.007773,0.002834,  47.930
   366.2,0.004408,0.003432,0.007751,0.002834,  47.924
   366.4,0.004406,0.003425,0.007744,0.002834,  47.927
   366.6,0.004403,0.003427,0.007740,0.002834,  47.930
   366.8,0.004403,0.003429,0.007745,0.002834,  47.931
   367.0,0.004398,0.003431,0.007776,0.002812,  47.932
   367.2,0.004398,0.003429,0.007796,0.002834,  47.927
   367.4,0.004395,0.003430,0.007790,0.002834,  47.931
   367.6,0.004395,0.003433,0.007778,0.002847,  47.933
   367.8,0.004398,0.003436,0.007752,0.002834,  47.934
   368.0,0.004386,0.003436,0.007708,0.002834,  47.932
   368.2,0.004384,0.003434,0.007718,0.002847,  47.934
   368.4,0.004384,0.003431,0.007731,0.002847,  47.928
   368.6,0.004384,0.003433,0.007752,0.002847,  47.933
   368.8,0.004387,0.003431,0.007739,0.002860,  47.935
   369.0,0.004387,0.003431,0.007711,0.002860,  47.932
   369.2,0.004390,0.003427,0.007670,0.002860,  47.936
   369.4,0.004387,0.003427,0.007655,0.002860,  47.934
   369.6,0.004385,0.003427,0.007635,0.002860,  47.933
   369.8,0.004382,0.003421,0.007619,0.002860,  47.935
   370.0,0.004377,0.003423,0.007581,0.002860,  47.934
   370.2,0.004374,0.003425,0.007535,0.002847,  47.936
   370.4,0.004374,0.003423,0.007479,0.002847,  47.934
   370.6,0.004374,0.003427,0.007443,0.002860,  47.935
   370.8,0.004383,0.003423,0.007420,0.002847,  47.936
   371.0,0.004378,0.003423,0.007393,0.002847,  47.939
   371.2,0.004379,0.003423,0.007380,0.002860,  47.935
   371.4,0.004379,0.003416,0.007380,0.002847,  47.937
   371.6,0.004376,0.003419,0.007373,0.002847,  47.936
   371.8,0.004374,0.003422,0.007251,0.002838,  47.938
   372.0,0.004367,0.003417,0.007086,0.002838,  47.936
   372.2,0.004367,0.003422,0.006852,0.002838,  47.937
   372.4,0.004374,0.003424,0.006870,0.002815,  47.933
   372.6,0.004365,0.003422,0.006970,0.002838,  47.938
   372.8,0.004368,0.003424,0.007169,0.002838,  47.938
   373.0,0.004369,0.003423,0.007211,0.002815,  47.939
   373.2,0.004367,0.003423,0.007236,0.002838,  47.941
   373.4,0.004369,0.003425,0.007222,0.002851,  47.935
   373.6,0.004369,0.003422,0.007240,0.002815,  47.937
   373.8,0.004376,0.003422,0.007258,0.002851,  47.938
   374.0,0.004378,0.003420,0.007268,0.002864,  47.935
   374.2,0.004376,0.003414,0.007286,0.002828,  47.940
   374.4,0.004373,0.003412,0.007304,0.002864,  47.940
   374.6,0.004369,0.003415,0.007322,0.002877,  47.938
   374.8,0.004370,0.003417,0.007143,0.002841,  47.941
   375.0,0.004374,0.003415,0.006869,0.002864,  47.941
   375.2,0.004368,0.003419,0.006499,0.002877,  47.942
   375.4,0.004371,0.003423,0.006500,0.002854,  47.941
   375.6,0.004369,0.003418,0.006620,0.002890,  47.941
   375.8,0.004363,0.003419,0.006869,0.002890,  47.943
   376.0,0.004369,0.003424,0.006912,0.002867,  47.940
   376.2,0.004369,0.003421,0.006919,0.002890,  47.944
   376.4,0.004363,0.003423,0.006887,0.002890,  47.946
   376.6,0.004369,0.003430,0.006910,0.002890,  47.947
   376.8,0.004369,0.003428,0.006928,0.002890,  47.943
   377.0,0.004363,0.003426,0.006953,0.002890,  47.940
   377.2,0.004366,0.003430,0.006979,0.002903,  47.944
   377.4,0.004364,0.003434,0.006815,0.002867,  47.943
   377.6,0.004355,0.003435,0.006579,0.002903,  47.942
   377.8,0.004361,0.003442,0.006264,0.002903,  47.944
   378.0,0.004361,0.003441,0.006252,0.002867,  47.946
   378.2,0.004352,0.003445,0.006362,0.002903,  47.944
   378.4,0.004358,0.003440,0.006598,0.002903,  47.945
   378.6,0.004358,0.003442,0.006530,0.002867,  47.945
   378.8,0.004361,0.003440,0.006373,0.002903,  47.944
   379.0,0.004361,0.003438,0.006121,0.002916,  47.950
   379.2,0.004365,0.003436,0.006164,0.002893,  47.950
   379.4,0.004367,0.003435,0.006301,0.002893,  47.945
   379.6,0.004358,0.003433,0.006539,0.002907,  47.948
   379.8,0.004362,0.003434,0.006344,0.002907,  47.948
   380.0,0.004365,0.003433,0.005976,0.002916,  47.949
   380.2,0.004356,0.003433,0.005443,0.002916,  47.950
   380.4,0.004362,0.003433,0.005390,0.002893,  47.947
   380.6,0.004362,0.003429,0.005488,0.002929,  47.949
   380.8,0.004359,0.003427,0.005748,0.002929,  47.947
   381.0,0.004360,0.003428,0.005865,0.002907,  47.948
   381.2,0.004360,0.003428,0.005978,0.002929,  47.950
   381.4,0.004363,0.003424,0.006095,0.002929,  47.947
   381.6,0.004367,0.003433,0.005931,0.002920,  47.951
   381.8,0.004367,0.003431,0.005605,0.002955,  47.947
   382.0,0.004363,0.003431,0.005136,0.002955,  47.945
   382.2,0.004367,0.003436,0.005184,0.002933,  47.951
   382.4,0.004367,0.003437,0.005414,0.002955,  47.946
   382.6,0.004369,0.003435,0.005822,0.002968,  47.947
   382.8,0.004369,0.003438,0.005981,0.002933,  47.943
   383.0,0.004372,0.003440,0.006107,0.002968,  47.948
   383.2,0.004366,0.003442,0.006190,0.002981,  47.945
   383.4,0.004369,0.003442,0.006280,0.002946,  47.949
   383.6,0.004373,0.003441,0.006366,0.002981,  47.948
   383.8,0.004373,0.003445,0.006418,0.002994,  47.949
   384.0,0.004373,0.003444,0.006459,0.002959,  47.949
   384.2,0.004370,0.003442,0.006482,0.002981,  47.947
   384.4,0.004370,0.003444,0.006489,0.002994,  47.947
   384.6,0.004370,0.003442,0.006498,0.002959,  47.950
   384.8,0.004368,0.003440,0.006491,0.002994,  47.951
   385.0,0.004368,0.003437,0.006484,0.002994,  47.948
   385.2,0.004370,0.003443,0.006470,0.002972,  47.950
   385.4,0.004368,0.003444,0.006437,0.002972,  47.947
   385.6,0.004368,0.003445,0.006404,0.002972,  47.948
   385.8,0.004370,0.003447,0.006396,0.002949,  47.950
   386.0,0.004368,0.003445,0.006400,0.002949,  47.949
   386.2,0.004371,0.003451,0.006416,0.002936,  47.951
   386.4,0.004371,0.003449,0.006448,0.002949,  47.947
   386.6,0.004369,0.003446,0.006435,0.002914,  47.949
   386.8,0.004369,0.003446,0.006421,0.002949,  47.950
   387.0,0.004369,0.003446,0.006405,0.002949,  47.953
   387.2,0.004365,0.003446,0.006446,0.002914,  47.952
   387.4,0.004368,0.003445,0.006498,0.002949,  47.948
   387.6,0.004368,0.003449,0.006582,0.002949,  47.949
   387.8,0.004371,0.003453,0.006558,0.002914,  47.953
   388.0,0.004377,0.003447,0.006485,0.002949,  47.945
   388.2,0.004380,0.003452,0.006366,0.002962,  47.948
   388.4,0.004374,0.003453,0.006131,0.002927,  47.953
   388.6,0.004374,0.003454,0.005821,0.002962,  47.953
   388.8,0.004380,0.003453,0.005437,0.002975,  47.951
   389.0,0.004384,0.003456,0.005416,0.002953,  47.952
   389.2,0.004377,0.003457,0.005542,0.002975,  47.951
   389.4,0.004384,0.003457,0.005830,0.002975,  47.953
   389.6,0.004384,0.003457,0.005926,0.002953,  47.954
   389.8,0.004377,0.003454,0.005990,0.002975,  47.958
   390.0,0.004384,0.003452,0.006038,0.002975,  47.953
   390.2,0.004390,0.003457,0.006119,0.002953,  47.953
   390.4,0.004381,0.003459,0.006208,0.002988,  47.957
   390.6,0.004381,0.003458,0.006295,0.002988,  47.955
   390.8,0.004387,0.003459,0.006343,0.002966,  47.957
   391.0,0.004378,0.003457,0.006376,0.003002,  47.955
   391.2,0.004378,0.003460,0.006390,0.003002,  47.956
   391.4,0.004385,0.003459,0.006392,0.003002,  47.958
   391.6,0.004382,0.003459,0.006370,0.003024,  47.961
   391.8,0.004381,0.003457,0.006351,0.003024,  47.979
   392.0,0.004385,0.003460,0.006177,0.003024,  47.983
   392.2,0.004385,0.003462,0.005920,0.003024,  47.978
   392.4,0.004381,0.003464,0.005589,0.003024,  47.980
   392.6,0.004381,0.003464,0.005599,0.003024,  47.980
   392.8,0.004387,0.003466,0.005742,0.003024,  47.985
   393.0,0.004381,0.003466,0.006011,0.003024,  47.985
   393.2,0.004381,0.003462,0.006007,0.003002,  47.986
   393.4,0.004387,0.003459,0.005952,0.003002,  47.987
   393.6,0.004381,0.003459,0.005824,0.003015,  47.987
   393.8,0.004385,0.003463,0.005820,0.002979,  47.987
   394.0,0.004388,0.003463,0.005859,0.003015,  47.990
   394.2,0.004385,0.003463,0.005931,0.003015,  47.989
   394.4,0.004388,0.003471,0.005980,0.003041,  47.986
   394.6,0.004388,0.003469,0.006036,0.003028,  47.984
   394.8,0.004385,0.003476,0.006093,0.003028,  47.989
   395.0,0.004388,0.003470,0.006127,0.002992,  47.992
   395.2,0.004388,0.003467,0.006153,0.002992,  47.991
   395.4,0.004391,0.003471,0.006182,0.002992,  47.988
   395.6,0.004388,0.003475,0.006191,0.002969,  47.992
   395.8,0.004394,0.003475,0.006187,0.003005,  47.993
   396.0,0.004394,0.003474,0.006178,0.002992,  47.993
   396.2,0.004395,0.003476,0.006162,0.002969,  47.993
   396.4,0.004403,0.003474,0.006148,0.003018,  47.994
   396.6,0.004405,0.003475,0.006132,0.003018,  47.996
   396.8,0.004402,0.003479,0.006109,0.002996,  47.996
   397.0,0.004407,0.003479,0.006135,0.003031,  47.998
   397.2,0.004409,0.003483,0.006184,0.003018,  48.001
   397.4,0.004401,0.003484,0.006242,0.002996,  48.001
   397.6,0.004407,0.003485,0.006242,0.003031,  48.003
   397.8,0.004409,0.003482,0.006210,0.003018,  48.003
   398.0,0.004403,0.003487,0.006146,0.002996,  48.006
   398.2,0.004412,0.003489,0.006148,0.003031,  48.005
   398.4,0.004415,0.003491,0.006164,0.003031,  48.003
   398.6,0.004415,0.003489,0.006196,0.002996,  48.006
   398.8,0.004421,0.003492,0.006165,0.003031,  48.001
   399.0,0.004425,0.003494,0.006110,0.003031,  48.004
   399.2,0.004426,0.003494,0.006042,0.003009,  48.009
   399.4,0.004428,0.003496,0.005775,0.003057,  48.007
   399.6,0.004428,0.003498,0.005377,0.003057,  48.011
   399.8,0.004424,0.003494,0.004875,0.003035,  48.011
   400.0,0.004423,0.003494,0.004893,0.003083,  48.011
   400.2,0.004419,0.003495,0.005113,0.003070,  48.014
   400.4,0.004419,0.003491,0.005532,0.003035,  48.016
   400.6,0.004426,0.003497,0.005669,0.003057,  48.014
   400.8,0.004428,0.003497,0.005771,0.003044,  48.014
   401.0,0.004428,0.003496,0.005833,0.003009,  48.018
   401.2,0.004431,0.003502,0.005865,0.003057,  48.019
   401.4,0.004431,0.003502,0.005856,0.003070,  48.019
   401.6,0.004433,0.003502,0.005814,0.003035,  48.024
   401.8,0.004433,0.003504,0.005831,0.003070,  48.022
   402.0,0.004436,0.003504,0.005865,0.003070,  48.021
   402.2,0.004432,0.003500,0.005921,0.003035,  48.025
   402.4,0.004435,0.003501,0.005969,0.003083,  48.023
   402.6,0.004436,0.003503,0.006004,0.003083,  48.023
   402.8,0.004430,0.003501,0.006052,0.003048,  48.026
   403.0,0.004430,0.003507,0.006067,0.003096,  48.025
   403.2,0.004433,0.003505,0.006051,0.003083,  48.029
   403.4,0.004427,0.003505,0.006011,0.003083,  48.030
   403.6,0.004427,0.003505,0.006020,0.003048,  48.031
   403.8,0.004433,0.003505,0.006031,0.003083,  48.027
   404.0,0.004427,0.003506,0.006050,0.003070,  48.032
   404.2,0.004427,0.003506,0.006061,0.003048,  48.032
   404.4,0.004433,0.003506,0.006081,0.003048,  48.035
   404.6,0.004425,0.003508,0.006104,0.003083,  48.034
   404.8,0.004431,0.003507,0.006134,0.003061,  48.038
   405.0,0.004434,0.003507,0.006147,0.003074,  48.036
   405.2,0.004428,0.003504,0.006163,0.003074,  48.039
   405.4,0.004434,0.003508,0.006172,0.003051,  48.037
   405.6,0.004434,0.003506,0.006156,0.003051,  48.038
   405.8,0.004431,0.003506,0.006109,0.003074,  48.039
   406.0,0.004437,0.003513,0.006045,0.003051,  48.043
   406.2,0.004441,0.003515,0.006055,0.003051,  48.045
   406.4,0.004437,0.003512,0.006091,0.003051,  48.038
   406.6,0.004437,0.003516,0.006162,0.003029,  48.041
   406.8,0.004441,0.003513,0.006148,0.003051,  48.040
   407.0,0.004437,0.003513,0.006116,0.003087,  48.042
   407.2,0.004437,0.003515,0.006061,0.003064,  48.045
   407.4,0.004441,0.003514,0.006021,0.003064,  48.043
   407.6,0.004440,0.003512,0.005979,0.003100,  48.044
   407.8,0.004440,0.003514,0.005923,0.003078,  48.046
   408.0,0.004446,0.003510,0.005886,0.003078,  48.050
   408.2,0.004446,0.003506,0.005861,0.003100,  48.045
   408.4,0.004446,0.003507,0.005823,0.003078,  48.045
   408.6,0.004453,0.003510,0.005793,0.003078,  48.046
   408.8,0.004453,0.003508,0.005777,0.003113,  48.046
   409.0,0.004453,0.003506,0.005754,0.003078,  48.047
   409.2,0.004459,0.003506,0.005755,0.003078,  48.045
   409.4,0.004462,0.003504,0.005771,0.003113,  48.048
   409.6,0.004453,0.003504,0.005798,0.003091,  48.049
   409.8,0.004450,0.003503,0.005834,0.003091,  48.046
   410.0,0.004450,0.003507,0.005876,0.003126,  48.046
   410.2,0.004450,0.003509,0.005933,0.003091,  48.045
   410.4,0.004448,0.003515,0.005928,0.003091,  48.043
   410.6,0.004451,0.003520,0.005890,0.003113,  48.047
   410.8,0.004445,0.003518,0.005826,0.003078,  48.044
   411.0,0.004449,0.003511,0.005806,0.003078,  48.045
   411.2,0.004455,0.003511,0.005815,0.003126,  48.043
   411.4,0.004455,0.003512,0.005831,0.003104,  48.044
   411.6,0.004451,0.003517,0.005835,0.003117,  48.043
   411.8,0.004449,0.003514,0.005849,0.003139,  48.044
   412.0,0.004451,0.003514,0.005858,0.003104,  48.043
   412.2,0.004451,0.003515,0.005851,0.003117,  48.045
   412.4,0.004451,0.003515,0.005836,0.003139,  48.044
   412.6,0.004454,0.003518,0.005811,0.003139,  48.041
   412.8,0.004451,0.003518,0.005772,0.003152,  48.043
   413.0,0.004451,0.003518,0.005724,0.003139,  48.046
   413.2,0.004452,0.003520,0.005654,0.003139,  48.043
   413.4,0.004461,0.003521,0.005654,0.003139,  48.039
   413.6,0.004466,0.003518,0.005670,0.003104,  48.040
   413.8,0.004466,0.003525,0.005706,0.003104,  48.041
   414.0,0.004465,0.003531,0.005763,0.003068,  48.039
   414.2,0.004461,0.003533,0.005811,0.003117,  48.041
   414.4,0.004460,0.003528,0.005847,0.003104,  48.042
   414.6,0.004462,0.003531,0.005889,0.003068,  48.041
   414.8,0.004468,0.003533,0.005814,0.003130,  48.042
   415.0,0.004467,0.003533,0.005682,0.003130,  48.046
   415.2,0.004473,0.003532,0.005499,0.003094,  48.042
   415.4,0.004479,0.003534,0.005458,0.003143,  48.044
   415.6,0.004475,0.003529,0.005442,0.003130,  48.042
   415.8,0.004479,0.003532,0.005472,0.003107,  48.040
   416.0,0.004483,0.003534,0.005497,0.003107,  48.043
   416.2,0.004479,0.003535,0.005550,0.003107,  48.042
   416.4,0.004476,0.003535,0.005609,0.003085,  48.042
   416.6,0.004476,0.003540,0.005613,0.003072,  48.041
   416.8,0.004473,0.003537,0.005611,0.003107,  48.043
   417.0,0.004473,0.003535,0.005588,0.003085,  48.038
   417.2,0.004482,0.003538,0.005573,0.003085,  48.040
   417.4,0.004478,0.003538,0.005556,0.003120,  48.045
   417.6,0.004478,0.003539,0.005522,0.003098,  48.040
   417.8,0.004487,0.003543,0.005258,0.003098,  48.044
   418.0,0.004481,0.003543,0.004877,0.003120,  48.042
   418.2,0.004481,0.003544,0.004377,0.003098,  48.041
   418.4,0.004481,0.003543,0.004402,0.003098,  48.042
   418.6,0.004481,0.003541,0.004622,0.003133,  48.044
   418.8,0.004481,0.003545,0.005046,0.003111,  48.040
   419.0,0.004487,0.003548,0.005172,0.003098,  48.045
   419.2,0.004493,0.003543,0.005258,0.003120,  48.044
   419.4,0.004481,0.003548,0.005275,0.003098,  48.046
   419.6,0.004487,0.003552,0.005361,0.003120,  48.041
   419.8,0.004487,0.003548,0.005432,0.003143,  48.047
   420.0,0.004481,0.003556,0.005505,0.003120,  48.048
   420.2,0.004484,0.003558,0.005528,0.003133,  48.045
   420.4,0.004484,0.003557,0.005520,0.003146,  48.041
   420.6,0.004483,0.003563,0.005479,0.003124,  48.042
   420.8,0.004483,0.003563,0.005514,0.003124,  48.043
   421.0,0.004489,0.003562,0.005571,0.003146,  48.042
   421.2,0.004483,0.003564,0.005658,0.003124,  48.042
   421.4,0.004489,0.003564,0.005651,0.003124,  48.045
   421.6,0.004499,0.003559,0.005589,0.003160,  48.041
   421.8,0.004493,0.003558,0.005500,0.003160,  48.042
   422.0,0.004496,0.003560,0.005500,0.003137,  48.041
   422.2,0.004505,0.003554,0.005518,0.003173,  48.041
   422.4,0.004501,0.003561,0.005566,0.003160,  48.041
   422.6,0.004504,0.003567,0.005582,0.003137,  48.036
   422.8,0.004505,0.003566,0.005578,0.003173,  48.039
   423.0,0.004498,0.003564,0.005592,0.003160,  48.037
   423.2,0.004501,0.003568,0.005585,0.003124,  48.039
   423.4,0.004505,0.003570,0.005610,0.003124,  48.034
   423.6,0.004498,0.003566,0.005642,0.003160,  48.035
   423.8,0.004507,0.003572,0.005676,0.003137,  48.035
   424.0,0.004513,0.003574,0.005662,0.003137,  48.039
   424.2,0.004510,0.003569,0.005628,0.003173,  48.035
   424.4,0.004510,0.003574,0.005569,0.003150,  48.035
   424.6,0.004512,0.003576,0.005564,0.003150,  48.037
   424.8,0.004509,0.003576,0.005580,0.003173,  48.038
   425.0,0.004515,0.003581,0.005605,0.003137,  48.032
   425.2,0.004524,0.003582,0.005567,0.003150,  48.031
   425.4,0.004526,0.003586,0.005510,0.003150,  48.036
   425.6,0.004524,0.003583,0.005435,0.003150,  48.038
   425.8,0.004530,0.003585,0.005412,0.003163,  48.031
   426.0,0.004533,0.003582,0.005405,0.003150,  48.036
   426.2,0.004524,0.003583,0.005421,0.003150,  48.033
   426.4,0.004530,0.003587,0.005453,0.003176,  48.030
   426.6,0.004533,0.003584,0.005496,0.003176,  48.029
   426.8,0.004530,0.003589,0.005553,0.003176,  48.029
   427.0,0.004534,0.003587,0.005560,0.003189,  48.028
   427.2,0.004536,0.003585,0.005546,0.003176,  48.028
   427.4,0.004536,0.003587,0.005499,0.003189,  48.028
   427.6,0.004536,0.003590,0.005524,0.003189,  48.026
   427.8,0.004539,0.003588,0.005574,0.003189,  48.029
   428.0,0.004539,0.003589,0.005640,0.003167,  48.026
   428.2,0.004539,0.003591,0.005609,0.003167,  48.025
   428.4,0.004536,0.003588,0.005533,0.003180,  48.021
   428.6,0.004536,0.003590,0.005433,0.003157,  48.017
   428.8,0.004536,0.003594,0.005403,0.003144,  48.019
   429.0,0.004536,0.003591,0.005401,0.003180,  48.020
   429.2,0.004539,0.003593,0.005410,0.003193,  48.014
   429.4,0.004539,0.003595,0.005146,0.003193,  48.013
   429.6,0.004539,0.003595,0.004763,0.003193,  48.010
   429.8,0.004541,0.003594,0.004262,0.003206,  48.014
   430.0,0.004541,0.003594,0.004232,0.003206,  48.010
   430.2,0.004539,0.003589,0.004367,0.003193,  48.010
   430.4,0.004541,0.003592,0.004692,0.003193,  48.008
   430.6,0.004539,0.003599,0.004834,0.003206,  48.006
   430.8,0.004542,0.003602,0.004961,0.003193,  48.004
   431.0,0.004545,0.003600,0.005087,0.003180,  48.002
   431.2,0.004536,0.003599,0.005174,0.003157,  48.000
   431.4,0.004542,0.003603,0.005238,0.003180,  47.996
   431.6,0.004545,0.003599,0.005270,0.003193,  47.995
   431.8,0.004539,0.003599,0.005286,0.003206,  47.995
   432.0,0.004545,0.003601,0.005358,0.003206,  47.996
   432.2,0.004548,0.003596,0.005424,0.003206,  47.994
   432.4,0.004541,0.003601,0.005502,0.003206,  47.994
   432.6,0.004545,0.003605,0.005529,0.003206,  47.989
   432.8,0.004550,0.003606,0.005539,0.003206,  47.990
   433.0,0.004544,0.003609,0.005525,0.003219,  47.989
   433.2,0.004550,0.003611,0.005559,0.003219,  47.991
   433.4,0.004553,0.003613,0.005607,0.003219,  47.987
   433.6,0.004552,0.003611,0.005677,0.003232,  47.984
   433.8,0.004558,0.003609,0.005694,0.003232,  47.989
   434.0,0.004561,0.003608,0.005702,0.003219,  47.990
   434.2,0.004563,0.003610,0.005698,0.003219,  47.991
   434.4,0.004570,0.003614,0.005644,0.003219,  47.989
   434.6,0.004572,0.003616,0.005571,0.003219,  47.993
   434.8,0.004572,0.003618,0.005459,0.003219,  47.984
   435.0,0.004572,0.003624,0.005420,0.003219,  47.990
   435.2,0.004581,0.003627,0.005411,0.003219,  47.993
   435.4,0.004581,0.003634,0.005411,0.003219,  47.987
   435.6,0.004581,0.003632,0.005397,0.003232,  47.991
   435.8,0.004590,0.003632,0.005400,0.003245,  47.993
   436.0,0.004590,0.003635,0.005393,0.003245,  47.994
   436.2,0.004590,0.003632,0.005372,0.003245,  47.992
   436.4,0.004584,0.003632,0.005347,0.003232,  47.995
   436.6,0.004584,0.003634,0.005322,0.003232,  47.996
   436.8,0.004590,0.003633,0.005363,0.003245,  47.996
   437.0,0.004590,0.003631,0.005420,0.003245,  47.998
   437.2,0.004590,0.003634,0.005509,0.003245,  47.994
   437.4,0.004590,0.003640,0.005532,0.003245,  47.998
   437.6,0.004596,0.003640,0.005525,0.003245,  48.001
   437.8,0.004596,0.003644,0.005500,0.003245,  47.998
   438.0,0.004596,0.003645,0.005463,0.003245,  47.998
   438.2,0.004600,0.003640,0.005414,0.003245,  47.996
   438.4,0.004596,0.003644,0.005350,0.003258,  48.000
   438.6,0.004596,0.003643,0.005361,0.003258,  48.000
   438.8,0.004596,0.003642,0.005414,0.003271,  47.997
   439.0,0.004590,0.003644,0.005487,0.003284,  48.000
   439.2,0.004596,0.003651,0.005480,0.003271,  48.000
   439.4,0.004602,0.003653,0.005455,0.003271,  47.998
   439.6,0.004599,0.003652,0.005398,0.003236,  47.995
   439.8,0.004601,0.003650,0.005402,0.003249,  48.002
   440.0,0.004608,0.003650,0.005434,0.003249,  48.004
   440.2,0.004604,0.003652,0.005477,0.003249,  47.998
   440.4,0.004607,0.003652,0.005480,0.003226,  48.001
   440.6,0.004608,0.003648,0.005487,0.003226,  48.005
   440.8,0.004604,0.003651,0.005480,0.003262,  48.001
   441.0,0.004607,0.003656,0.005469,0.003275,  48.004
   441.2,0.004615,0.003651,0.005432,0.003226,  48.000
   441.4,0.004612,0.003654,0.005396,0.003262,  48.003
   441.6,0.004609,0.003660,0.005332,0.003275,  48.000
   441.8,0.004615,0.003658,0.005334,0.003226,  48.003
   442.0,0.004612,0.003660,0.005371,0.003262,  48.002
   442.2,0.004609,0.003662,0.005427,0.003275,  48.003
   442.4,0.004615,0.003664,0.005469,0.003226,  48.005
   442.6,0.004612,0.003664,0.005528,0.003262,  48.004
   442.8,0.004615,0.003664,0.005601,0.003275,  48.005
   443.0,0.004622,0.003662,0.005524,0.003226,  48.006
   443.2,0.004615,0.003664,0.005382,0.003262,  48.008
   443.4,0.004622,0.003662,0.005182,0.003275,  48.003
   443.6,0.004619,0.003662,0.005159,0.003239,  48.011
   443.8,0.004619,0.003663,0.005184,0.003288,  48.010
   444.0,0.004622,0.003668,0.005270,0.003288,  48.010
   444.2,0.004625,0.003667,0.005319,0.003252,  48.014
   444.4,0.004625,0.003665,0.005376,0.003288,  48.015
   444.6,0.004628,0.003671,0.005448,0.003288,  48.015
   444.8,0.004632,0.003667,0.005465,0.003252,  48.012
   445.0,0.004634,0.003667,0.005467,0.003288,  48.013
   445.2,0.004637,0.003671,0.005449,0.003288,  48.018
   445.4,0.004637,0.003674,0.005451,0.003252,  48.017
   445.6,0.004639,0.003673,0.005467,0.003288,  48.021
   445.8,0.004639,0.003673,0.005478,0.003288,  48.017
   446.0,0.004643,0.003674,0.005456,0.003252,  48.025
   446.2,0.004643,0.003672,0.005431,0.003288,  48.023
   446.4,0.004637,0.003672,0.005390,0.003288,  48.025
   446.6,0.004643,0.003674,0.005406,0.003252,  48.025
   446.8,0.004643,0.003670,0.005433,0.003288,  48.030
   447.0,0.004643,0.003675,0.005474,0.003288,  48.027
   447.2,0.004643,0.003683,0.005481,0.003252,  48.030
   447.4,0.004646,0.003683,0.005481,0.003288,  48.029
   447.6,0.004648,0.003681,0.005460,0.003301,  48.031
   447.8,0.004639,0.003684,0.005431,0.003265,  48.029
   448.0,0.004646,0.003681,0.005399,0.003301,  48.032
   448.2,0.004648,0.003685,0.005360,0.003314,  48.030
   448.4,0.004639,0.003685,0.005345,0.003292,  48.041
   448.6,0.004646,0.003684,0.005338,0.003314,  48.041
   448.8,0.004648,0.003682,0.005351,0.003314,  48.042
   449.0,0.004642,0.003684,0.005367,0.003305,  48.047
   449.2,0.004648,0.003684,0.005363,0.003327,  48.045
   449.4,0.004653,0.003682,0.005379,0.003327,  48.043
   449.6,0.004647,0.003681,0.005365,0.003327,  48.047
   449.8,0.004653,0.003687,0.005347,0.003327,  48.048
   450.0,0.004656,0.003685,0.005308,0.003327,  48.048
   450.2,0.004650,0.003691,0.005272,0.003327,  48.053
   450.4,0.004653,0.003695,0.005303,0.003292,  48.071
   450.6,0.004653,0.003690,0.005344,0.003327,  48.069
   450.8,0.004653,0.003695,0.005415,0.003327,  48.074
   451.0,0.004660,0.003699,0.005402,0.003305,  48.076
   451.2,0.004666,0.003700,0.005370,0.003340,  48.075
   451.4,0.004666,0.003703,0.005313,0.003353,  48.080
   451.6,0.004666,0.003705,0.005190,0.003318,  48.079
   451.8,0.004672,0.003707,0.005041,0.003353,  48.080
   452.0,0.004672,0.003701,0.004845,0.003366,  48.080
   452.2,0.004666,0.003703,0.004846,0.003318,  48.085
   452.4,0.004666,0.003702,0.004918,0.003318,  48.077
   452.6,0.004666,0.003701,0.005074,0.003331,  48.080
   452.8,0.004666,0.003705,0.005162,0.003318,  48.080
   453.0,0.004666,0.003700,0.005243,0.003318,  48.082
   453.2,0.004669,0.003702,0.005331,0.003331,  48.081
   453.4,0.004675,0.003704,0.005354,0.003318,  48.082
   453.6,0.004669,0.003704,0.005338,0.003318,  48.086
   453.8,0.004671,0.003704,0.005277,0.003331,  48.085
   454.0,0.004677,0.003709,0.005263,0.003318,  48.088
   454.2,0.004671,0.003712,0.005240,0.003318,  48.088
   454.4,0.004671,0.003710,0.005222,0.003331,  48.088
   454.6,0.004677,0.003710,0.005238,0.003331,  48.089
   454.8,0.004671,0.003712,0.005249,0.003344,  48.088
   455.0,0.004674,0.003712,0.005286,0.003357,  48.096
   455.2,0.004680,0.003713,0.005306,0.003357,  48.094
   455.4,0.004680,0.003711,0.005343,0.003357,  48.092
   455.6,0.004680,0.003711,0.005375,0.003370,  48.093
   455.8,0.004683,0.003717,0.005395,0.003370,  48.095
   456.0,0.004686,0.003719,0.005427,0.003370,  48.093
   456.2,0.004686,0.003719,0.005459,0.003383,  48.092
   456.4,0.004692,0.003720,0.005411,0.003383,  48.095
   456.6,0.004690,0.003725,0.005314,0.003383,  48.094
   456.8,0.004684,0.003727,0.005177,0.003396,  48.093
   457.0,0.004686,0.003728,0.005145,0.003396,  48.099
   457.2,0.004692,0.003730,0.005138,0.003383,  48.095
   457.4,0.004686,0.003727,0.005163,0.003383,  48.092
   457.6,0.004689,0.003725,0.005179,0.003383,  48.093
   457.8,0.004686,0.003722,0.005190,0.003383,  48.092
   458.0,0.004680,0.003718,0.005207,0.003383,  48.093
   458.2,0.004689,0.003727,0.005218,0.003383,  48.093
   458.4,0.004692,0.003731,0.005220,0.003396,  48.090
   458.6,0.004693,0.003727,0.005212,0.003383,  48.090
   458.8,0.004701,0.003730,0.005230,0.003396,  48.093
   459.0,0.004706,0.003730,0.005255,0.003396,  48.096
   459.2,0.004706,0.003730,0.005287,0.003383,  48.095
   459.4,0.004705,0.003732,0.005319,0.003383,  48.092
   459.6,0.004704,0.003727,0.005319,0.003383,  48.092
   459.8,0.004703,0.003729,0.005305,0.003383,  48.090
   460.0,0.004700,0.003728,0.005275,0.003383,  48.092
   460.2,0.004715,0.003725,0.005289,0.003361,  48.093
   460.4,0.004720,0.003728,0.005298,0.003361,  48.088
   460.6,0.004714,0.003731,0.005316,0.003361,  48.086
   460.8,0.004720,0.003735,0.005349,0.003338,  48.083
   461.0,0.004723,0.003727,0.005390,0.003361,  48.085
   461.2,0.004714,0.003737,0.005431,0.003361,  48.084
   461.4,0.004714,0.003733,0.005415,0.003338,  48.086
   461.6,0.004716,0.003732,0.005367,0.003361,  48.084
   461.8,0.004716,0.003739,0.005285,0.003361,  48.083
   462.0,0.004719,0.003738,0.005159,0.003338,  48.082
   462.2,0.004722,0.003738,0.004995,0.003374,  48.086
   462.4,0.004722,0.003735,0.004797,0.003387,  48.077
   462.6,0.004722,0.003735,0.004749,0.003351,  48.078
   462.8,0.004727,0.003735,0.004756,0.003400,  48.077
   463.0,0.004727,0.003735,0.004826,0.003413,  48.078
   463.2,0.004727,0.003736,0.004906,0.003377,  48.075
   463.4,0.004729,0.003738,0.005009,0.003413,  48.069
   463.6,0.004729,0.003740,0.005153,0.003426,  48.073
   463.8,0.004733,0.003745,0.005194,0.003390,  48.071
   464.0,0.004733,0.003750,0.005200,0.003413,  48.066
   464.2,0.004729,0.003752,0.005167,0.003426,  48.069
   464.4,0.004738,0.003751,0.005175,0.003390,  48.063
   464.6,0.004738,0.003753,0.005160,0.003426,  48.060
   464.8,0.004744,0.003756,0.005159,0.003439,  48.060
   465.0,0.004737,0.003756,0.005192,0.003390,  48.059
   465.2,0.004744,0.003753,0.005248,0.003426,  48.062
   465.4,0.004740,0.003759,0.005319,0.003439,  48.059
   465.6,0.004743,0.003762,0.005326,0.003403,  48.060
   465.8,0.004743,0.003765,0.005301,0.003439,  48.055
   466.0,0.004745,0.003765,0.005246,0.003452,  48.055
   466.2,0.004745,0.003767,0.005269,0.003416,  48.057
   466.4,0.004745,0.003772,0.005296,0.003439,  48.059
   466.6,0.004750,0.003774,0.005346,0.003452,  48.057
   466.8,0.004753,0.003774,0.005324,0.003416,  48.058
   467.0,0.004759,0.003774,0.005281,0.003439,  48.054
   467.2,0.004762,0.003779,0.005221,0.003439,  48.054
   467.4,0.004758,0.003781,0.005230,0.003416,  48.057
   467.6,0.004759,0.003784,0.005248,0.003416,  48.054
   467.8,0.004759,0.003780,0.005303,0.003416,  48.055
   468.0,0.004756,0.003782,0.005326,0.003430,  48.059
   468.2,0.004762,0.003784,0.005322,0.003430,  48.053
   468.4,0.004764,0.003786,0.005342,0.003430,  48.056
   468.6,0.004764,0.003788,0.005335,0.003407,  48.055
   468.8,0.004773,0.003786,0.005326,0.003443,  48.056
   469.0,0.004782,0.003790,0.005305,0.003430,  48.058
   469.2,0.004782,0.003792,0.005281,0.003394,  48.052
   469.4,0.004782,0.003794,0.005292,0.003430,  48.049
   469.6,0.004791,0.003796,0.005326,0.003430,  48.050
   469.8,0.004791,0.003795,0.005379,0.003394,  48.055
   470.0,0.004785,0.003799,0.005372,0.003430,  48.052
   470.2,0.004787,0.003794,0.005349,0.003430,  48.055
   470.4,0.004785,0.003800,0.005321,0.003394,  48.054
   470.6,0.004791,0.003802,0.005321,0.003430,  48.055
   470.8,0.004787,0.003804,0.005337,0.003430,  48.057
   471.0,0.004791,0.003807,0.005374,0.003394,  48.057
   471.2,0.004797,0.003805,0.005399,0.003430,  48.053
   471.4,0.004794,0.003809,0.005417,0.003430,  48.060
   471.6,0.004797,0.003811,0.005447,0.003394,  48.058
   471.8,0.004803,0.003807,0.005431,0.003456,  48.059
   472.0,0.004802,0.003803,0.005371,0.003469,  48.059
   472.2,0.004805,0.003810,0.005303,0.003433,  48.057
   472.4,0.004808,0.003811,0.005044,0.003482,  48.061
   472.6,0.004804,0.003805,0.004663,0.003469,  48.059
   472.8,0.004813,0.003809,0.004187,0.003446,  48.063
   473.0,0.004808,0.003809,0.004212,0.003446,  48.062
   473.2,0.004808,0.003805,0.004425,0.003446,  48.066
   473.4,0.004808,0.003809,0.004841,0.003424,  48.060
   473.6,0.004801,0.003809,0.004951,0.003411,  48.063
   473.8,0.004808,0.003807,0.005005,0.003446,  48.063
   474.0,0.004808,0.003810,0.005003,0.003424,  48.063
   474.2,0.004808,0.003810,0.005050,0.003411,  48.059
   474.4,0.004808,0.003809,0.005074,0.003446,  48.063
   474.6,0.004801,0.003816,0.005090,0.003424,  48.062
   474.8,0.004810,0.003816,0.005115,0.003411,  48.062
   475.0,0.004814,0.003811,0.005124,0.003446,  48.064
   475.2,0.004808,0.003816,0.005126,0.003424,  48.063
   475.4,0.004810,0.003810,0.005140,0.003411,  48.061
   475.6,0.004817,0.003805,0.005140,0.003446,  48.061
   475.8,0.004810,0.003810,0.005146,0.003446,  48.061
   476.0,0.004810,0.003810,0.005160,0.003459,  48.063
   476.2,0.004817,0.003812,0.005163,0.003411,  48.062
   476.4,0.004810,0.003814,0.005167,0.003446,  48.059
   476.6,0.004810,0.003821,0.005170,0.003459,  48.056
   476.8,0.004817,0.003821,0.005186,0.003446,  48.059
   477.0,0.004810,0.003816,0.005202,0.003446,  48.060
   477.2,0.004817,0.003818,0.005217,0.003424,  48.058
   477.4,0.004820,0.003814,0.005226,0.003424,  48.059
   477.6,0.004820,0.003816,0.005218,0.003459,  48.059
   477.8,0.004823,0.003817,0.005211,0.003437,  48.062
   478.0,0.004826,0.003815,0.005227,0.003437,  48.056
   478.2,0.004820,0.003817,0.005236,0.003459,  48.056
   478.4,0.004823,0.003824,0.005259,0.003437,  48.053
   478.6,0.004823,0.003829,0.005263,0.003472,  48.053
   478.8,0.004823,0.003824,0.005264,0.003495,  48.053
   479.0,0.004823,0.003828,0.005272,0.003472,  48.050
   479.2,0.004826,0.003824,0.005266,0.003508,  48.048
   479.4,0.004826,0.003823,0.005254,0.003508,  48.050
   479.6,0.004829,0.003827,0.005239,0.003485,  48.049
   479.8,0.004833,0.003829,0.005130,0.003508,  48.049
   480.0,0.004833,0.003831,0.004972,0.003508,  48.048
   480.2,0.004835,0.003832,0.004757,0.003485,  48.046
   480.4,0.004833,0.003831,0.004758,0.003472,  48.045
   480.6,0.004833,0.003833,0.004844,0.003472,  48.043
   480.8,0.004835,0.003832,0.005008,0.003450,  48.044
   481.0,0.004833,0.003831,0.005072,0.003450,  48.043
   481.2,0.004833,0.003829,0.005114,0.003485,  48.043
   481.4,0.004835,0.003831,0.005146,0.003463,  48.039
   481.6,0.004835,0.003838,0.005195,0.003463,  48.037
   481.8,0.004835,0.003838,0.005228,0.003499,  48.039
   482.0,0.004832,0.003835,0.005266,0.003463,  48.040
   482.2,0.004838,0.003838,0.005298,0.003463,  48.038
   482.4,0.004838,0.003838,0.005316,0.003485,  48.036
   482.6,0.004840,0.003835,0.005330,0.003463,  48.032
   482.8,0.004840,0.003840,0.005323,0.003485,  48.033
   483.0,0.004840,0.003842,0.005293,0.003508,  48.037
   483.2,0.004843,0.003837,0.005252,0.003499,  48.036
   483.4,0.004840,0.003840,0.005259,0.003499,  48.029
   483.6,0.004840,0.003842,0.005277,0.003512,  48.029
   483.8,0.004843,0.003838,0.005312,0.003489,  48.027
   484.0,0.004843,0.003840,0.005296,0.003489,  48.025
   484.2,0.004843,0.003844,0.005271,0.003512,  48.024
   484.4,0.004846,0.003842,0.005223,0.003512,  48.032
   484.6,0.004848,0.003846,0.005227,0.003525,  48.030
   484.8,0.004857,0.003846,0.005259,0.003489,  48.026
   485.0,0.004860,0.003846,0.005301,0.003525,  48.029
   485.2,0.004860,0.003847,0.005293,0.003525,  48.027
   485.4,0.004866,0.003849,0.005268,0.003525,  48.021
   485.6,0.004869,0.003846,0.005218,0.003538,  48.018
   485.8,0.004869,0.003852,0.005138,0.003502,  48.003
   486.0,0.004866,0.003856,0.005163,0.003515,  48.001
   486.2,0.004863,0.003852,0.005207,0.003515,  47.999
   486.4,0.004863,0.003854,0.005282,0.003480,  48.007
   486.6,0.004863,0.003852,0.005274,0.003528,  48.005
   486.8,0.004863,0.003849,0.005241,0.003515,  48.004
   487.0,0.004863,0.003851,0.005177,0.003480,  48.005
   487.2,0.004866,0.003851,0.005066,0.003528,  48.003
   487.4,0.004869,0.003853,0.004895,0.003515,  47.998
   487.6,0.004869,0.003852,0.004685,0.003493,  48.003
   487.8,0.004866,0.003856,0.004681,0.003528,  48.000
   488.0,0.004872,0.003856,0.004770,0.003528,  48.001
   488.2,0.004872,0.003856,0.004936,0.003506,  48.002
   488.4,0.004872,0.003858,0.004950,0.003541,  48.001
   488.6,0.004876,0.003860,0.004927,0.003541,  48.002
   488.8,0.004876,0.003858,0.004873,0.003519,  47.999
   489.0,0.004870,0.003861,0.004922,0.003541,  47.999
   489.2,0.004870,0.003861,0.004989,0.003528,  48.002
   489.4,0.004870,0.003861,0.005089,0.003506,  48.003
   489.6,0.004872,0.003863,0.005112,0.003506,  48.003
   489.8,0.004875,0.003863,0.005096,0.003506,  48.008
   490.0,0.004875,0.003865,0.005046,0.003483,  48.005
   490.2,0.004878,0.003863,0.005064,0.003483,  48.005
   490.4,0.004878,0.003868,0.005103,0.003506,  48.001
   490.6,0.004875,0.003868,0.005151,0.003483,  48.001
   490.8,0.004875,0.003866,0.005176,0.003483,  48.000
   491.0,0.004884,0.003872,0.005185,0.003506,  48.005
   491.2,0.004877,0.003874,0.005185,0.003483,  48.002
   491.4,0.004877,0.003872,0.005051,0.003483,  48.003
   491.6,0.004886,0.003871,0.004839,0.003506,  48.004
   491.8,0.004880,0.003871,0.004549,0.003483,  48.002
   492.0,0.004889,0.003872,0.004568,0.003483,  48.003
   492.2,0.004892,0.003872,0.004711,0.003506,  48.005
   492.4,0.004889,0.003871,0.004978,0.003483,  48.006
   492.6,0.004895,0.003880,0.005038,0.003483,  48.005
   492.8,0.004895,0.003884,0.005031,0.003519,  48.005
   493.0,0.004892,0.003883,0.004982,0.003496,  48.007
   493.2,0.004898,0.003885,0.004998,0.003483,  48.008
   493.4,0.004898,0.003885,0.005021,0.003519,  48.011
   493.6,0.004894,0.003886,0.005044,0.003519,  48.009
   493.8,0.004903,0.003883,0.005078,0.003483,  48.011
   494.0,0.004903,0.003885,0.005113,0.003496,  48.008
   494.2,0.004899,0.003888,0.005160,0.003532,  48.011
   494.4,0.004903,0.003892,0.005161,0.003509,  48.009
   494.6,0.004900,0.003890,0.005147,0.003545,  48.013
   494.8,0.004897,0.003893,0.005120,0.003545,  48.012
   495.0,0.004900,0.003891,0.005071,0.003523,  48.011
   495.2,0.004907,0.003888,0.005072,0.003523,  48.011
   495.4,0.004906,0.003888,0.005095,0.003558,  48.008
   495.6,0.004906,0.003893,0.005122,0.003536,  48.009
   495.8,0.004914,0.003890,0.005140,0.003536,  48.012
   496.0,0.004911,0.003894,0.005156,0.003558,  48.009
   496.2,0.004917,0.003896,0.005179,0.003523,  48.007
   496.4,0.004921,0.003898,0.005218,0.003536,  48.012
   496.6,0.004914,0.003901,0.005265,0.003571,  48.013
   496.8,0.004923,0.003899,0.005320,0.003536,  48.012
   497.0,0.004926,0.003904,0.005217,0.003549,  48.011
   497.2,0.004920,0.003902,0.005020,0.003584,  48.008
   497.4,0.004926,0.003909,0.004752,0.003549,  48.016
   497.6,0.004926,0.003909,0.004753,0.003562,  48.018
   497.8,0.004920,0.003911,0.004848,0.003597,  48.015
   498.0,0.004928,0.003909,0.005036,0.003562,  48.016
   498.2,0.004928,0.003914,0.005063,0.003575,  48.018
   498.4,0.004925,0.003913,0.005063,0.003597,  48.015
   498.6,0.004931,0.003919,0.005036,0.003562,  48.015
   498.8,0.004931,0.003920,0.005047,0.003575,  48.016
   499.0,0.004934,0.003920,0.005077,0.003597,  48.017
   499.2,0.004936,0.003920,0.005115,0.003575,  48.016
   499.4,0.004945,0.003918,0.005131,0.003575,  48.018
   499.6,0.004948,0.003915,0.005147,0.003611,  48.016
   499.8,0.004948,0.003916,0.005154,0.003575,  48.015
   500.0,0.004951,0.003919,0.005154,0.003597,  48.017
   500.2,0.004951,0.003919,0.005145,0.003620,  48.021
   500.4,0.004958,0.003919,0.005122,0.003584,  48.015
   500.6,0.004951,0.003919,0.005042,0.003597,  48.018
   500.8,0.004951,0.003923,0.004910,0.003597,  48.019
   501.0,0.004951,0.003923,0.004744,0.003575,  48.018
   501.2,0.004951,0.003922,0.004730,0.003575,  48.019
   501.4,0.004954,0.003927,0.004784,0.003611,  48.021
   501.6,0.004954,0.003929,0.004885,0.003588,  48.038
   501.8,0.004954,0.003932,0.004928,0.003575,  48.039
   502.0,0.004954,0.003934,0.004983,0.003575,  48.040
   502.2,0.004957,0.003936,0.005038,0.003588,  48.039
   502.4,0.004957,0.003933,0.005056,0.003588,  48.042
   502.6,0.004957,0.003935,0.005070,0.003588,  48.043
   502.8,0.004959,0.003939,0.005047,0.003588,  48.042
   503.0,0.004959,0.003937,0.005097,0.003601,  48.046
   503.2,0.004957,0.003935,0.005177,0.003601,  48.046
   503.4,0.004957,0.003939,0.005286,0.003601,  48.052
   503.6,0.004962,0.003943,0.005325,0.003601,  48.047
   503.8,0.004965,0.003943,0.005336,0.003637,  48.053
   504.0,0.004967,0.003943,0.005332,0.003637,  48.053
   504.2,0.004970,0.003952,0.005300,0.003614,  48.053
   504.4,0.004979,0.003954,0.005318,0.003614,  48.047
   504.6,0.004981,0.003954,0.005327,0.003650,  48.049
   504.8,0.004972,0.003956,0.005343,0.003627,  48.050
   505.0,0.004979,0.003956,0.005311,0.003627,  48.053
   505.2,0.004981,0.003954,0.005247,0.003614,  48.051
   505.4,0.004975,0.003959,0.005163,0.003627,  48.049
   505.6,0.004981,0.003959,0.005115,0.003627,  48.053
   505.8,0.004984,0.003957,0.005061,0.003614,  48.052
   506.0,0.004984,0.003955,0.005026,0.003627,  48.052
   506.2,0.004990,0.003957,0.005042,0.003627,  48.054
   506.4,0.004993,0.003959,0.005077,0.003627,  48.054
   506.6,0.004986,0.003957,0.005149,0.003627,  48.058
   506.8,0.004986,0.003961,0.005111,0.003627,  48.056
   507.0,0.004989,0.003963,0.005033,0.003627,  48.058
   507.2,0.004992,0.003963,0.004913,0.003640,  48.061
   507.4,0.004998,0.003967,0.004906,0.003640,  48.057
   507.6,0.004998,0.003971,0.004937,0.003640,  48.058
   507.8,0.004998,0.003968,0.004999,0.003653,  48.066
   508.0,0.004998,0.003973,0.005038,0.003667,  48.061
   508.2,0.005004,0.003975,0.005077,0.003653,  48.061
   508.4,0.005004,0.003977,0.005117,0.003618,  48.062
   508.6,0.005004,0.003977,0.005174,0.003631,  48.063
   508.8,0.005010,0.003975,0.005232,0.003631,  48.063
   509.0,0.005013,0.003976,0.005318,0.003595,  48.066
   509.2,0.005013,0.003976,0.005334,0.003595,  48.065
   509.4,0.005013,0.003975,0.005325,0.003631,  48.064
   509.6,0.005018,0.003973,0.005284,0.003653,  48.067
   509.8,0.005016,0.003975,0.005270,0.003640,  48.070
   510.0,0.005018,0.003974,0.005256,0.003627,  48.067
   510.2,0.005018,0.003974,0.005232,0.003663,  48.067
   510.4,0.005016,0.003974,0.005209,0.003663,  48.068
   510.6,0.005016,0.003974,0.005186,0.003640,  48.069
   510.8,0.005012,0.003976,0.005161,0.003653,  48.069
   511.0,0.005012,0.003979,0.005122,0.003667,  48.070
   511.2,0.005021,0.003978,0.005072,0.003653,  48.070
   511.4,0.005017,0.003982,0.005008,0.003667,  48.076
   511.6,0.005023,0.003984,0.004986,0.003667,  48.077
   511.8,0.005030,0.003984,0.004977,0.003680,  48.074
   512.0,0.005026,0.003991,0.004977,0.003680,  48.079
   512.2,0.005030,0.003994,0.004977,0.003693,  48.078
   512.4,0.005033,0.003989,0.004979,0.003693,  48.076
   512.6,0.005030,0.003994,0.004988,0.003693,  48.077
   512.8,0.005030,0.003994,0.005002,0.003670,  48.078
   513.0,0.005032,0.003995,0.005020,0.003670,  48.077
   513.2,0.005029,0.003994,0.005045,0.003670,  48.078
   513.4,0.005035,0.003996,0.005083,0.003648,  48.082
   513.6,0.005035,0.003994,0.005141,0.003612,  48.079
   513.8,0.005031,0.003995,0.005221,0.003635,  48.076
   514.0,0.005038,0.003999,0.005311,0.003648,  48.081
   514.2,0.005035,0.004001,0.005319,0.003612,  48.082
   514.4,0.005029,0.003997,0.005296,0.003635,  48.079
   514.6,0.005038,0.003999,0.005232,0.003648,  48.081
   514.8,0.005038,0.003997,0.005232,0.003612,  48.080
   515.0,0.005031,0.003997,0.005246,0.003635,  48.082
   515.2,0.005040,0.004000,0.005270,0.003648,  48.082
   515.4,0.005038,0.003998,0.005257,0.003612,  48.075
   515.6,0.005031,0.004000,0.005241,0.003648,  48.085
   515.8,0.005040,0.003998,0.005211,0.003661,  48.082
   516.0,0.005040,0.004000,0.005198,0.003612,  48.081
   516.2,0.005041,0.004002,0.005198,0.003648,  48.081
   516.4,0.005052,0.004000,0.005205,0.003661,  48.081
   516.6,0.005060,0.004004,0.005201,0.003612,  48.081
   516.8,0.005060,0.004004,0.005216,0.003648,  48.078
   517.0,0.005053,0.004004,0.005225,0.003661,  48.078
   517.2,0.005048,0.004006,0.005242,0.003625,  48.080
   517.4,0.005047,0.004008,0.005267,0.003661,  48.076
   517.6,0.005044,0.004008,0.005298,0.003674,  48.076
   517.8,0.005059,0.004006,0.005290,0.003638,  48.076
   518.0,0.005059,0.004008,0.005273,0.003661,  48.079
   518.2,0.005061,0.004011,0.005225,0.003674,  48.075
   518.4,0.005061,0.004013,0.005225,0.003638,  48.073
   518.6,0.005061,0.004012,0.005226,0.003661,  48.076
   518.8,0.005058,0.004017,0.005241,0.003674,  48.074
   519.0,0.005069,0.004017,0.005223,0.003638,  48.075
   519.2,0.005069,0.004017,0.005184,0.003674,  48.075
   519.4,0.005072,0.004015,0.005127,0.003687,  48.073
   519.6,0.005066,0.004017,0.005144,0.003651,  48.075
   519.8,0.005072,0.004019,0.005185,0.003687,  48.074
   520.0,0.005075,0.004015,0.005253,0.003687,  48.075
   520.2,0.005068,0.004022,0.005294,0.003700,  48.072
   520.4,0.005075,0.004026,0.005326,0.003687,  48.073
   520.6,0.005077,0.004019,0.005344,0.003687,  48.074
   520.8,0.005071,0.004023,0.005329,0.003687,  48.073
   521.0,0.005077,0.004023,0.005296,0.003661,  48.076
   521.2,0.005080,0.004026,0.005231,0.003696,  48.076
   521.4,0.005076,0.004029,0.005223,0.003696,  48.072
   521.6,0.005082,0.004030,0.005217,0.003696,  48.071
   521.8,0.005082,0.004032,0.005244,0.003709,  48.071
   522.0,0.005076,0.004036,0.005262,0.003723,  48.066
   522.2,0.005080,0.004040,0.005271,0.003723,  48.067
   522.4,0.005080,0.004038,0.005271,0.003723,  48.066
   522.6,0.005076,0.004040,0.005271,0.003736,  48.069
   522.8,0.005080,0.004044,0.005329,0.003749,  48.065
   523.0,0.005080,0.004040,0.005431,0.003736,  48.067
   523.2,0.005082,0.004039,0.005551,0.003736,  48.065
   523.4,0.005086,0.004040,0.005536,0.003749,  48.067
   523.6,0.005086,0.004039,0.005465,0.003736,  48.064
   523.8,0.005089,0.004041,0.005349,0.003736,  48.062
   524.0,0.005089,0.004040,0.005349,0.003713,  48.062
   524.2,0.005089,0.004039,0.005374,0.003700,  48.065
   524.4,0.005089,0.004035,0.005422,0.003700,  48.065
   524.6,0.005095,0.004043,0.005399,0.003677,  48.061
   524.8,0.005095,0.004045,0.005358,0.003713,  48.061
   525.0,0.005089,0.004043,0.005272,0.003713,  48.061
   525.2,0.005095,0.004048,0.005269,0.003691,  48.059
   525.4,0.005095,0.004054,0.005308,0.003691,  48.058
   525.6,0.005089,0.004049,0.005363,0.003691,  48.060
   525.8,0.005095,0.004050,0.005342,0.003704,  48.058
   526.0,0.005097,0.004054,0.005310,0.003691,  48.058
   526.2,0.005091,0.004050,0.005251,0.003691,  48.059
   526.4,0.005100,0.004050,0.005253,0.003704,  48.058
   526.6,0.005097,0.004052,0.005269,0.003691,  48.061
   526.8,0.005094,0.004052,0.005313,0.003691,  48.063
   527.0,0.005100,0.004059,0.005331,0.003691,  48.061
   527.2,0.005100,0.004059,0.005349,0.003677,  48.063
   527.4,0.005103,0.004055,0.005365,0.003677,  48.060
   527.6,0.005100,0.004055,0.005326,0.003677,  48.061
   527.8,0.005106,0.004057,0.005269,0.003677,  48.063
   528.0,0.005109,0.004056,0.005180,0.003677,  48.064
   528.2,0.005109,0.004060,0.005190,0.003691,  48.062
   528.4,0.005112,0.004062,0.005247,0.003691,  48.062
   528.6,0.005120,0.004062,0.005343,0.003691,  48.058
   528.8,0.005120,0.004064,0.005345,0.003704,  48.060
   529.0,0.005123,0.004066,0.005329,0.003681,  48.064
   529.2,0.005132,0.004063,0.005295,0.003717,  48.060
   529.4,0.005132,0.004064,0.005290,0.003694,  48.061
   529.6,0.005132,0.004064,0.005306,0.003694,  48.059
   529.8,0.005128,0.004064,0.005324,0.003730,  48.062
   530.0,0.005131,0.004069,0.005363,0.003743,  48.060
   530.2,0.005134,0.004069,0.005395,0.003730,  48.062
   530.4,0.005128,0.004068,0.005433,0.003752,  48.064
   530.6,0.005133,0.004072,0.005466,0.003765,  48.057
   530.8,0.005140,0.004075,0.005449,0.003730,  48.057
   531.0,0.005136,0.004073,0.005399,0.003730,  48.060
   531.2,0.005139,0.004078,0.005310,0.003743,  48.064
   531.4,0.005145,0.004082,0.005202,0.003730,  48.061
   531.6,0.005141,0.004082,0.005079,0.003717,  48.062
   531.8,0.005144,0.004082,0.004931,0.003730,  48.065
   532.0,0.005150,0.004082,0.004949,0.003730,  48.061
   532.2,0.005149,0.004082,0.005045,0.003730,  48.063
   532.4,0.005149,0.004082,0.005231,0.003743,  48.067
   532.6,0.005149,0.004089,0.005295,0.003730,  48.063
   532.8,0.005152,0.004091,0.005343,0.003730,  48.064
   533.0,0.005154,0.004095,0.005386,0.003743,  48.065
   533.2,0.005161,0.004100,0.005409,0.003743,  48.065
   533.4,0.005157,0.004102,0.005411,0.003756,  48.064
   533.6,0.005160,0.004106,0.005402,0.003769,  48.064
   533.8,0.005162,0.004107,0.005338,0.003769,  48.067
   534.0,0.005165,0.004103,0.005227,0.003769,  48.068
   534.2,0.005165,0.004106,0.005078,0.003782,  48.065
   534.4,0.005168,0.004104,0.005069,0.003782,  48.070
   534.6,0.005165,0.004099,0.005101,0.003769,  48.070
   534.8,0.005165,0.004099,0.005186,0.003769,  48.070
   535.0,0.005168,0.004104,0.005243,0.003769,  48.069
   535.2,0.005171,0.004108,0.005308,0.003769,  48.072
   535.4,0.005165,0.004103,0.005381,0.003769,  48.072
   535.6,0.005171,0.004104,0.005382,0.003782,  48.071
   535.8,0.005171,0.004109,0.005356,0.003782,  48.072
   536.0,0.005168,0.004110,0.005297,0.003782,  48.073
   536.2,0.005176,0.004113,0.005313,0.003795,  48.075
   536.4,0.005180,0.004113,0.005352,0.003782,  48.077
   536.6,0.005176,0.004120,0.005408,0.003782,  48.079
   536.8,0.005183,0.004120,0.005156,0.003795,  48.077
   537.0,0.005180,0.004119,0.004751,0.003795,  48.079
   537.2,0.005176,0.004122,0.004223,0.003795,  48.078
   537.4,0.005183,0.004125,0.004232,0.003773,  48.083
   537.6,0.005183,0.004124,0.004429,0.003773,  48.078
   537.8,0.005179,0.004129,0.004837,0.003773,  48.081
   538.0,0.005188,0.004134,0.004946,0.003737,  48.083
   538.2,0.005197,0.004135,0.004999,0.003773,  48.085
   538.4,0.005193,0.004135,0.005003,0.003773,  48.080
   538.6,0.005196,0.004136,0.005072,0.003750,  48.083
   538.8,0.005199,0.004138,0.005144,0.003786,  48.080
   539.0,0.005193,0.004135,0.005224,0.003786,  48.084
   539.2,0.005196,0.004133,0.005299,0.003799,  48.084
   539.4,0.005199,0.004135,0.005354,0.003763,  48.086
   539.6,0.005193,0.004135,0.005388,0.003799,  48.084
   539.8,0.005196,0.004135,0.005433,0.003812,  48.086
   540.0,0.005199,0.004134,0.005466,0.003776,  48.088
   540.2,0.005196,0.004136,0.005491,0.003812,  48.089
   540.4,0.005202,0.004135,0.005515,0.003825,  48.088
   540.6,0.005208,0.004136,0.005513,0.003776,  48.087
   540.8,0.005204,0.004133,0.005483,0.003812,  48.089
   541.0,0.005211,0.004133,0.005433,0.003825,  48.088
   541.2,0.005211,0.004133,0.005383,0.003776,  48.090
   541.4,0.005213,0.004130,0.005304,0.003812,  48.091
   541.6,0.005213,0.004130,0.005208,0.003825,  48.092
   541.8,0.005217,0.004137,0.005186,0.003790,  48.092
   542.0,0.005220,0.004141,0.005194,0.003825,  48.096
   542.2,0.005211,0.004141,0.005218,0.003838,  48.095
   542.4,0.005214,0.004141,0.005220,0.003790,  48.099
   542.6,0.005215,0.004145,0.005227,0.003812,  48.096
   542.8,0.005217,0.004148,0.005247,0.003825,  48.096
   543.0,0.005223,0.004146,0.005254,0.003776,  48.097
   543.2,0.005217,0.004149,0.005263,0.003812,  48.099
   543.4,0.005222,0.004149,0.005265,0.003825,  48.094
   543.6,0.005220,0.004150,0.005265,0.003776,  48.097
   543.8,0.005216,0.004147,0.005249,0.003812,  48.095
   544.0,0.005219,0.004147,0.005218,0.003825,  48.102
   544.2,0.005222,0.004146,0.005235,0.003776,  48.094
   544.4,0.005225,0.004142,0.005252,0.003812,  48.098
   544.6,0.005222,0.004144,0.005286,0.003790,  48.098
   544.8,0.005228,0.004143,0.005329,0.003790,  48.099
   545.0,0.005224,0.004140,0.005398,0.003803,  48.104
   545.2,0.005227,0.004142,0.005472,0.003780,  48.105
   545.4,0.005221,0.004141,0.005570,0.003816,  48.096
   545.6,0.005227,0.004143,0.005684,0.003816,  48.096
   545.8,0.005227,0.004143,0.005834,0.003793,  48.100
   546.0,0.005221,0.004143,0.005857,0.003829,  48.099
   546.2,0.005224,0.004143,0.005825,0.003816,  48.099
   546.4,0.005227,0.004146,0.005730,0.003816,  48.099
   546.6,0.005223,0.004148,0.005668,0.003793,  48.105
   546.8,0.005232,0.004148,0.005595,0.003780,  48.106
   547.0,0.005235,0.004151,0.005493,0.003816,  48.103
   547.2,0.005228,0.004151,0.005455,0.003793,  48.107
   547.4,0.005235,0.004153,0.005448,0.003780,  48.102
   547.6,0.005240,0.004151,0.005453,0.003816,  48.100
   547.8,0.005234,0.004149,0.005500,0.003780,  48.098
   548.0,0.005240,0.004143,0.005509,0.003829,  48.103
   548.2,0.005242,0.004146,0.005509,0.003829,  48.102
   548.4,0.005239,0.004150,0.005514,0.003793,  48.100
   548.6,0.005242,0.004152,0.005466,0.003842,  48.101
   548.8,0.005242,0.004152,0.005394,0.003829,  48.100
   549.0,0.005248,0.004159,0.005304,0.003793,  48.103
   549.2,0.005254,0.004162,0.005304,0.003842,  48.108
   549.4,0.005257,0.004166,0.005329,0.003829,  48.105
   549.6,0.005257,0.004167,0.005391,0.003793,  48.102
   549.8,0.005257,0.004167,0.005437,0.003842,  48.102
   550.0,0.005259,0.004167,0.005471,0.003842,  48.098
   550.2,0.005257,0.004168,0.005505,0.003806,  48.102
   550.4,0.005257,0.004172,0.005500,0.003855,  48.099
   550.6,0.005263,0.004169,0.005476,0.003855,  48.097
   550.8,0.005263,0.004169,0.005434,0.003819,  48.098
   551.0,0.005260,0.004169,0.005318,0.003868,  48.097
   551.2,0.005266,0.004169,0.005168,0.003855,  48.098
   551.4,0.005269,0.004173,0.004975,0.003832,  48.096
   551.6,0.005260,0.004176,0.004936,0.003832,  48.090
   551.8,0.005264,0.004174,0.004965,0.003832,  48.095
   552.0,0.005262,0.004176,0.005034,0.003797,  48.094
   552.2,0.005270,0.004180,0.005066,0.003832,  48.090
   552.4,0.005267,0.004175,0.005098,0.003855,  48.088
   552.6,0.005263,0.004175,0.005138,0.003819,  48.086
   552.8,0.005265,0.004180,0.005179,0.003868,  48.086
   553.0,0.005261,0.004175,0.005220,0.003855,  48.083
   553.2,0.005266,0.004175,0.005273,0.003832,  48.083
   553.4,0.005266,0.004180,0.005307,0.003846,  48.091
   553.6,0.005269,0.004175,0.005341,0.003846,  48.087
   553.8,0.005272,0.004177,0.005366,0.003823,  48.088
   554.0,0.005272,0.004181,0.005366,0.003823,  48.086
   554.2,0.005272,0.004177,0.005344,0.003846,  48.088
   554.4,0.005265,0.004181,0.005303,0.003823,  48.081
   554.6,0.005272,0.004182,0.005321,0.003823,  48.080
   554.8,0.005274,0.004180,0.005362,0.003846,  48.086
   555.0,0.005271,0.004183,0.005419,0.003823,  48.082
   555.2,0.005277,0.004183,0.005406,0.003823,  48.079
   555.4,0.005283,0.004180,0.005367,0.003859,  48.087
   555.6,0.005279,0.004185,0.005323,0.003836,  48.084
   555.8,0.005286,0.004185,0.005333,0.003836,  48.087
   556.0,0.005283,0.004184,0.005355,0.003872,  48.084
   556.2,0.005279,0.004189,0.005410,0.003872,  48.082
   556.4,0.005286,0.004189,0.005417,0.003885,  48.079
   556.6,0.005283,0.004184,0.005394,0.003872,  48.080
   556.8,0.005279,0.004191,0.005353,0.003859,  48.079
   557.0,0.005286,0.004190,0.005344,0.003872,  48.079
   557.2,0.005283,0.004190,0.005328,0.003872,  48.083
   557.4,0.005279,0.004188,0.005314,0.003872,  48.080
   557.6,0.005286,0.004192,0.005310,0.003849,  48.083
   557.8,0.005286,0.004192,0.005303,0.003849,  48.080
   558.0,0.005282,0.004194,0.005296,0.003872,  48.083
   558.2,0.005288,0.004197,0.005281,0.003849,  48.086
   558.4,0.005288,0.004199,0.005133,0.003836,  48.082
   558.6,0.005285,0.004195,0.004928,0.003859,  48.084
   558.8,0.005291,0.004195,0.004632,0.003836,  48.085
   559.0,0.005288,0.004197,0.004602,0.003823,  48.084
   559.2,0.005282,0.004195,0.004664,0.003859,  48.084
   559.4,0.005291,0.004193,0.004814,0.003836,  48.084
   559.6,0.005294,0.004195,0.004887,0.003836,  48.083
   559.8,0.005287,0.004191,0.004967,0.003872,  48.088
   560.0,0.005294,0.004199,0.005060,0.003849,  48.086
   560.2,0.005300,0.004203,0.005133,0.003849,  48.086
   560.4,0.005294,0.004201,0.005206,0.003872,  48.089
   560.6,0.005296,0.004205,0.005285,0.003862,  48.089
   560.8,0.005302,0.004205,0.005286,0.003862,  48.088
   561.0,0.005299,0.004205,0.005254,0.003862,  48.089
   561.2,0.005301,0.004203,0.005192,0.003840,  48.093
