Run Name,37%iso
Run Date,02:15:49 PM   01-21-09
Method Name,37%iso
Export Format Version, 1.00
Method ID,  590
Points/Second, 5.00
Number of Records,   3060
Offset from Run Start Time,00:00:00
Run End Time,00:10:11
Time,Second
QuadTec 1, (280.0 nm), AU
QuadTec 2, (260.0 nm), AU
Gradient Pump,%B
QuadTec 3, (214.0 nm), AU
QuadTec 4, (405.0 nm), AU
Conductivity,mS/cm
Trace 6,<Not Available>
GP Pressure,<Not Selected>
Volume,<Not Selected>
Fraction,<Not Available>
Time,QuadTec 1,QuadTec 2,Gradient Pump,QuadTec 3,QuadTec 4,Conductivity
     0.0,-0.018355,-0.015967, 37,-0.015506,-0.017651,  37.655
     0.2,-0.018379,-0.015968, 37,-0.015483,-0.017639,  37.649
     0.4,-0.018373,-0.015975, 37,-0.015532,-0.017671,  37.643
     0.6,-0.018408,-0.015977, 37,-0.015656,-0.017659,  37.629
     0.8,0.000000,-0.015978, 37,-0.015666,-0.017646,  37.647
     1.0,0.000000,-0.015982, 37,-0.015653,-0.017679,  37.653
     1.2,0.000000,0.000000, 37,-0.015706,-0.017667,  37.655
     1.4,0.000000,0.000000, 37,-0.015706,-0.017687,  37.657
     1.6,0.000000,0.000000, 37,-0.015706,-0.017687,  37.670
     1.8,0.000000,0.000000, 37,-0.015706,-0.017675,  37.669
     2.0,0.000000,0.000000, 37,-0.015706,-0.017695,  37.669
     2.2,0.000000,0.000000, 37,0.000000,-0.017683,  37.667
     2.4,0.000000,0.000000, 37,0.000000,0.000000,  37.669
     2.6,0.000000,0.000000, 37,0.000000,0.000000,  37.668
     2.8,0.000000,0.000000, 37,0.000000,0.000000,  37.660
     3.0,0.000000,0.000000, 37,0.000000,0.000000,  37.665
     3.2,0.000000,0.000000, 37,0.000000,0.000000,  37.664
     3.4,0.000000,0.000000, 37,0.000000,0.000000,  37.662
     3.6,0.000000,0.000000, 37,0.000000,0.000000,  37.661
     3.8,0.000000,0.000000, 37,0.000000,0.000000,  37.668
     4.0,0.000000,0.000000, 37,0.000000,0.000000,  37.666
     4.2,0.000000,0.000000, 37,0.000000,0.000000,  37.668
     4.4,-0.000036,0.000000, 37,0.000000,0.000000,  37.665
     4.6,-0.000041,0.000000, 37,0.000000,0.000000,  37.667
     4.8,-0.000049,0.000000, 37,0.000000,0.000000,  37.671
     5.0,-0.000052,0.000000, 37,0.000000,0.000000,  37.672
     5.2,-0.000063,0.000000, 37,0.000000,0.000000,  37.668
     5.4,-0.000073,-0.000026, 37,0.000000,0.000000,  37.666
     5.6,-0.000086,-0.000040, 37,0.000000,0.000000,  37.666
     5.8,-0.000100,-0.000048, 37,-0.000040,0.000000,  37.671
     6.0,-0.000111,-0.000057, 37,-0.000053,0.000000,  37.666
     6.2,-0.000124,-0.000063, 37,-0.000065,0.000000,  37.671
     6.4,-0.000130,-0.000072, 37,-0.000061,0.000000,  37.670
     6.6,-0.000146,-0.000080, 37,-0.000043,0.000000,  37.667
     6.8,-0.000157,-0.000091, 37,-0.000011,-0.000012,  37.669
     7.0,-0.000168,-0.000098, 37,0.000027,-0.000066,  37.669
     7.2,-0.000177,-0.000111, 37,0.000066,-0.000099,  37.666
     7.4,-0.000185,-0.000118, 37,0.000112,-0.000078,  37.663
     7.6,-0.000201,-0.000127, 37,0.000166,-0.000099,  37.667
     7.8,-0.000217,-0.000128, 37,0.000175,-0.000099,  37.666
     8.0,-0.000225,-0.000136, 37,0.000173,-0.000111,  37.661
     8.2,-0.000240,-0.000149, 37,0.000146,-0.000111,  37.661
     8.4,-0.000249,-0.000160, 37,0.000107,-0.000132,  37.657
     8.6,-0.000257,-0.000172, 37,0.000076,-0.000132,  37.649
     8.8,-0.000271,-0.000184, 37,0.000037,-0.000099,  37.645
     9.0,-0.000275,-0.000194, 37,-0.000009,-0.000132,  37.639
     9.2,-0.000285,-0.000210, 37,-0.000039,-0.000157,  37.636
     9.4,-0.000302,-0.000219, 37,-0.000065,-0.000136,  37.631
     9.6,-0.000306,-0.000227, 37,-0.000078,-0.000169,  37.632
     9.8,-0.000315,-0.000238, 37,-0.000067,-0.000189,  37.629
    10.0,-0.000329,-0.000252, 37,-0.000041,-0.000202,  37.627
    10.2,-0.000335,-0.000258, 37,0.000012,-0.000235,  37.624
    10.4,-0.000344,-0.000264, 37,0.000005,-0.000268,  37.620
    10.6,-0.000356,-0.000268, 37,-0.000030,-0.000214,  37.620
    10.8,-0.000366,-0.000278, 37,-0.000074,-0.000214,  37.613
    11.0,-0.000379,-0.000282, 37,-0.000086,-0.000247,  37.612
    11.2,-0.000385,-0.000290, 37,-0.000091,-0.000247,  37.610
    11.4,-0.000399,-0.000295, 37,-0.000088,-0.000247,  37.601
    11.6,-0.000405,-0.000304, 37,-0.000072,-0.000280,  37.601
    11.8,-0.000417,-0.000317, 37,-0.000043,-0.000293,  37.596
    12.0,-0.000423,-0.000324, 37,-0.000003,-0.000293,  37.589
    12.2,-0.000435,-0.000334, 37,0.000014,-0.000326,  37.581
    12.4,-0.000441,-0.000346, 37,0.000018,-0.000305,  37.572
    12.6,-0.000455,-0.000351, 37,0.000006,-0.000338,  37.575
    12.8,-0.000458,-0.000360, 37,0.000020,-0.000371,  37.575
    13.0,-0.000464,-0.000368, 37,0.000040,-0.000371,  37.571
    13.2,-0.000475,-0.000377, 37,0.000057,-0.000416,  37.571
    13.4,-0.000486,-0.000385, 37,0.000048,-0.000384,  37.572
    13.6,-0.000494,-0.000397, 37,0.000032,-0.000351,  37.569
    13.8,-0.000506,-0.000403, 37,0.000009,-0.000384,  37.565
    14.0,-0.000514,-0.000416, 37,-0.000102,-0.000384,  37.565
    14.2,-0.000521,-0.000426, 37,-0.000259,-0.000371,  37.567
    14.4,-0.000529,-0.000429, 37,-0.000461,-0.000391,  37.561
    14.6,-0.000540,-0.000434, 37,-0.000473,-0.000391,  37.561
    14.8,-0.000553,-0.000441, 37,-0.000410,-0.000404,  37.562
    15.0,-0.000569,-0.000452, 37,-0.000282,-0.000437,  37.558
    15.2,-0.000570,-0.000463, 37,-0.000245,-0.000437,  37.559
    15.4,-0.000584,-0.000472, 37,-0.000226,-0.000470,  37.558
    15.6,-0.000597,-0.000483, 37,-0.000219,-0.000470,  37.554
    15.8,-0.000606,-0.000490, 37,-0.000154,-0.000470,  37.550
    16.0,-0.000609,-0.000501, 37,-0.000071,-0.000470,  37.546
    16.2,-0.000617,-0.000508, 37,0.000026,-0.000503,  37.549
    16.4,-0.000634,-0.000512, 37,0.000035,-0.000503,  37.552
    16.6,-0.000642,-0.000522, 37,0.000012,-0.000503,  37.547
    16.8,-0.000650,-0.000531, 37,-0.000052,-0.000503,  37.552
    17.0,-0.000659,-0.000542, 37,-0.000049,-0.000523,  37.550
    17.2,-0.000675,-0.000556, 37,-0.000033,-0.000515,  37.549
    17.4,-0.000689,-0.000566, 37,0.000005,-0.000515,  37.549
    17.6,-0.000697,-0.000574, 37,0.000056,-0.000536,  37.548
    17.8,-0.000705,-0.000586, 37,0.000045,-0.000569,  37.545
    18.0,-0.000719,-0.000596, 37,0.000014,-0.000581,  37.548
    18.2,-0.000727,-0.000598, 37,-0.000032,-0.000581,  37.543
    18.4,-0.000728,-0.000604, 37,-0.000234,-0.000581,  37.546
    18.6,-0.000734,-0.000614, 37,-0.000528,-0.000594,  37.544
    18.8,-0.000745,-0.000623, 37,-0.000902,-0.000581,  37.545
    19.0,-0.000754,-0.000633, 37,-0.000908,-0.000614,  37.546
    19.2,-0.000762,-0.000635, 37,-0.000779,-0.000626,  37.542
    19.4,-0.000768,-0.000646, 37,-0.000502,-0.000647,  37.538
    19.6,-0.000779,-0.000647, 37,-0.000391,-0.000647,  37.539
    19.8,-0.000793,-0.000657, 37,-0.000288,-0.000659,  37.537
    20.0,-0.000801,-0.000660, 37,-0.000202,-0.000680,  37.540
    20.2,-0.000807,-0.000668, 37,-0.000153,-0.000680,  37.545
    20.4,-0.000815,-0.000679, 37,-0.000131,-0.000692,  37.541
    20.6,-0.000824,-0.000680, 37,-0.000140,-0.000713,  37.545
    20.8,-0.000827,-0.000684, 37,-0.000108,-0.000725,  37.539
    21.0,-0.000835,-0.000693, 37,-0.000074,-0.000705,  37.536
    21.2,-0.000836,-0.000704, 37,-0.000038,-0.000725,  37.541
    21.4,-0.000850,-0.000712, 37,-0.000035,-0.000725,  37.542
    21.6,-0.000848,-0.000717, 37,-0.000046,-0.000713,  37.545
    21.8,-0.000856,-0.000725, 37,-0.000078,-0.000746,  37.542
    22.0,-0.000863,-0.000728, 37,-0.000089,-0.000713,  37.542
    22.2,-0.000869,-0.000732, 37,-0.000105,-0.000713,  37.539
    22.4,-0.000877,-0.000742, 37,-0.000115,-0.000746,  37.541
    22.6,-0.000886,-0.000750, 37,-0.000075,-0.000746,  37.540
    22.8,-0.000897,-0.000759, 37,-0.000011,-0.000791,  37.538
    23.0,-0.000910,-0.000762, 37,0.000083,-0.000812,  37.539
    23.2,-0.000919,-0.000763, 37,0.000097,-0.000812,  37.542
    23.4,-0.000917,-0.000772, 37,0.000081,-0.000824,  37.538
    23.6,-0.000923,-0.000775, 37,0.000047,-0.000845,  37.538
    23.8,-0.000935,-0.000781, 37,0.000031,-0.000845,  37.536
    24.0,-0.000936,-0.000791, 37,0.000009,-0.000824,  37.539
    24.2,-0.000947,-0.000794, 37,-0.000021,-0.000812,  37.536
    24.4,-0.000953,-0.000798, 37,-0.000001,-0.000812,  37.535
    24.6,-0.000963,-0.000808, 37,0.000043,-0.000824,  37.523
    24.8,-0.000975,-0.000816, 37,0.000116,-0.000812,  37.523
    25.0,-0.000976,-0.000821, 37,0.000140,-0.000845,  37.524
    25.2,-0.000977,-0.000830, 37,0.000155,-0.000857,  37.525
    25.4,-0.000983,-0.000841, 37,0.000167,-0.000845,  37.521
    25.6,-0.000991,-0.000846, 37,0.000150,-0.000877,  37.519
    25.8,-0.000997,-0.000854, 37,0.000118,-0.000857,  37.520
    26.0,-0.001005,-0.000860, 37,0.000073,-0.000857,  37.516
    26.2,-0.001016,-0.000866, 37,0.000008,-0.000910,  37.521
    26.4,-0.001019,-0.000875, 37,-0.000014,-0.000923,  37.514
    26.6,-0.001025,-0.000882, 37,-0.000027,-0.000910,  37.520
    26.8,-0.001039,-0.000888, 37,-0.000037,-0.000898,  37.520
    27.0,-0.001042,-0.000891, 37,-0.000057,-0.000898,  37.519
    27.2,-0.001049,-0.000894, 37,-0.000065,-0.000910,  37.519
    27.4,-0.001055,-0.000897, 37,-0.000082,-0.000943,  37.519
    27.6,-0.001060,-0.000901, 37,-0.000048,-0.000976,  37.520
    27.8,-0.001067,-0.000911, 37,0.000008,-0.000976,  37.520
    28.0,-0.001075,-0.000915, 37,0.000087,-0.001009,  37.516
    28.2,-0.001078,-0.000924, 37,0.000090,-0.000989,  37.516
    28.4,-0.001085,-0.000933, 37,0.000063,-0.000968,  37.517
    28.6,-0.001088,-0.000939, 37,0.000008,-0.000989,  37.517
    28.8,-0.001096,-0.000941, 37,0.000022,-0.000989,  37.520
    29.0,-0.001110,-0.000950, 37,0.000058,-0.001022,  37.518
    29.2,-0.001121,-0.000956, 37,0.000113,-0.001030,  37.510
    29.4,-0.001124,-0.000965, 37,0.000132,-0.001030,  37.514
    29.6,-0.001132,-0.000977, 37,0.000149,-0.001030,  37.513
    29.8,-0.001139,-0.000981, 37,0.000152,-0.001050,  37.515
    30.0,-0.001137,-0.000982, 37,0.000155,-0.001050,  37.516
    30.2,-0.001138,-0.000986, 37,0.000158,-0.001063,  37.517
    30.4,-0.001145,-0.000993, 37,0.000151,-0.001063,  37.516
    30.6,-0.001153,-0.000999, 37,0.000128,-0.001063,  37.511
    30.8,-0.001158,-0.001002, 37,0.000089,-0.001063,  37.509
    31.0,-0.001167,-0.001007, 37,0.000026,-0.001096,  37.508
    31.2,-0.001175,-0.001013, 37,-0.000006,-0.001096,  37.516
    31.4,-0.001181,-0.001025, 37,-0.000025,-0.001096,  37.507
    31.6,-0.001187,-0.001026, 37,-0.000055,-0.001129,  37.508
    31.8,-0.001193,-0.001028, 37,-0.000020,-0.001129,  37.506
    32.0,-0.001204,-0.001035, 37,0.000055,-0.001096,  37.510
    32.2,-0.001212,-0.001044, 37,0.000155,-0.001108,  37.511
    32.4,-0.001216,-0.001049, 37,0.000192,-0.001108,  37.508
    32.6,-0.001209,-0.001057, 37,0.000217,-0.001108,  37.503
    32.8,-0.001215,-0.001061, 37,0.000224,-0.001108,  37.502
    33.0,-0.001227,-0.001066, 37,0.000222,-0.001129,  37.506
    33.2,-0.001234,-0.001072, 37,0.000205,-0.001137,  37.506
    33.4,-0.001243,-0.001077, 37,0.000180,-0.001124,  37.507
    33.6,-0.001250,-0.001077, 37,0.000182,-0.001157,  37.509
    33.8,-0.001258,-0.001079, 37,0.000186,-0.001170,  37.505
    34.0,-0.001264,-0.001089, 37,0.000202,-0.001170,  37.505
    34.2,-0.001271,-0.001093, 37,0.000224,-0.001215,  37.506
    34.4,-0.001279,-0.001099, 37,0.000239,-0.001170,  37.505
    34.6,-0.001286,-0.001104, 37,0.000253,-0.001182,  37.500
    34.8,-0.001284,-0.001112, 37,0.000262,-0.001190,  37.500
    35.0,-0.001283,-0.001121, 37,0.000258,-0.001157,  37.498
    35.2,-0.001287,-0.001121, 37,0.000259,-0.001190,  37.496
    35.4,-0.001295,-0.001123, 37,0.000251,-0.001223,  37.495
    35.6,-0.001301,-0.001129, 37,0.000276,-0.001223,  37.497
    35.8,-0.001307,-0.001129, 37,0.000320,-0.001235,  37.493
    36.0,-0.001312,-0.001132, 37,0.000388,-0.001268,  37.490
    36.2,-0.001323,-0.001135, 37,0.000387,-0.001256,  37.487
    36.4,-0.001332,-0.001142, 37,0.000365,-0.001256,  37.490
    36.6,-0.001340,-0.001146, 37,0.000330,-0.001276,  37.489
    36.8,-0.001341,-0.001150, 37,0.000288,-0.001231,  37.492
    37.0,-0.001350,-0.001158, 37,0.000230,-0.001231,  37.490
    37.2,-0.001360,-0.001161, 37,0.000161,-0.001251,  37.486
    37.4,-0.001366,-0.001171, 37,0.000160,-0.001251,  37.484
    37.6,-0.001374,-0.001176, 37,0.000185,-0.001264,  37.480
    37.8,-0.001385,-0.001186, 37,0.000235,-0.001284,  37.478
    38.0,-0.001387,-0.001191, 37,0.000239,-0.001284,  37.475
    38.2,-0.001396,-0.001201, 37,0.000235,-0.001251,  37.473
    38.4,-0.001399,-0.001204, 37,0.000213,-0.001305,  37.471
    38.6,-0.001405,-0.001209, 37,0.000202,-0.001317,  37.473
    38.8,-0.001403,-0.001221, 37,0.000190,-0.001317,  37.468
    39.0,-0.001417,-0.001226, 37,0.000173,-0.001338,  37.471
    39.2,-0.001418,-0.001236, 37,0.000182,-0.001350,  37.470
    39.4,-0.001424,-0.001245, 37,0.000202,-0.001330,  37.468
    39.6,-0.001430,-0.001250, 37,0.000232,-0.001317,  37.466
    39.8,-0.001437,-0.001256, 37,0.000231,-0.001350,  37.462
    40.0,-0.001440,-0.001256, 37,0.000218,-0.001383,  37.464
    40.2,-0.001446,-0.001256, 37,0.000193,-0.001371,  37.462
    40.4,-0.001449,-0.001260, 37,0.000209,-0.001404,  37.461
    40.6,-0.001450,-0.001259, 37,0.000246,-0.001404,  37.452
    40.8,-0.001456,-0.001264, 37,0.000297,-0.001391,  37.450
    41.0,-0.001457,-0.001273, 37,0.000212,-0.001391,  37.448
    41.2,-0.001460,-0.001281, 37,0.000074,-0.001371,  37.439
    41.4,-0.001461,-0.001282, 37,-0.000120,-0.001358,  37.440
    41.6,-0.001464,-0.001287, 37,-0.000132,-0.001391,  37.439
    41.8,-0.001473,-0.001293, 37,-0.000079,-0.001404,  37.438
    42.0,-0.001477,-0.001297, 37,0.000043,-0.001424,  37.437
    42.2,-0.001483,-0.001300, 37,0.000112,-0.001424,  37.433
    42.4,-0.001490,-0.001303, 37,0.000190,-0.001424,  37.435
    42.6,-0.001501,-0.001306, 37,0.000270,-0.001457,  37.433
    42.8,-0.001504,-0.001305, 37,0.000309,-0.001424,  37.428
    43.0,-0.001502,-0.001310, 37,0.000326,-0.001424,  37.429
    43.2,-0.001508,-0.001318, 37,0.000330,-0.001424,  37.431
    43.4,-0.001512,-0.001317, 37,0.000315,-0.001445,  37.426
    43.6,-0.001513,-0.001322, 37,0.000308,-0.001445,  37.428
    43.8,-0.001513,-0.001326, 37,0.000294,-0.001465,  37.428
    44.0,-0.001512,-0.001325, 37,0.000271,-0.001498,  37.426
    44.2,-0.001516,-0.001326, 37,0.000294,-0.001465,  37.424
    44.4,-0.001523,-0.001334, 37,0.000334,-0.001465,  37.428
    44.6,-0.001521,-0.001334, 37,0.000397,-0.001498,  37.422
    44.8,-0.001523,-0.001338, 37,0.000451,-0.001486,  37.422
    45.0,-0.001525,-0.001340, 37,0.000505,-0.001486,  37.422
    45.2,-0.001524,-0.001342, 37,0.000564,-0.001519,  37.426
    45.4,-0.001522,-0.001343, 37,0.000470,-0.001506,  37.422
    45.6,-0.001524,-0.001347, 37,0.000304,-0.001473,  37.424
    45.8,-0.001518,-0.001346, 37,0.000069,-0.001527,  37.420
    46.0,-0.001522,-0.001343, 37,-0.000034,-0.001514,  37.417
    46.2,-0.001527,-0.001346, 37,-0.000105,-0.001514,  37.418
    46.4,-0.001525,-0.001347, 37,-0.000141,-0.001535,  37.416
    46.6,-0.001528,-0.001347, 37,-0.000109,-0.001535,  37.416
    46.8,-0.001527,-0.001343, 37,-0.000032,-0.001514,  37.413
    47.0,-0.001531,-0.001343, 37,0.000081,-0.001502,  37.412
    47.2,-0.001532,-0.001338, 37,0.000175,-0.001502,  37.411
    47.4,-0.001533,-0.001337, 37,0.000279,-0.001502,  37.411
    47.6,-0.001532,-0.001340, 37,0.000388,-0.001489,  37.412
    47.8,-0.001538,-0.001339, 37,0.000465,-0.001535,  37.410
    48.0,-0.001539,-0.001342, 37,0.000529,-0.001568,  37.409
    48.2,-0.001540,-0.001345, 37,0.000587,-0.001543,  37.406
    48.4,-0.001541,-0.001345, 37,0.000610,-0.001576,  37.403
    48.6,-0.001542,-0.001345, 37,0.000614,-0.001564,  37.409
    48.8,-0.001548,-0.001347, 37,0.000595,-0.001584,  37.405
    49.0,-0.001556,-0.001346, 37,0.000613,-0.001572,  37.403
    49.2,-0.001557,-0.001342, 37,0.000632,-0.001572,  37.401
    49.4,-0.001561,-0.001346, 37,0.000657,-0.001605,  37.403
    49.6,-0.001562,-0.001345, 37,0.000516,-0.001572,  37.398
    49.8,-0.001563,-0.001348, 37,0.000299,-0.001584,  37.384
    50.0,-0.001570,-0.001352, 37,0.000001,-0.001617,  37.389
    50.2,-0.001573,-0.001361, 37,0.000003,-0.001584,  37.385
    50.4,-0.001576,-0.001369, 37,0.000107,-0.001597,  37.380
    50.6,-0.001587,-0.001369, 37,0.000321,-0.001630,  37.384
    50.8,-0.001589,-0.001370, 37,0.000384,-0.001605,  37.381
    51.0,-0.001596,-0.001375, 37,0.000426,-0.001592,  37.381
    51.2,-0.001607,-0.001381, 37,0.000439,-0.001613,  37.382
    51.4,-0.001610,-0.001388, 37,0.000492,-0.001633,  37.380
    51.6,-0.001616,-0.001391, 37,0.000547,-0.001633,  37.378
    51.8,-0.001620,-0.001398, 37,0.000610,-0.001654,  37.379
    52.0,-0.001624,-0.001405, 37,0.000675,-0.001641,  37.376
    52.2,-0.001626,-0.001409, 37,0.000593,-0.001608,  37.374
    52.4,-0.001635,-0.001414, 37,0.000454,-0.001608,  37.378
    52.6,-0.001642,-0.001425, 37,0.000251,-0.001596,  37.374
    52.8,-0.001647,-0.001428, 37,0.000249,-0.001629,  37.371
    53.0,-0.001631,-0.001431, 37,0.000318,-0.001641,  37.370
    53.2,-0.001606,-0.001439, 37,0.000453,-0.001662,  37.368
    53.4,-0.001573,-0.001446, 37,0.000487,-0.001649,  37.366
    53.6,-0.001552,-0.001453, 37,0.000500,-0.001649,  37.362
    53.8,-0.001533,-0.001460, 37,0.000485,-0.001682,  37.357
    54.0,-0.001514,-0.001440, 37,0.000515,-0.001682,  37.369
    54.2,-0.001498,-0.001409, 37,0.000555,-0.001662,  37.384
    54.4,-0.001484,-0.001365, 37,0.000604,-0.001662,  37.394
    54.6,-0.001465,-0.001308, 37,0.000387,-0.001682,  37.404
    54.8,-0.001454,-0.001288, 37,0.000050,-0.001670,  37.415
    55.0,-0.001439,-0.001281, 37,-0.000416,-0.001657,  37.426
    55.2,-0.001427,-0.001278, 37,-0.000292,-0.001678,  37.433
    55.4,-0.001437,-0.001265, 37,0.000067,-0.001690,  37.440
    55.6,-0.001459,-0.001251, 37,0.000655,-0.001678,  37.444
    55.8,-0.001479,-0.001236, 37,0.000947,-0.001698,  37.451
    56.0,-0.001537,-0.001222, 37,0.001205,-0.001686,  37.456
    56.2,-0.001611,-0.001210, 37,0.001436,-0.001694,  37.460
    56.4,-0.001703,-0.001200, 37,0.001327,-0.001669,  37.462
    56.6,-0.001760,-0.001204, 37,0.001024,-0.001644,  37.473
    56.8,-0.001815,-0.001214, 37,0.000535,-0.001652,  37.491
    57.0,-0.001859,-0.001230, 37,0.000658,-0.001627,  37.485
    57.2,-0.001891,-0.001267, 37,0.000987,-0.001635,  37.449
    57.4,-0.001911,-0.001309, 37,0.001515,-0.001643,  37.389
    57.6,-0.001914,-0.001361, 37,0.001608,-0.001597,  37.354
    57.8,-0.001896,-0.001433, 37,0.001591,-0.001572,  37.337
    58.0,-0.001888,-0.001522, 37,0.001449,-0.001580,  37.320
    58.2,-0.001883,-0.001618, 37,0.001335,-0.001547,  37.299
    58.4,-0.001868,-0.001660, 37,0.001184,-0.001547,  37.291
    58.6,-0.001860,-0.001677, 37,0.000988,-0.001630,  37.291
    58.8,-0.001857,-0.001675, 37,0.000904,-0.001718,  37.287
    59.0,-0.001854,-0.001681, 37,0.000841,-0.001876,  37.285
    59.2,-0.001831,-0.001678, 37,0.000816,-0.001934,  37.278
    59.4,-0.001796,-0.001667, 37,0.000755,-0.001934,  37.276
    59.6,-0.001753,-0.001665, 37,0.000697,-0.001922,  37.277
    59.8,-0.001712,-0.001661, 37,0.000624,-0.001909,  37.271
    60.0,-0.001667,-0.001657, 37,0.000608,-0.001909,  37.271
    60.2,-0.001609,-0.001645, 37,0.000625,-0.001863,  37.268
    60.4,-0.001591,-0.001627, 37,0.000658,-0.001851,  37.267
    60.6,-0.001583,-0.001606, 37,0.000744,-0.001872,  37.268
    60.8,-0.001588,-0.001553, 37,0.000867,-0.001880,  37.274
    61.0,-0.001594,-0.001482, 37,0.001018,-0.001900,  37.273
    61.2,-0.001602,-0.001397, 37,0.001207,-0.001875,  37.269
    61.4,-0.001616,-0.001369, 37,0.001263,-0.001875,  37.270
    61.6,-0.001627,-0.001352, 37,0.001286,-0.001875,  37.270
    61.8,-0.001632,-0.001356, 37,0.001284,-0.001883,  37.272
    62.0,-0.001643,-0.001359, 37,0.001252,-0.001879,  37.270
    62.2,-0.001646,-0.001365, 37,0.001178,-0.001829,  37.266
    62.4,-0.001655,-0.001380, 37,0.001082,-0.001824,  37.266
    62.6,-0.001650,-0.001390, 37,0.001079,-0.001766,  37.266
    62.8,-0.001660,-0.001400, 37,0.001102,-0.001741,  37.245
    63.0,-0.001674,-0.001410, 37,0.001155,-0.001762,  37.233
    63.2,-0.001693,-0.001419, 37,0.001101,-0.001716,  37.245
    63.4,-0.001706,-0.001430, 37,0.001006,-0.001729,  37.259
    63.6,-0.001711,-0.001438, 37,0.000880,-0.001762,  37.286
    63.8,-0.001717,-0.001448, 37,0.000849,-0.001737,  37.288
    64.0,-0.001725,-0.001459, 37,0.000840,-0.001737,  37.292
    64.2,-0.001732,-0.001468, 37,0.000872,-0.001757,  37.286
    64.4,-0.001725,-0.001472, 37,0.000900,-0.001732,  37.283
    64.6,-0.001733,-0.001486, 37,0.000936,-0.001707,  37.285
    64.8,-0.001737,-0.001497, 37,0.000984,-0.001740,  37.284
    65.0,-0.001740,-0.001508, 37,0.000797,-0.001753,  37.287
    65.2,-0.001741,-0.001517, 37,0.000504,-0.001811,  37.289
    65.4,-0.001749,-0.001517, 37,0.000092,-0.001798,  37.287
    65.6,-0.001747,-0.001517, 37,-0.000184,-0.001811,  37.282
    65.8,-0.001748,-0.001523, 37,-0.000446,-0.001823,  37.291
    66.0,-0.001750,-0.001526, 37,-0.000695,-0.001844,  37.285
    66.2,-0.001745,-0.001525, 37,-0.000597,-0.001864,  37.289
    66.4,-0.001742,-0.001530, 37,-0.000336,-0.001852,  37.282
    66.6,-0.001746,-0.001531, 37,0.000113,-0.001860,  37.282
    66.8,-0.001747,-0.001530, 37,0.000312,-0.001893,  37.279
    67.0,-0.001746,-0.001532, 37,0.000463,-0.001860,  37.277
    67.2,-0.001747,-0.001532, 37,0.000583,-0.001847,  37.279
    67.4,-0.001742,-0.001535, 37,0.000671,-0.001835,  37.275
    67.6,-0.001728,-0.001534, 37,0.000715,-0.001835,  37.278
    67.8,-0.001732,-0.001536, 37,0.000719,-0.001856,  37.279
    68.0,-0.001736,-0.001538, 37,0.000356,-0.001843,  37.274
    68.2,-0.001745,-0.001538, 37,-0.000202,-0.001864,  37.277
    68.4,-0.001746,-0.001537, 37,-0.000977,-0.001884,  37.272
    68.6,-0.001755,-0.001537, 37,-0.001128,-0.001864,  37.273
    68.8,-0.001753,-0.001538, 37,-0.001072,-0.001876,  37.271
    69.0,-0.001753,-0.001546, 37,-0.000807,-0.001897,  37.272
    69.2,-0.001754,-0.001552, 37,-0.000553,-0.001884,  37.271
    69.4,-0.001758,-0.001557, 37,-0.000206,-0.001905,  37.271
    69.6,-0.001764,-0.001559, 37,0.000240,-0.001913,  37.274
    69.8,-0.001765,-0.001562, 37,0.000430,-0.001913,  37.267
    70.0,-0.001768,-0.001567, 37,0.000542,-0.001913,  37.268
    70.2,-0.001772,-0.001564, 37,0.000574,-0.001913,  37.266
    70.4,-0.001774,-0.001563, 37,0.000677,-0.001933,  37.261
    70.6,-0.001775,-0.001566, 37,0.000773,-0.001900,  37.255
    70.8,-0.001771,-0.001570, 37,0.000865,-0.001888,  37.254
    71.0,-0.001762,-0.001571, 37,0.000952,-0.001908,  37.249
    71.2,-0.001761,-0.001571, 37,0.000800,-0.001896,  37.246
    71.4,-0.001760,-0.001574, 37,0.000556,-0.001896,  37.246
    71.6,-0.001763,-0.001574, 37,0.000211,-0.001916,  37.243
    71.8,-0.001768,-0.001574, 37,0.000233,-0.001916,  37.241
    72.0,-0.001774,-0.001575, 37,0.000383,-0.001904,  37.239
    72.2,-0.001774,-0.001577, 37,0.000663,-0.001924,  37.239
    72.4,-0.001773,-0.001579, 37,0.000766,-0.001958,  37.241
    72.6,-0.001771,-0.001576, 37,0.000834,-0.001912,  37.241
    72.8,-0.001768,-0.001575, 37,0.000876,-0.001899,  37.240
    73.0,-0.001765,-0.001572, 37,0.000680,-0.001920,  37.235
    73.2,-0.001765,-0.001577, 37,0.000360,-0.001907,  37.235
    73.4,-0.001756,-0.001576, 37,-0.000086,-0.001882,  37.230
    73.6,-0.001755,-0.001579, 37,-0.000252,-0.001903,  37.226
    73.8,-0.001757,-0.001579, 37,-0.000330,-0.001903,  37.231
    74.0,-0.001758,-0.001579, 37,-0.000337,-0.001924,  37.229
    74.2,-0.001758,-0.001578, 37,-0.000181,-0.001911,  37.229
    74.4,-0.001759,-0.001579, 37,0.000090,-0.001911,  37.228
    74.6,-0.001757,-0.001581, 37,0.000477,-0.001919,  37.231
    74.8,-0.001760,-0.001578, 37,0.000643,-0.001907,  37.225
    75.0,-0.001767,-0.001582, 37,0.000752,-0.001907,  37.228
    75.2,-0.001764,-0.001580, 37,0.000813,-0.001927,  37.229
    75.4,-0.001765,-0.001579, 37,0.000897,-0.001902,  37.230
    75.6,-0.001764,-0.001579, 37,0.000957,-0.001915,  37.226
    75.8,-0.001765,-0.001578, 37,0.001002,-0.001935,  37.232
    76.0,-0.001767,-0.001578, 37,0.000919,-0.001923,  37.228
    76.2,-0.001762,-0.001577, 37,0.000756,-0.001956,  37.228
    76.4,-0.001764,-0.001579, 37,0.000516,-0.001943,  37.228
    76.6,-0.001763,-0.001581, 37,0.000526,-0.001931,  37.228
    76.8,-0.001762,-0.001584, 37,0.000623,-0.001931,  37.223
    77.0,-0.001758,-0.001581, 37,0.000798,-0.001906,  37.222
    77.2,-0.001759,-0.001577, 37,0.000895,-0.001906,  37.231
    77.4,-0.001760,-0.001579, 37,0.000996,-0.001906,  37.225
    77.6,-0.001762,-0.001578, 37,0.001099,-0.001926,  37.227
    77.8,-0.001763,-0.001581, 37,0.000851,-0.001901,  37.224
    78.0,-0.001764,-0.001579, 37,0.000422,-0.001901,  37.225
    78.2,-0.001765,-0.001574, 37,-0.000178,-0.001922,  37.223
    78.4,-0.001765,-0.001567, 37,-0.000409,-0.001942,  37.225
    78.6,-0.001772,-0.001565, 37,-0.000532,-0.001930,  37.227
    78.8,-0.001771,-0.001565, 37,-0.000556,-0.001917,  37.225
    79.0,-0.001774,-0.001568, 37,-0.000438,-0.001951,  37.225
    79.2,-0.001773,-0.001573, 37,-0.000194,-0.001938,  37.221
    79.4,-0.001779,-0.001577, 37,0.000178,-0.001959,  37.224
    79.6,-0.001782,-0.001584, 37,0.000377,-0.001946,  37.222
    79.8,-0.001782,-0.001585, 37,0.000548,-0.001934,  37.221
    80.0,-0.001783,-0.001590, 37,0.000686,-0.001921,  37.223
    80.2,-0.001786,-0.001591, 37,0.000811,-0.001921,  37.219
    80.4,-0.001784,-0.001592, 37,0.000912,-0.001942,  37.218
    80.6,-0.001788,-0.001597, 37,0.000996,-0.001942,  37.214
    80.8,-0.001787,-0.001598, 37,0.001050,-0.001975,  37.222
    81.0,-0.001786,-0.001604, 37,0.001104,-0.001954,  37.217
    81.2,-0.001796,-0.001615, 37,0.001134,-0.001934,  37.219
    81.4,-0.001804,-0.001622, 37,0.001145,-0.001954,  37.220
    81.6,-0.001814,-0.001626, 37,0.001164,-0.001942,  37.217
    81.8,-0.001825,-0.001628, 37,0.001165,-0.001950,  37.219
    82.0,-0.001828,-0.001630, 37,0.001158,-0.001970,  37.222
    82.2,-0.001831,-0.001633, 37,0.001203,-0.001970,  37.218
    82.4,-0.001835,-0.001635, 37,0.001265,-0.002003,  37.219
    82.6,-0.001837,-0.001638, 37,0.001342,-0.001978,  37.220
    82.8,-0.001832,-0.001637, 37,0.001356,-0.001978,  37.221
    83.0,-0.001835,-0.001638, 37,0.001336,-0.001978,  37.219
    83.2,-0.001836,-0.001648, 37,0.001291,-0.001999,  37.223
    83.4,-0.001844,-0.001657, 37,0.001301,-0.001986,  37.223
    83.6,-0.001847,-0.001659, 37,0.001325,-0.001999,  37.227
    83.8,-0.001848,-0.001663, 37,0.001363,-0.002032,  37.222
    84.0,-0.001851,-0.001659, 37,0.001347,-0.002040,  37.223
    84.2,-0.001854,-0.001663, 37,0.001306,-0.002007,  37.225
    84.4,-0.001858,-0.001669, 37,0.001251,-0.001994,  37.230
    84.6,-0.001858,-0.001669, 37,0.001247,-0.002048,  37.227
    84.8,-0.001863,-0.001670, 37,0.001263,-0.002036,  37.230
    85.0,-0.001871,-0.001673, 37,0.001303,-0.002023,  37.230
    85.2,-0.001875,-0.001673, 37,0.001288,-0.002056,  37.232
    85.4,-0.001870,-0.001682, 37,0.001261,-0.002023,  37.237
    85.6,-0.001873,-0.001684, 37,0.001219,-0.002044,  37.238
    85.8,-0.001877,-0.001691, 37,0.001192,-0.002044,  37.236
    86.0,-0.001880,-0.001695, 37,0.001163,-0.002044,  37.240
    86.2,-0.001884,-0.001698, 37,0.001127,-0.002064,  37.237
    86.4,-0.001887,-0.001690, 37,0.001158,-0.002019,  37.237
    86.6,-0.001888,-0.001690, 37,0.001223,-0.002019,  37.242
    86.8,-0.001892,-0.001695, 37,0.001320,-0.002039,  37.240
    87.0,-0.001887,-0.001699, 37,0.001340,-0.002014,  37.244
    87.2,-0.001888,-0.001702, 37,0.001335,-0.002027,  37.246
    87.4,-0.001889,-0.001704, 37,0.001316,-0.002060,  37.245
    87.6,-0.001896,-0.001712, 37,0.001341,-0.002047,  37.246
    87.8,-0.001891,-0.001721, 37,0.001373,-0.002060,  37.247
    88.0,-0.001894,-0.001718, 37,0.001423,-0.002081,  37.244
    88.2,-0.001895,-0.001718, 37,0.001432,-0.002068,  37.251
    88.4,-0.001898,-0.001722, 37,0.001435,-0.002101,  37.253
    88.6,-0.001901,-0.001723, 37,0.001427,-0.002122,  37.249
    88.8,-0.001893,-0.001720, 37,0.001398,-0.002122,  37.253
    89.0,-0.001893,-0.001721, 37,0.001373,-0.002109,  37.255
    89.2,-0.001899,-0.001726, 37,0.001336,-0.002089,  37.256
    89.4,-0.001902,-0.001728, 37,0.001294,-0.002109,  37.251
    89.6,-0.001906,-0.001728, 37,0.001274,-0.002109,  37.254
    89.8,-0.001905,-0.001730, 37,0.001270,-0.002084,  37.255
    90.0,-0.001902,-0.001733, 37,0.001273,-0.002105,  37.255
    90.2,-0.001900,-0.001733, 37,0.001267,-0.002092,  37.255
    90.4,-0.001897,-0.001733, 37,0.001264,-0.002059,  37.255
    90.6,-0.001896,-0.001732, 37,0.001256,-0.002059,  37.256
    90.8,-0.001904,-0.001728, 37,0.001265,-0.002080,  37.259
    91.0,-0.001905,-0.001730, 37,0.001274,-0.002080,  37.253
    91.2,-0.001914,-0.001723, 37,0.001285,-0.002067,  37.258
    91.4,-0.001917,-0.001722, 37,0.001296,-0.002121,  37.255
    91.6,-0.001923,-0.001723, 37,0.001316,-0.002121,  37.257
    91.8,-0.001929,-0.001722, 37,0.001335,-0.002142,  37.257
    92.0,-0.001923,-0.001723, 37,0.001326,-0.002129,  37.259
    92.2,-0.001927,-0.001725, 37,0.001313,-0.002117,  37.260
    92.4,-0.001926,-0.001732, 37,0.001282,-0.002137,  37.264
    92.6,-0.001919,-0.001733, 37,0.001267,-0.002125,  37.261
    92.8,-0.001918,-0.001734, 37,0.001258,-0.002125,  37.261
    93.0,-0.001921,-0.001736, 37,0.001245,-0.002145,  37.259
    93.2,-0.001922,-0.001732, 37,0.001246,-0.002133,  37.260
    93.4,-0.001919,-0.001733, 37,0.001255,-0.002125,  37.264
    93.6,-0.001920,-0.001733, 37,0.001262,-0.002158,  37.259
    93.8,-0.001918,-0.001733, 37,0.001291,-0.002133,  37.262
    94.0,-0.001921,-0.001736, 37,0.001326,-0.002133,  37.256
    94.2,-0.001928,-0.001734, 37,0.001371,-0.002153,  37.259
    94.4,-0.001929,-0.001732, 37,0.001396,-0.002128,  37.263
    94.6,-0.001929,-0.001733, 37,0.001410,-0.002116,  37.263
    94.8,-0.001930,-0.001739, 37,0.001419,-0.002136,  37.265
    95.0,-0.001934,-0.001739, 37,0.001444,-0.002136,  37.263
    95.2,-0.001925,-0.001740, 37,0.001460,-0.002136,  37.263
    95.4,-0.001926,-0.001742, 37,0.001485,-0.002136,  37.265
    95.6,-0.001924,-0.001742, 37,0.001481,-0.002136,  37.265
    95.8,-0.001923,-0.001744, 37,0.001456,-0.002149,  37.264
    96.0,-0.001919,-0.001751, 37,0.001428,-0.002157,  37.265
    96.2,-0.001913,-0.001755, 37,0.001447,-0.002144,  37.264
    96.4,-0.001914,-0.001760, 37,0.001474,-0.002144,  37.265
    96.6,-0.001908,-0.001758, 37,0.001527,-0.002165,  37.260
    96.8,-0.001907,-0.001754, 37,0.001540,-0.002140,  37.262
    97.0,-0.001905,-0.001753, 37,0.001536,-0.002119,  37.261
    97.2,-0.001905,-0.001748, 37,0.001536,-0.002107,  37.260
    97.4,-0.001897,-0.001740, 37,0.001513,-0.002127,  37.261
    97.6,-0.001891,-0.001736, 37,0.001528,-0.002161,  37.256
    97.8,-0.001884,-0.001732, 37,0.001551,-0.002148,  37.256
    98.0,-0.001866,-0.001732, 37,0.001580,-0.002169,  37.261
    98.2,-0.001852,-0.001727, 37,0.001613,-0.002177,  37.256
    98.4,-0.001830,-0.001717, 37,0.001651,-0.002177,  37.251
    98.6,-0.001809,-0.001715, 37,0.001688,-0.002185,  37.250
    98.8,-0.001782,-0.001704, 37,0.001690,-0.002172,  37.252
    99.0,-0.001747,-0.001686, 37,0.001676,-0.002160,  37.252
    99.2,-0.001708,-0.001669, 37,0.001643,-0.002181,  37.249
    99.4,-0.001665,-0.001651, 37,0.001649,-0.002181,  37.246
    99.6,-0.001612,-0.001637, 37,0.001655,-0.002135,  37.249
    99.8,-0.001553,-0.001616, 37,0.001675,-0.002143,  37.243
   100.0,-0.001489,-0.001601, 37,0.001726,-0.002176,  37.241
   100.2,-0.001407,-0.001566, 37,0.001791,-0.002164,  37.241
   100.4,-0.001317,-0.001530, 37,0.001876,-0.002184,  37.237
   100.6,-0.001217,-0.001486, 37,0.001985,-0.002159,  37.228
   100.8,-0.001106,-0.001434, 37,0.002117,-0.002159,  37.231
   101.0,-0.000987,-0.001370, 37,0.002264,-0.002147,  37.226
   101.2,-0.000850,-0.001303, 37,0.002396,-0.002121,  37.231
   101.4,-0.000736,-0.001227, 37,0.002527,-0.002096,  37.224
   101.6,-0.000630,-0.001134, 37,0.002662,-0.002104,  37.219
   101.8,-0.000518,-0.001037, 37,0.002856,-0.002113,  37.216
   102.0,-0.000421,-0.000923, 37,0.003087,-0.002075,  37.212
   102.2,-0.000292,-0.000792, 37,0.003342,-0.002058,  37.211
   102.4,-0.000160,-0.000647, 37,0.003643,-0.002066,  37.205
   102.6,-0.000007,-0.000498, 37,0.003979,-0.001995,  37.193
   102.8,0.000133,-0.000344, 37,0.004346,-0.001945,  37.191
   103.0,0.000265,-0.000183, 37,0.004634,-0.001920,  37.185
   103.2,0.000407,-0.000017, 37,0.004900,-0.001882,  37.180
   103.4,0.000522,0.000151, 37,0.005140,-0.001819,  37.174
   103.6,0.000627,0.000321, 37,0.005399,-0.001802,  37.170
   103.8,0.000725,0.000474, 37,0.005657,-0.001739,  37.171
   104.0,0.000808,0.000628, 37,0.005906,-0.001697,  37.162
   104.2,0.000884,0.000779, 37,0.006143,-0.001622,  37.163
   104.4,0.000950,0.000918, 37,0.006371,-0.001559,  37.158
   104.6,0.000992,0.001050, 37,0.006586,-0.001529,  37.157
   104.8,0.001017,0.001174, 37,0.006758,-0.001453,  37.154
   105.0,0.001025,0.001269, 37,0.006905,-0.001391,  37.147
   105.2,0.001032,0.001339, 37,0.007022,-0.001361,  37.146
   105.4,0.001034,0.001387, 37,0.007155,-0.001285,  37.149
   105.6,0.001021,0.001439, 37,0.007290,-0.001210,  37.149
   105.8,0.001010,0.001486, 37,0.007416,-0.001193,  37.146
   106.0,0.000998,0.001521, 37,0.007486,-0.001142,  37.150
   106.2,0.000979,0.001532, 37,0.007526,-0.001150,  37.145
   106.4,0.000980,0.001533, 37,0.007538,-0.001125,  37.143
   106.6,0.000996,0.001520, 37,0.007520,-0.001087,  37.146
   106.8,0.001011,0.001518, 37,0.007480,-0.001083,  37.148
   107.0,0.001035,0.001515, 37,0.007413,-0.001058,  37.144
   107.2,0.001067,0.001514, 37,0.007313,-0.001066,  37.144
   107.4,0.001107,0.001512, 37,0.007282,-0.001074,  37.139
   107.6,0.001139,0.001522, 37,0.007265,-0.001028,  37.134
   107.8,0.001174,0.001523, 37,0.007263,-0.001015,  37.127
   108.0,0.001213,0.001532, 37,0.007256,-0.001036,  37.127
   108.2,0.001257,0.001544, 37,0.007254,-0.000990,  37.131
   108.4,0.001311,0.001561, 37,0.007262,-0.000978,  37.133
   108.6,0.001360,0.001584, 37,0.007310,-0.001031,  37.129
   108.8,0.001404,0.001624, 37,0.007388,-0.001031,  37.126
   109.0,0.001443,0.001672, 37,0.007494,-0.001039,  37.122
   109.2,0.001488,0.001731, 37,0.007577,-0.001014,  37.123
   109.4,0.001517,0.001783, 37,0.007667,-0.001002,  37.122
   109.6,0.001526,0.001839, 37,0.007747,-0.000997,  37.123
   109.8,0.001545,0.001891, 37,0.007482,-0.000985,  37.113
   110.0,0.001542,0.001934, 37,0.007044,-0.000980,  37.114
   110.2,0.001540,0.001966, 37,0.006433,-0.000975,  37.111
   110.4,0.001514,0.001995, 37,0.006517,-0.000917,  37.113
   110.6,0.001489,0.002019, 37,0.006865,-0.000892,  37.111
   110.8,0.001448,0.002038, 37,0.007481,-0.000887,  37.109
   111.0,0.001395,0.002059, 37,0.007632,-0.000837,  37.109
   111.2,0.001332,0.002060, 37,0.007691,-0.000799,  37.105
   111.4,0.001263,0.002046, 37,0.007660,-0.000840,  37.102
   111.6,0.001184,0.002029, 37,0.007454,-0.000815,  37.100
   111.8,0.001101,0.001993, 37,0.007116,-0.000802,  37.103
   112.0,0.001019,0.001938, 37,0.006653,-0.000810,  37.097
   112.2,0.000930,0.001874, 37,0.006544,-0.000831,  37.098
   112.4,0.000852,0.001803, 37,0.006544,-0.000773,  37.097
   112.6,0.000763,0.001722, 37,0.006657,-0.000747,  37.096
   112.8,0.000675,0.001636, 37,0.006628,-0.000814,  37.099
   113.0,0.000583,0.001549, 37,0.006579,-0.000826,  37.095
   113.2,0.000495,0.001456, 37,0.006509,-0.000860,  37.094
   113.4,0.000409,0.001361, 37,0.006240,-0.000860,  37.095
   113.6,0.000328,0.001256, 37,0.005861,-0.000885,  37.092
   113.8,0.000239,0.001147, 37,0.005362,-0.000931,  37.089
   114.0,0.000160,0.001023, 37,0.005208,-0.000910,  37.088
   114.2,0.000084,0.000921, 37,0.005170,-0.000948,  37.086
   114.4,0.000016,0.000822, 37,0.005241,-0.000994,  37.087
   114.6,-0.000042,0.000727, 37,0.005196,-0.001019,  37.087
   114.8,-0.000089,0.000637, 37,0.005159,-0.001090,  37.087
   115.0,-0.000140,0.000552, 37,0.005104,-0.001103,  37.083
   115.2,-0.000197,0.000474, 37,0.005063,-0.001149,  37.075
   115.4,-0.000254,0.000392, 37,0.004981,-0.001161,  37.073
   115.6,-0.000304,0.000320, 37,0.004884,-0.001187,  37.072
   115.8,-0.000347,0.000252, 37,0.004772,-0.001266,  37.075
   116.0,-0.000392,0.000178, 37,0.004685,-0.001278,  37.074
   116.2,-0.000436,0.000105, 37,0.004594,-0.001304,  37.075
   116.4,-0.000474,0.000038, 37,0.004519,-0.001349,  37.071
   116.6,-0.000517,-0.000013, 37,0.004451,-0.001349,  37.075
   116.8,-0.000554,-0.000056, 37,0.004379,-0.001341,  37.073
   117.0,-0.000583,-0.000090, 37,0.004319,-0.001341,  37.074
   117.2,-0.000610,-0.000117, 37,0.004225,-0.001400,  37.074
   117.4,-0.000645,-0.000160, 37,0.004111,-0.001412,  37.069
   117.6,-0.000670,-0.000207, 37,0.003979,-0.001412,  37.069
   117.8,-0.000695,-0.000253, 37,0.003917,-0.001458,  37.073
   118.0,-0.000718,-0.000295, 37,0.003875,-0.001471,  37.068
   118.2,-0.000736,-0.000331, 37,0.003856,-0.001484,  37.070
   118.4,-0.000744,-0.000369, 37,0.003796,-0.001496,  37.072
   118.6,-0.000757,-0.000405, 37,0.003732,-0.001509,  37.073
   118.8,-0.000774,-0.000442, 37,0.003667,-0.001542,  37.073
   119.0,-0.000790,-0.000470, 37,0.003577,-0.001542,  37.071
   119.2,-0.000807,-0.000500, 37,0.003465,-0.001563,  37.074
   119.4,-0.000816,-0.000523, 37,0.003343,-0.001583,  37.074
   119.6,-0.000836,-0.000546, 37,0.003293,-0.001583,  37.068
   119.8,-0.000850,-0.000570, 37,0.003265,-0.001629,  37.072
   120.0,-0.000862,-0.000588, 37,0.003263,-0.001675,  37.067
   120.2,-0.000879,-0.000608, 37,0.003272,-0.001642,  37.071
   120.4,-0.000893,-0.000630, 37,0.003287,-0.001642,  37.071
   120.6,-0.000907,-0.000646, 37,0.003320,-0.001675,  37.075
   120.8,-0.000924,-0.000667, 37,0.003320,-0.001663,  37.073
   121.0,-0.000935,-0.000687, 37,0.003315,-0.001637,  37.071
   121.2,-0.000942,-0.000701, 37,0.003297,-0.001658,  37.073
   121.4,-0.000956,-0.000722, 37,0.003264,-0.001658,  37.076
   121.6,-0.000960,-0.000741, 37,0.003222,-0.001671,  37.073
   121.8,-0.000975,-0.000759, 37,0.003170,-0.001691,  37.074
   122.0,-0.000991,-0.000774, 37,0.003171,-0.001725,  37.074
   122.2,-0.001003,-0.000791, 37,0.003183,-0.001712,  37.075
   122.4,-0.001015,-0.000803, 37,0.003214,-0.001733,  37.077
   122.6,-0.001025,-0.000812, 37,0.003179,-0.001766,  37.077
   122.8,-0.001029,-0.000822, 37,0.003112,-0.001700,  37.076
   123.0,-0.001044,-0.000839, 37,0.003021,-0.001687,  37.074
   123.2,-0.001054,-0.000851, 37,0.002975,-0.001720,  37.079
   123.4,-0.001063,-0.000863, 37,0.002930,-0.001720,  37.081
   123.6,-0.001073,-0.000879, 37,0.002898,-0.001708,  37.080
   123.8,-0.001083,-0.000888, 37,0.002760,-0.001741,  37.081
   124.0,-0.001082,-0.000903, 37,0.002583,-0.001728,  37.081
   124.2,-0.001090,-0.000922, 37,0.002345,-0.001762,  37.082
   124.4,-0.001092,-0.000937, 37,0.002071,-0.001749,  37.079
   124.6,-0.001099,-0.000947, 37,0.002116,-0.001749,  37.081
   124.8,-0.001107,-0.000952, 37,0.002255,-0.001728,  37.084
   125.0,-0.001117,-0.000955, 37,0.002501,-0.001749,  37.080
   125.2,-0.001127,-0.000969, 37,0.002574,-0.001770,  37.080
   125.4,-0.001138,-0.000976, 37,0.002620,-0.001757,  37.081
   125.6,-0.001138,-0.000982, 37,0.002634,-0.001765,  37.081
   125.8,-0.001133,-0.000989, 37,0.002702,-0.001765,  37.081
   126.0,-0.001136,-0.000996, 37,0.002793,-0.001765,  37.083
   126.2,-0.001139,-0.000994, 37,0.002894,-0.001786,  37.085
   126.4,-0.001134,-0.000996, 37,0.002935,-0.001753,  37.083
   126.6,-0.001130,-0.001003, 37,0.002954,-0.001753,  37.081
   126.8,-0.001136,-0.001009, 37,0.002943,-0.001773,  37.083
   127.0,-0.001136,-0.001018, 37,0.002920,-0.001773,  37.085
   127.2,-0.001137,-0.001022, 37,0.002885,-0.001807,  37.084
   127.4,-0.001138,-0.001025, 37,0.002832,-0.001794,  37.083
   127.6,-0.001141,-0.001034, 37,0.002867,-0.001794,  37.082
   127.8,-0.001146,-0.001039, 37,0.002937,-0.001781,  37.078
   128.0,-0.001146,-0.001045, 37,0.003045,-0.001802,  37.079
   128.2,-0.001156,-0.001055, 37,0.002775,-0.001823,  37.082
   128.4,-0.001161,-0.001064, 37,0.002348,-0.001823,  37.079
   128.6,-0.001159,-0.001065, 37,0.001742,-0.001844,  37.080
   128.8,-0.001168,-0.001063, 37,0.001724,-0.001864,  37.084
   129.0,-0.001160,-0.001067, 37,0.001927,-0.001810,  37.085
   129.2,-0.001169,-0.001068, 37,0.002338,-0.001798,  37.085
   129.4,-0.001166,-0.001069, 37,0.002509,-0.001831,  37.083
   129.6,-0.001172,-0.001073, 37,0.002670,-0.001818,  37.082
   129.8,-0.001173,-0.001077, 37,0.002821,-0.001839,  37.079
   130.0,-0.001171,-0.001084, 37,0.002932,-0.001839,  37.078
   130.2,-0.001171,-0.001093, 37,0.003021,-0.001860,  37.078
   130.4,-0.001172,-0.001101, 37,0.003076,-0.001847,  37.073
   130.6,-0.001163,-0.001108, 37,0.003160,-0.001860,  37.077
   130.8,-0.001158,-0.001116, 37,0.003237,-0.001826,  37.072
   131.0,-0.001157,-0.001117, 37,0.003315,-0.001835,  37.073
   131.2,-0.001152,-0.001118, 37,0.003382,-0.001868,  37.074
   131.4,-0.001149,-0.001119, 37,0.003430,-0.001855,  37.071
   131.6,-0.001145,-0.001119, 37,0.003475,-0.001876,  37.067
   131.8,-0.001154,-0.001120, 37,0.003568,-0.001876,  37.073
   132.0,-0.001155,-0.001119, 37,0.003668,-0.001855,  37.074
   132.2,-0.001151,-0.001116, 37,0.003789,-0.001889,  37.070
   132.4,-0.001148,-0.001116, 37,0.003861,-0.001897,  37.066
   132.6,-0.001128,-0.001119, 37,0.003904,-0.001884,  37.071
   132.8,-0.001118,-0.001123, 37,0.003934,-0.001872,  37.071
   133.0,-0.001117,-0.001125, 37,0.003939,-0.001892,  37.070
   133.2,-0.001108,-0.001131, 37,0.003993,-0.001892,  37.070
   133.4,-0.001107,-0.001136, 37,0.004064,-0.001892,  37.067
   133.6,-0.001097,-0.001139, 37,0.004145,-0.001913,  37.065
   133.8,-0.001093,-0.001139, 37,0.004186,-0.001913,  37.066
   134.0,-0.001088,-0.001137, 37,0.004206,-0.001913,  37.069
   134.2,-0.001082,-0.001130, 37,0.004217,-0.001934,  37.071
   134.4,-0.001079,-0.001128, 37,0.004247,-0.001967,  37.066
   134.6,-0.001069,-0.001127, 37,0.004281,-0.001921,  37.067
   134.8,-0.001068,-0.001126, 37,0.004324,-0.001909,  37.069
   135.0,-0.001062,-0.001123, 37,0.004407,-0.001950,  37.073
   135.2,-0.001058,-0.001124, 37,0.004520,-0.001937,  37.068
   135.4,-0.001049,-0.001117, 37,0.004659,-0.001912,  37.071
   135.6,-0.001031,-0.001114, 37,0.004653,-0.001945,  37.071
   135.8,-0.001023,-0.001114, 37,0.004593,-0.001925,  37.073
   136.0,-0.001015,-0.001119, 37,0.004465,-0.001912,  37.072
   136.2,-0.001006,-0.001118, 37,0.004520,-0.001933,  37.072
   136.4,-0.001001,-0.001112, 37,0.004644,-0.001887,  37.061
   136.6,-0.000987,-0.001106, 37,0.004833,-0.001908,  37.064
   136.8,-0.000974,-0.001099, 37,0.004991,-0.001908,  37.064
   137.0,-0.000968,-0.001098, 37,0.005171,-0.001920,  37.063
   137.2,-0.000955,-0.001097, 37,0.005378,-0.001941,  37.065
   137.4,-0.000957,-0.001095, 37,0.005507,-0.001920,  37.065
   137.6,-0.000942,-0.001095, 37,0.005592,-0.001933,  37.064
   137.8,-0.000932,-0.001091, 37,0.005645,-0.001941,  37.062
   138.0,-0.000919,-0.001081, 37,0.005743,-0.001928,  37.065
   138.2,-0.000907,-0.001074, 37,0.005841,-0.001916,  37.058
   138.4,-0.000892,-0.001067, 37,0.005939,-0.001937,  37.060
   138.6,-0.000875,-0.001062, 37,0.006059,-0.001911,  37.059
   138.8,-0.000855,-0.001055, 37,0.006199,-0.001924,  37.058
   139.0,-0.000850,-0.001046, 37,0.006347,-0.001945,  37.058
   139.2,-0.000835,-0.001038, 37,0.006513,-0.001932,  37.057
   139.4,-0.000823,-0.001033, 37,0.006695,-0.001953,  37.053
   139.6,-0.000813,-0.001023, 37,0.006881,-0.001940,  37.056
   139.8,-0.000806,-0.001018, 37,0.007036,-0.001932,  37.052
   140.0,-0.000790,-0.001013, 37,0.007177,-0.001911,  37.056
   140.2,-0.000776,-0.001007, 37,0.007313,-0.001932,  37.048
   140.4,-0.000765,-0.001000, 37,0.007423,-0.001932,  37.047
   140.6,-0.000747,-0.000993, 37,0.007513,-0.001919,  37.043
   140.8,-0.000730,-0.000989, 37,0.007581,-0.001961,  37.043
   141.0,-0.000716,-0.000986, 37,0.007697,-0.001948,  37.044
   141.2,-0.000695,-0.000981, 37,0.007835,-0.001923,  37.042
   141.4,-0.000683,-0.000978, 37,0.007974,-0.001931,  37.034
   141.6,-0.000656,-0.000970, 37,0.008114,-0.001952,  37.030
   141.8,-0.000632,-0.000962, 37,0.008262,-0.001919,  37.029
   142.0,-0.000615,-0.000956, 37,0.008417,-0.001952,  37.032
   142.2,-0.000596,-0.000945, 37,0.008571,-0.001927,  37.030
   142.4,-0.000580,-0.000936, 37,0.008721,-0.001960,  37.029
   142.6,-0.000558,-0.000924, 37,0.008882,-0.001947,  37.029
   142.8,-0.000545,-0.000913, 37,0.009034,-0.001968,  37.027
   143.0,-0.000530,-0.000906, 37,0.009202,-0.001922,  37.025
   143.2,-0.000516,-0.000898, 37,0.009366,-0.001922,  37.029
   143.4,-0.000495,-0.000887, 37,0.009544,-0.001943,  37.026
   143.6,-0.000470,-0.000879, 37,0.009722,-0.001918,  37.033
   143.8,-0.000456,-0.000869, 37,0.009896,-0.001930,  37.029
   144.0,-0.000434,-0.000860, 37,0.010073,-0.001951,  37.030
   144.2,-0.000414,-0.000851, 37,0.009952,-0.001938,  37.031
   144.4,-0.000391,-0.000843, 37,0.009683,-0.001938,  37.033
   144.6,-0.000371,-0.000835, 37,0.009261,-0.001959,  37.031
   144.8,-0.000344,-0.000817, 37,0.009459,-0.001947,  37.032
   145.0,-0.000318,-0.000805, 37,0.009896,-0.001934,  37.032
   145.2,-0.000298,-0.000795, 37,0.010568,-0.001955,  37.031
   145.4,-0.000274,-0.000787, 37,0.010951,-0.001942,  37.036
   145.6,-0.000254,-0.000774, 37,0.011309,-0.001942,  37.032
   145.8,-0.000235,-0.000764, 37,0.011641,-0.001950,  37.039
   146.0,-0.000213,-0.000750, 37,0.011949,-0.001938,  37.035
   146.2,-0.000195,-0.000743, 37,0.012232,-0.001938,  37.037
   146.4,-0.000172,-0.000728, 37,0.012481,-0.001925,  37.036
   146.6,-0.000156,-0.000714, 37,0.012470,-0.001925,  37.040
   146.8,-0.000131,-0.000707, 37,0.012319,-0.001912,  37.038
   147.0,-0.000110,-0.000692, 37,0.012025,-0.001933,  37.037
   147.2,-0.000094,-0.000677, 37,0.012233,-0.001966,  37.040
   147.4,-0.000073,-0.000669, 37,0.012619,-0.001954,  37.036
   147.6,-0.000057,-0.000661, 37,0.013185,-0.001975,  37.040
   147.8,-0.000036,-0.000648, 37,0.013488,-0.001995,  37.041
   148.0,-0.000011,-0.000631, 37,0.013753,-0.001949,  37.032
   148.2,0.000011,-0.000618, 37,0.013971,-0.001924,  37.035
   148.4,0.000029,-0.000601, 37,0.014095,-0.001924,  37.035
   148.6,0.000061,-0.000587, 37,0.014160,-0.001924,  37.035
   148.8,0.000083,-0.000574, 37,0.014159,-0.001924,  37.036
   149.0,0.000102,-0.000566, 37,0.014320,-0.001924,  37.037
   149.2,0.000127,-0.000556, 37,0.014535,-0.001937,  37.039
   149.4,0.000148,-0.000543, 37,0.014802,-0.001957,  37.042
   149.6,0.000170,-0.000526, 37,0.015107,-0.001932,  37.041
   149.8,0.000197,-0.000510, 37,0.015458,-0.001953,  37.039
   150.0,0.000211,-0.000498, 37,0.015842,-0.001961,  37.044
   150.2,0.000232,-0.000483, 37,0.016155,-0.001915,  37.043
   150.4,0.000257,-0.000466, 37,0.016464,-0.001915,  37.046
   150.6,0.000278,-0.000457, 37,0.016750,-0.001936,  37.044
   150.8,0.000300,-0.000448, 37,0.016987,-0.001877,  37.046
   151.0,0.000338,-0.000438, 37,0.017184,-0.001890,  37.047
   151.2,0.000369,-0.000431, 37,0.017346,-0.001890,  37.050
   151.4,0.000385,-0.000415, 37,0.017474,-0.001911,  37.048
   151.6,0.000412,-0.000405, 37,0.017740,-0.001898,  37.050
   151.8,0.000438,-0.000394, 37,0.018042,-0.001898,  37.051
   152.0,0.000464,-0.000379, 37,0.018375,-0.001919,  37.054
   152.2,0.000494,-0.000366, 37,0.018610,-0.001939,  37.051
   152.4,0.000517,-0.000351, 37,0.018807,-0.001927,  37.052
   152.6,0.000537,-0.000338, 37,0.018964,-0.001948,  37.052
   152.8,0.000561,-0.000328, 37,0.019179,-0.001935,  37.049
   153.0,0.000578,-0.000316, 37,0.019409,-0.001922,  37.050
   153.2,0.000604,-0.000308, 37,0.019642,-0.001897,  37.051
   153.4,0.000629,-0.000301, 37,0.019854,-0.001897,  37.050
   153.6,0.000653,-0.000289, 37,0.020072,-0.001897,  37.048
   153.8,0.000669,-0.000277, 37,0.020280,-0.001918,  37.047
   154.0,0.000696,-0.000259, 37,0.020540,-0.001951,  37.049
   154.2,0.000718,-0.000249, 37,0.020814,-0.001939,  37.050
   154.4,0.000742,-0.000238, 37,0.021123,-0.001959,  37.050
   154.6,0.000767,-0.000226, 37,0.021140,-0.001993,  37.049
   154.8,0.000786,-0.000211, 37,0.021021,-0.001913,  37.048
   155.0,0.000811,-0.000198, 37,0.020766,-0.001901,  37.046
   155.2,0.000828,-0.000179, 37,0.020981,-0.001955,  37.049
   155.4,0.000845,-0.000161, 37,0.021366,-0.001942,  37.045
   155.6,0.000866,-0.000149, 37,0.021910,-0.001917,  37.046
   155.8,0.000880,-0.000139, 37,0.022290,-0.001950,  37.047
   156.0,0.000896,-0.000128, 37,0.022676,-0.001917,  37.044
   156.2,0.000908,-0.000117, 37,0.023052,-0.001938,  37.042
   156.4,0.000935,-0.000098, 37,0.023350,-0.001925,  37.043
   156.6,0.000960,-0.000090, 37,0.023620,-0.001912,  37.044
   156.8,0.000974,-0.000080, 37,0.023848,-0.001921,  37.040
   157.0,0.000993,-0.000070, 37,0.024082,-0.001921,  37.042
   157.2,0.001015,-0.000062, 37,0.024303,-0.001921,  37.042
   157.4,0.001032,-0.000049, 37,0.024512,-0.001941,  37.041
   157.6,0.001063,-0.000038, 37,0.024760,-0.001929,  37.042
   157.8,0.001085,-0.000026, 37,0.025029,-0.001929,  37.042
   158.0,0.001104,-0.000018, 37,0.025310,-0.001950,  37.041
   158.2,0.001127,-0.000008, 37,0.025560,-0.001916,  37.038
   158.4,0.001142,0.000008, 37,0.025815,-0.001903,  37.038
   158.6,0.001161,0.000023, 37,0.026064,-0.001924,  37.039
   158.8,0.001184,0.000038, 37,0.026319,-0.001891,  37.034
   159.0,0.001203,0.000045, 37,0.026575,-0.001891,  37.033
   159.2,0.001228,0.000057, 37,0.026840,-0.001912,  37.036
   159.4,0.001253,0.000068, 37,0.027035,-0.001899,  37.035
   159.6,0.001277,0.000077, 37,0.027192,-0.001932,  37.037
   159.8,0.001297,0.000087, 37,0.027322,-0.001920,  37.033
   160.0,0.001316,0.000097, 37,0.027408,-0.001974,  37.033
   160.2,0.001341,0.000106, 37,0.027637,-0.001941,  37.030
   160.4,0.001365,0.000116, 37,0.027900,-0.001928,  37.035
   160.6,0.001383,0.000130, 37,0.028198,-0.001949,  37.030
   160.8,0.001416,0.000144, 37,0.028437,-0.001903,  37.027
   161.0,0.001437,0.000157, 37,0.028654,-0.001903,  37.028
   161.2,0.001452,0.000176, 37,0.028861,-0.001890,  37.029
   161.4,0.001470,0.000187, 37,0.029105,-0.001911,  37.019
   161.6,0.001487,0.000194, 37,0.029354,-0.001911,  37.009
   161.8,0.001512,0.000203, 37,0.029615,-0.001898,  37.008
   162.0,0.001532,0.000207, 37,0.029693,-0.001919,  37.006
   162.2,0.001547,0.000217, 37,0.029677,-0.001919,  37.003
   162.4,0.001570,0.000232, 37,0.029573,-0.001894,  37.000
   162.6,0.001582,0.000251, 37,0.029777,-0.001927,  37.001
   162.8,0.001599,0.000260, 37,0.030088,-0.001927,  36.995
   163.0,0.001616,0.000268, 37,0.030504,-0.001914,  36.994
   163.2,0.001637,0.000278, 37,0.030791,-0.001923,  36.995
   163.4,0.001654,0.000283, 37,0.031071,-0.001889,  36.991
   163.6,0.001669,0.000292, 37,0.031338,-0.001910,  36.989
   163.8,0.001694,0.000310, 37,0.031230,-0.001897,  36.985
   164.0,0.001707,0.000319, 37,0.030940,-0.001897,  36.986
   164.2,0.001723,0.000325, 37,0.030455,-0.001918,  36.981
   164.4,0.001731,0.000337, 37,0.030678,-0.001885,  36.977
   164.6,0.001742,0.000349, 37,0.031163,-0.001885,  36.973
   164.8,0.001755,0.000358, 37,0.031914,-0.001905,  36.974
   165.0,0.001773,0.000368, 37,0.032312,-0.001905,  36.967
   165.2,0.001793,0.000380, 37,0.032659,-0.001893,  36.962
   165.4,0.001808,0.000390, 37,0.032956,-0.001913,  36.966
   165.6,0.001821,0.000405, 37,0.033262,-0.001901,  36.965
   165.8,0.001836,0.000418, 37,0.033540,-0.001901,  36.960
   166.0,0.001849,0.000427, 37,0.033799,-0.001909,  36.958
   166.2,0.001869,0.000433, 37,0.034064,-0.001896,  36.953
   166.4,0.001890,0.000446, 37,0.034318,-0.001896,  36.941
   166.6,0.001902,0.000451, 37,0.034559,-0.001917,  36.940
   166.8,0.001915,0.000462, 37,0.034791,-0.001917,  36.935
   167.0,0.001935,0.000469, 37,0.035008,-0.001871,  36.936
   167.2,0.001952,0.000474, 37,0.035209,-0.001892,  36.936
   167.4,0.001957,0.000486, 37,0.035305,-0.001892,  36.928
   167.6,0.001981,0.000493, 37,0.035342,-0.001846,  36.931
   167.8,0.001993,0.000504, 37,0.035310,-0.001913,  36.928
   168.0,0.002004,0.000516, 37,0.035541,-0.001913,  36.925
   168.2,0.002017,0.000526, 37,0.035862,-0.001913,  36.925
   168.4,0.002030,0.000535, 37,0.036276,-0.001933,  36.917
   168.6,0.002046,0.000545, 37,0.036547,-0.001933,  36.914
   168.8,0.002059,0.000555, 37,0.036788,-0.001954,  36.915
   169.0,0.002070,0.000566, 37,0.037016,-0.001908,  36.915
   169.2,0.002093,0.000573, 37,0.037210,-0.001895,  36.914
   169.4,0.002104,0.000580, 37,0.037412,-0.001862,  36.912
   169.6,0.002113,0.000590, 37,0.037596,-0.001875,  36.905
   169.8,0.002128,0.000601, 37,0.037772,-0.001862,  36.906
   170.0,0.002134,0.000609, 37,0.037954,-0.001883,  36.901
   170.2,0.002150,0.000614, 37,0.038127,-0.001891,  36.901
   170.4,0.002166,0.000622, 37,0.038294,-0.001866,  36.900
   170.6,0.002182,0.000628, 37,0.038516,-0.001899,  36.901
   170.8,0.002192,0.000631, 37,0.038765,-0.001886,  36.897
   171.0,0.002196,0.000633, 37,0.039033,-0.001907,  36.895
   171.2,0.002202,0.000636, 37,0.038850,-0.001895,  36.891
   171.4,0.002207,0.000642, 37,0.038450,-0.001895,  36.882
   171.6,0.002215,0.000652, 37,0.037839,-0.001928,  36.883
   171.8,0.002230,0.000660, 37,0.038002,-0.001882,  36.877
   172.0,0.002241,0.000666, 37,0.038444,-0.001882,  36.879
   172.2,0.002252,0.000673, 37,0.039169,-0.001903,  36.877
   172.4,0.002266,0.000680, 37,0.039555,-0.001890,  36.877
   172.6,0.002276,0.000687, 37,0.039899,-0.001877,  36.873
   172.8,0.002295,0.000695, 37,0.040214,-0.001898,  36.872
   173.0,0.002309,0.000702, 37,0.040340,-0.001911,  36.873
   173.2,0.002320,0.000709, 37,0.040361,-0.001877,  36.868
   173.4,0.002328,0.000719, 37,0.040268,-0.001886,  36.870
   173.6,0.002340,0.000729, 37,0.040481,-0.001919,  36.866
   173.8,0.002344,0.000732, 37,0.040801,-0.001906,  36.871
   174.0,0.002354,0.000739, 37,0.041220,-0.001927,  36.867
   174.2,0.002360,0.000746, 37,0.041498,-0.001902,  36.868
   174.4,0.002368,0.000750, 37,0.041750,-0.001902,  36.871
   174.6,0.002376,0.000759, 37,0.041982,-0.001889,  36.872
   174.8,0.002382,0.000770, 37,0.042010,-0.001877,  36.868
   175.0,0.002394,0.000776, 37,0.041918,-0.001864,  36.869
   175.2,0.002400,0.000786, 37,0.041717,-0.001885,  36.869
   175.4,0.002412,0.000797, 37,0.041926,-0.001885,  36.869
   175.6,0.002413,0.000800, 37,0.042285,-0.001872,  36.867
   175.8,0.002419,0.000804, 37,0.042785,-0.001893,  36.869
   176.0,0.002436,0.000810, 37,0.043039,-0.001880,  36.867
   176.2,0.002445,0.000814, 37,0.043245,-0.001847,  36.866
   176.4,0.002453,0.000819, 37,0.043393,-0.001834,  36.863
   176.6,0.002466,0.000831, 37,0.043554,-0.001842,  36.859
   176.8,0.002470,0.000837, 37,0.043695,-0.001855,  36.862
   177.0,0.002476,0.000843, 37,0.043805,-0.001842,  36.864
   177.2,0.002487,0.000849, 37,0.043995,-0.001863,  36.861
   177.4,0.002491,0.000859, 37,0.044228,-0.001863,  36.861
   177.6,0.002499,0.000865, 37,0.044478,-0.001850,  36.862
   177.8,0.002505,0.000870, 37,0.044627,-0.001838,  36.860
   178.0,0.002513,0.000874, 37,0.044742,-0.001838,  36.857
   178.2,0.002513,0.000878, 37,0.044825,-0.001825,  36.858
   178.4,0.002520,0.000884, 37,0.044868,-0.001812,  36.854
   178.6,0.002522,0.000885, 37,0.045010,-0.001846,  36.854
   178.8,0.002529,0.000889, 37,0.045165,-0.001846,  36.847
   179.0,0.002536,0.000897, 37,0.045328,-0.001867,  36.847
   179.2,0.002544,0.000898, 37,0.045442,-0.001875,  36.849
   179.4,0.002553,0.000897, 37,0.045528,-0.001875,  36.841
   179.6,0.002554,0.000905, 37,0.045596,-0.001896,  36.840
   179.8,0.002566,0.000907, 37,0.045742,-0.001883,  36.840
   180.0,0.002568,0.000914, 37,0.045923,-0.001849,  36.836
   180.2,0.002574,0.000913, 37,0.046132,-0.001870,  36.836
   180.4,0.002579,0.000918, 37,0.046249,-0.001858,  36.833
   180.6,0.002582,0.000921, 37,0.046343,-0.001858,  36.831
   180.8,0.002599,0.000924, 37,0.046406,-0.001866,  36.826
   181.0,0.002608,0.000926, 37,0.046529,-0.001853,  36.822
   181.2,0.002612,0.000928, 37,0.046665,-0.001853,  36.822
   181.4,0.002616,0.000931, 37,0.046805,-0.001861,  36.816
   181.6,0.002615,0.000938, 37,0.046936,-0.001849,  36.818
   181.8,0.002615,0.000944, 37,0.047068,-0.001815,  36.809
   182.0,0.002616,0.000948, 37,0.047195,-0.001836,  36.810
   182.2,0.002620,0.000950, 37,0.047297,-0.001836,  36.809
   182.4,0.002620,0.000952, 37,0.047383,-0.001836,  36.804
   182.6,0.002619,0.000958, 37,0.047461,-0.001857,  36.805
   182.8,0.002618,0.000955, 37,0.047539,-0.001844,  36.798
   183.0,0.002620,0.000955, 37,0.047611,-0.001844,  36.803
   183.2,0.002625,0.000958, 37,0.047676,-0.001852,  36.799
   183.4,0.002629,0.000961, 37,0.047736,-0.001886,  36.802
   183.6,0.002631,0.000964, 37,0.047784,-0.001852,  36.797
   183.8,0.002638,0.000963, 37,0.047821,-0.001839,  36.795
   184.0,0.002643,0.000964, 37,0.047840,-0.001827,  36.798
   184.2,0.002649,0.000963, 37,0.047846,-0.001806,  36.795
   184.4,0.002653,0.000964, 37,0.047842,-0.001793,  36.793
   184.6,0.002655,0.000966, 37,0.047923,-0.001814,  36.791
   184.8,0.002654,0.000970, 37,0.048038,-0.001801,  36.794
   185.0,0.002656,0.000970, 37,0.048188,-0.001789,  36.791
   185.2,0.002664,0.000977, 37,0.048280,-0.001810,  36.791
   185.4,0.002666,0.000979, 37,0.048358,-0.001797,  36.787
   185.6,0.002665,0.000981, 37,0.048422,-0.001772,  36.787
   185.8,0.002666,0.000982, 37,0.048501,-0.001792,  36.790
   186.0,0.002668,0.000981, 37,0.048579,-0.001792,  36.787
   186.2,0.002667,0.000983, 37,0.048652,-0.001813,  36.785
   186.4,0.002671,0.000984, 37,0.048730,-0.001788,  36.784
   186.6,0.002676,0.000983, 37,0.048762,-0.001801,  36.783
   186.8,0.002679,0.000987, 37,0.048776,-0.001767,  36.776
   187.0,0.002684,0.000990, 37,0.048770,-0.001801,  36.779
   187.2,0.002688,0.000990, 37,0.048834,-0.001767,  36.775
   187.4,0.002688,0.000993, 37,0.048921,-0.001767,  36.772
   187.6,0.002690,0.000999, 37,0.049027,-0.001754,  36.769
   187.8,0.002695,0.000995, 37,0.049098,-0.001788,  36.773
   188.0,0.002698,0.001000, 37,0.049162,-0.001754,  36.766
   188.2,0.002687,0.001003, 37,0.049217,-0.001763,  36.764
   188.4,0.002681,0.001008, 37,0.049274,-0.001771,  36.761
   188.6,0.002678,0.001006, 37,0.049316,-0.001779,  36.759
   188.8,0.002675,0.001012, 37,0.049366,-0.001800,  36.756
   189.0,0.002675,0.001012, 37,0.049444,-0.001741,  36.757
   189.2,0.002674,0.001012, 37,0.049535,-0.001753,  36.758
   189.4,0.002679,0.001007, 37,0.049638,-0.001774,  36.755
   189.6,0.002684,0.001008, 37,0.049713,-0.001749,  36.757
   189.8,0.002681,0.001008, 37,0.049780,-0.001736,  36.753
   190.0,0.002678,0.001008, 37,0.049844,-0.001744,  36.741
   190.2,0.002672,0.001013, 37,0.049912,-0.001744,  36.741
   190.4,0.002672,0.001009, 37,0.049978,-0.001711,  36.737
   190.6,0.002667,0.001012, 37,0.050047,-0.001765,  36.738
   190.8,0.002672,0.001013, 37,0.050100,-0.001753,  36.734
   191.0,0.002668,0.001014, 37,0.050131,-0.001753,  36.731
   191.2,0.002665,0.001013, 37,0.050159,-0.001786,  36.735
   191.4,0.002665,0.001015, 37,0.050182,-0.001773,  36.733
   191.6,0.002662,0.001015, 37,0.050189,-0.001740,  36.727
   191.8,0.002657,0.001014, 37,0.050191,-0.001727,  36.728
   192.0,0.002657,0.001017, 37,0.050198,-0.001748,  36.729
   192.2,0.002658,0.001015, 37,0.050211,-0.001735,  36.725
   192.4,0.002658,0.001011, 37,0.050221,-0.001723,  36.722
   192.6,0.002650,0.001010, 37,0.050218,-0.001756,  36.727
   192.8,0.002640,0.001007, 37,0.050218,-0.001743,  36.725
   193.0,0.002638,0.001010, 37,0.050216,-0.001731,  36.724
   193.2,0.002633,0.001010, 37,0.050262,-0.001752,  36.725
   193.4,0.002633,0.001005, 37,0.050327,-0.001752,  36.716
   193.6,0.002630,0.001001, 37,0.050414,-0.001726,  36.716
   193.8,0.002620,0.000999, 37,0.050480,-0.001747,  36.715
   194.0,0.002624,0.000993, 37,0.050544,-0.001714,  36.714
   194.2,0.002620,0.000989, 37,0.050607,-0.001701,  36.711
   194.4,0.002617,0.000988, 37,0.050635,-0.001747,  36.707
   194.6,0.002620,0.000981, 37,0.050641,-0.001714,  36.708
   194.8,0.002614,0.000976, 37,0.050637,-0.001714,  36.708
   195.0,0.002612,0.000973, 37,0.050611,-0.001734,  36.706
   195.2,0.002611,0.000976, 37,0.050559,-0.001755,  36.703
   195.4,0.002605,0.000970, 37,0.050488,-0.001755,  36.696
   195.6,0.002603,0.000972, 37,0.050388,-0.001743,  36.702
   195.8,0.002598,0.000972, 37,0.050401,-0.001730,  36.702
   196.0,0.002591,0.000968, 37,0.050442,-0.001717,  36.699
   196.2,0.002588,0.000967, 37,0.050531,-0.001738,  36.699
   196.4,0.002581,0.000965, 37,0.050403,-0.001713,  36.698
   196.6,0.002573,0.000959, 37,0.050182,-0.001713,  36.701
   196.8,0.002563,0.000956, 37,0.049868,-0.001733,  36.701
   197.0,0.002561,0.000953, 37,0.049843,-0.001721,  36.695
   197.2,0.002553,0.000947, 37,0.049921,-0.001708,  36.700
   197.4,0.002540,0.000944, 37,0.050092,-0.001750,  36.697
   197.6,0.002543,0.000945, 37,0.050151,-0.001750,  36.700
   197.8,0.002539,0.000945, 37,0.050194,-0.001737,  36.704
   198.0,0.002527,0.000942, 37,0.050233,-0.001758,  36.706
   198.2,0.002525,0.000944, 37,0.050139,-0.001758,  36.704
   198.4,0.002523,0.000939, 37,0.049964,-0.001737,  36.702
   198.6,0.002518,0.000937, 37,0.049726,-0.001704,  36.704
   198.8,0.002521,0.000932, 37,0.049780,-0.001691,  36.701
   199.0,0.002518,0.000925, 37,0.049931,-0.001691,  36.704
   199.2,0.002509,0.000921, 37,0.050193,-0.001678,  36.706
   199.4,0.002509,0.000921, 37,0.050259,-0.001699,  36.707
   199.6,0.002507,0.000918, 37,0.050279,-0.001720,  36.704
   199.8,0.002499,0.000917, 37,0.050247,-0.001741,  36.709
   200.0,0.002497,0.000920, 37,0.050247,-0.001774,  36.709
   200.2,0.002495,0.000917, 37,0.050236,-0.001694,  36.712
   200.4,0.002487,0.000915, 37,0.050210,-0.001682,  36.716
   200.6,0.002481,0.000912, 37,0.050224,-0.001715,  36.716
   200.8,0.002471,0.000905, 37,0.050257,-0.001682,  36.718
   201.0,0.002462,0.000904, 37,0.050294,-0.001656,  36.719
   201.2,0.002452,0.000903, 37,0.050081,-0.001677,  36.723
   201.4,0.002447,0.000895, 37,0.049766,-0.001677,  36.722
   201.6,0.002437,0.000895, 37,0.049332,-0.001665,  36.722
   201.8,0.002433,0.000894, 37,0.049298,-0.001673,  36.725
   202.0,0.002429,0.000885, 37,0.049416,-0.001685,  36.721
   202.2,0.002411,0.000880, 37,0.049684,-0.001673,  36.728
   202.4,0.002407,0.000874, 37,0.049768,-0.001694,  36.725
   202.6,0.002398,0.000870, 37,0.049816,-0.001660,  36.724
   202.8,0.002393,0.000867, 37,0.049847,-0.001681,  36.723
   203.0,0.002389,0.000870, 37,0.049833,-0.001668,  36.729
   203.2,0.002387,0.000863, 37,0.049785,-0.001668,  36.727
   203.4,0.002388,0.000851, 37,0.049701,-0.001676,  36.727
   203.6,0.002382,0.000844, 37,0.049662,-0.001676,  36.726
   203.8,0.002369,0.000838, 37,0.049629,-0.001676,  36.724
   204.0,0.002362,0.000833, 37,0.049606,-0.001664,  36.728
   204.2,0.002352,0.000834, 37,0.049588,-0.001664,  36.724
   204.4,0.002350,0.000833, 37,0.049570,-0.001651,  36.724
   204.6,0.002342,0.000827, 37,0.049553,-0.001664,  36.718
   204.8,0.002324,0.000819, 37,0.049551,-0.001684,  36.723
   205.0,0.002323,0.000817, 37,0.049512,-0.001684,  36.722
   205.2,0.002316,0.000809, 37,0.049470,-0.001672,  36.723
   205.4,0.002302,0.000802, 37,0.049413,-0.001693,  36.723
   205.6,0.002298,0.000799, 37,0.049369,-0.001680,  36.717
   205.8,0.002291,0.000799, 37,0.049334,-0.001680,  36.721
   206.0,0.002281,0.000793, 37,0.049309,-0.001701,  36.715
   206.2,0.002280,0.000796, 37,0.049286,-0.001688,  36.720
   206.4,0.002270,0.000791, 37,0.049260,-0.001654,  36.717
   206.6,0.002258,0.000787, 37,0.049233,-0.001663,  36.714
   206.8,0.002251,0.000783, 37,0.049161,-0.001663,  36.712
   207.0,0.002241,0.000777, 37,0.049059,-0.001629,  36.710
   207.2,0.002242,0.000768, 37,0.048923,-0.001650,  36.714
   207.4,0.002243,0.000764, 37,0.048854,-0.001637,  36.709
   207.6,0.002235,0.000755, 37,0.048801,-0.001637,  36.706
   207.8,0.002231,0.000748, 37,0.048764,-0.001637,  36.709
   208.0,0.002224,0.000750, 37,0.048671,-0.001625,  36.704
   208.2,0.002214,0.000746, 37,0.048565,-0.001625,  36.703
   208.4,0.002212,0.000741, 37,0.048434,-0.001645,  36.707
   208.6,0.002202,0.000741, 37,0.048330,-0.001666,  36.701
   208.8,0.002200,0.000740, 37,0.048237,-0.001666,  36.706
   209.0,0.002195,0.000733, 37,0.048149,-0.001687,  36.706
   209.2,0.002188,0.000733, 37,0.048083,-0.001708,  36.704
   209.4,0.002185,0.000728, 37,0.048041,-0.001641,  36.702
   209.6,0.002175,0.000727, 37,0.048011,-0.001628,  36.706
   209.8,0.002170,0.000720, 37,0.047962,-0.001662,  36.709
   210.0,0.002160,0.000715, 37,0.047911,-0.001662,  36.709
   210.2,0.002156,0.000711, 37,0.047861,-0.001649,  36.708
   210.4,0.002149,0.000710, 37,0.047835,-0.001636,  36.710
   210.6,0.002142,0.000707, 37,0.047814,-0.001624,  36.712
   210.8,0.002135,0.000696, 37,0.047808,-0.001632,  36.713
   211.0,0.002127,0.000696, 37,0.047729,-0.001619,  36.715
   211.2,0.002125,0.000692, 37,0.047626,-0.001653,  36.713
   211.4,0.002117,0.000690, 37,0.047494,-0.001673,  36.713
   211.6,0.002113,0.000692, 37,0.047404,-0.001661,  36.719
   211.8,0.002114,0.000690, 37,0.047328,-0.001661,  36.714
   212.0,0.002112,0.000690, 37,0.047250,-0.001669,  36.714
   212.2,0.002102,0.000689, 37,0.047195,-0.001669,  36.716
   212.4,0.002092,0.000689, 37,0.047153,-0.001635,  36.715
   212.6,0.002090,0.000682, 37,0.047114,-0.001623,  36.718
   212.8,0.002085,0.000679, 37,0.047091,-0.001656,  36.712
   213.0,0.002079,0.000675, 37,0.046992,-0.001610,  36.717
   213.2,0.002074,0.000672, 37,0.046861,-0.001610,  36.716
   213.4,0.002064,0.000669, 37,0.046713,-0.001631,  36.713
   213.6,0.002057,0.000663, 37,0.046614,-0.001631,  36.714
   213.8,0.002055,0.000657, 37,0.046528,-0.001618,  36.720
   214.0,0.002043,0.000658, 37,0.046452,-0.001639,  36.719
   214.2,0.002042,0.000654, 37,0.046371,-0.001639,  36.715
   214.4,0.002032,0.000652, 37,0.046297,-0.001626,  36.717
   214.6,0.002022,0.000655, 37,0.046223,-0.001634,  36.714
   214.8,0.002015,0.000653, 37,0.046179,-0.001634,  36.715
   215.0,0.002005,0.000651, 37,0.046138,-0.001588,  36.721
   215.2,0.002001,0.000644, 37,0.046121,-0.001609,  36.717
   215.4,0.002001,0.000640, 37,0.045946,-0.001596,  36.722
   215.6,0.001992,0.000637, 37,0.045701,-0.001563,  36.720
   215.8,0.001979,0.000633, 37,0.045379,-0.001596,  36.718
   216.0,0.001973,0.000626, 37,0.045294,-0.001596,  36.718
   216.2,0.001965,0.000624, 37,0.045293,-0.001575,  36.720
   216.4,0.001960,0.000623, 37,0.045372,-0.001596,  36.720
   216.6,0.001961,0.000621, 37,0.045335,-0.001584,  36.718
   216.8,0.001957,0.000617, 37,0.045288,-0.001571,  36.722
   217.0,0.001941,0.000612, 37,0.045221,-0.001592,  36.718
   217.2,0.001938,0.000609, 37,0.045147,-0.001613,  36.720
   217.4,0.001931,0.000604, 37,0.045057,-0.001600,  36.725
   217.6,0.001927,0.000599, 37,0.044960,-0.001608,  36.723
   217.8,0.001924,0.000599, 37,0.044911,-0.001642,  36.724
   218.0,0.001920,0.000596, 37,0.044879,-0.001608,  36.723
   218.2,0.001915,0.000593, 37,0.044858,-0.001595,  36.724
   218.4,0.001911,0.000591, 37,0.044760,-0.001583,  36.722
   218.6,0.001899,0.000586, 37,0.044626,-0.001583,  36.727
   218.8,0.001890,0.000584, 37,0.044461,-0.001570,  36.725
   219.0,0.001880,0.000586, 37,0.044377,-0.001570,  36.720
   219.2,0.001873,0.000580, 37,0.044310,-0.001557,  36.724
   219.4,0.001866,0.000581, 37,0.044277,-0.001544,  36.723
   219.6,0.001862,0.000578, 37,0.044199,-0.001578,  36.724
   219.8,0.001871,0.000572, 37,0.044108,-0.001565,  36.728
   220.0,0.001868,0.000567, 37,0.044022,-0.001553,  36.728
   220.2,0.001863,0.000566, 37,0.043915,-0.001586,  36.729
   220.4,0.001857,0.000563, 37,0.043796,-0.001553,  36.729
   220.6,0.001844,0.000554, 37,0.043673,-0.001561,  36.727
   220.8,0.001842,0.000546, 37,0.043578,-0.001548,  36.727
   221.0,0.001838,0.000546, 37,0.043489,-0.001548,  36.731
   221.2,0.001834,0.000547, 37,0.043415,-0.001535,  36.727
   221.4,0.001826,0.000544, 37,0.043339,-0.001556,  36.731
   221.6,0.001829,0.000537, 37,0.043261,-0.001556,  36.730
   221.8,0.001827,0.000537, 37,0.043194,-0.001543,  36.733
   222.0,0.001819,0.000540, 37,0.043122,-0.001531,  36.734
   222.2,0.001809,0.000537, 37,0.043043,-0.001531,  36.732
   222.4,0.001804,0.000531, 37,0.042971,-0.001531,  36.728
   222.6,0.001796,0.000533, 37,0.042891,-0.001552,  36.725
   222.8,0.001786,0.000531, 37,0.042779,-0.001539,  36.731
   223.0,0.001779,0.000530, 37,0.042635,-0.001539,  36.729
   223.2,0.001774,0.000527, 37,0.042479,-0.001560,  36.731
   223.4,0.001773,0.000522, 37,0.042390,-0.001526,  36.735
   223.6,0.001763,0.000518, 37,0.042311,-0.001526,  36.734
   223.8,0.001758,0.000516, 37,0.042255,-0.001547,  36.735
   224.0,0.001746,0.000512, 37,0.042154,-0.001522,  36.733
   224.2,0.001738,0.000510, 37,0.042037,-0.001509,  36.733
   224.4,0.001736,0.000506, 37,0.041904,-0.001517,  36.732
   224.6,0.001729,0.000508, 37,0.041834,-0.001504,  36.733
   224.8,0.001719,0.000502, 37,0.041787,-0.001483,  36.734
   225.0,0.001720,0.000495, 37,0.041764,-0.001504,  36.734
   225.2,0.001721,0.000493, 37,0.041659,-0.001492,  36.736
   225.4,0.001714,0.000488, 37,0.041526,-0.001492,  36.735
   225.6,0.001709,0.000481, 37,0.041373,-0.001466,  36.737
   225.8,0.001707,0.000483, 37,0.041273,-0.001466,  36.736
   226.0,0.001702,0.000482, 37,0.041189,-0.001466,  36.732
   226.2,0.001698,0.000478, 37,0.041126,-0.001466,  36.738
   226.4,0.001688,0.000486, 37,0.041062,-0.001466,  36.740
   226.6,0.001676,0.000486, 37,0.040999,-0.001479,  36.740
   226.8,0.001666,0.000479, 37,0.040955,-0.001512,  36.744
   227.0,0.001664,0.000480, 37,0.040843,-0.001533,  36.742
   227.2,0.001658,0.000478, 37,0.040709,-0.001508,  36.743
   227.4,0.001648,0.000470, 37,0.040547,-0.001516,  36.742
   227.6,0.001641,0.000468, 37,0.040435,-0.001550,  36.745
   227.8,0.001640,0.000462, 37,0.040345,-0.001516,  36.743
   228.0,0.001632,0.000461, 37,0.040270,-0.001503,  36.747
   228.2,0.001627,0.000461, 37,0.039773,-0.001524,  36.743
   228.4,0.001625,0.000452, 37,0.039068,-0.001511,  36.740
   228.6,0.001617,0.000445, 37,0.038169,-0.001486,  36.740
   228.8,0.001613,0.000439, 37,0.037892,-0.001520,  36.741
   229.0,0.001606,0.000438, 37,0.037824,-0.001486,  36.741
   229.2,0.001596,0.000437, 37,0.037957,-0.001473,  36.742
   229.4,0.001592,0.000437, 37,0.038051,-0.001494,  36.742
   229.6,0.001590,0.000436, 37,0.038222,-0.001461,  36.739
   229.8,0.001586,0.000432, 37,0.038472,-0.001448,  36.739
   230.0,0.001574,0.000423, 37,0.038555,-0.001481,  36.740
   230.2,0.001567,0.000418, 37,0.038605,-0.001435,  36.738
   230.4,0.001562,0.000413, 37,0.038601,-0.001422,  36.739
   230.6,0.001552,0.000413, 37,0.038557,-0.001456,  36.741
   230.8,0.001551,0.000415, 37,0.038505,-0.001431,  36.736
   231.0,0.001549,0.000411, 37,0.038410,-0.001431,  36.743
   231.2,0.001541,0.000416, 37,0.038276,-0.001439,  36.739
   231.4,0.001540,0.000414, 37,0.038193,-0.001439,  36.740
   231.6,0.001535,0.000408, 37,0.038109,-0.001439,  36.737
   231.8,0.001525,0.000406, 37,0.038031,-0.001460,  36.740
   232.0,0.001519,0.000402, 37,0.037996,-0.001447,  36.738
   232.2,0.001516,0.000397, 37,0.037973,-0.001460,  36.740
   232.4,0.001512,0.000400, 37,0.037980,-0.001493,  36.741
   232.6,0.001505,0.000397, 37,0.037889,-0.001434,  36.740
   232.8,0.001503,0.000397, 37,0.037744,-0.001434,  36.739
   233.0,0.001503,0.000397, 37,0.037562,-0.001455,  36.740
   233.2,0.001501,0.000397, 37,0.037484,-0.001442,  36.738
   233.4,0.001498,0.000395, 37,0.037427,-0.001442,  36.742
   233.6,0.001494,0.000391, 37,0.037390,-0.001463,  36.742
   233.8,0.001492,0.000389, 37,0.037315,-0.001450,  36.741
   234.0,0.001492,0.000389, 37,0.037234,-0.001450,  36.738
   234.2,0.001482,0.000386, 37,0.037138,-0.001425,  36.740
   234.4,0.001477,0.000386, 37,0.037029,-0.001425,  36.740
   234.6,0.001475,0.000383, 37,0.036913,-0.001425,  36.744
   234.8,0.001470,0.000384, 37,0.036787,-0.001446,  36.742
   235.0,0.001465,0.000384, 37,0.036688,-0.001433,  36.744
   235.2,0.001466,0.000380, 37,0.036603,-0.001433,  36.741
   235.4,0.001464,0.000381, 37,0.036515,-0.001454,  36.744
   235.6,0.001454,0.000380, 37,0.036427,-0.001441,  36.746
   235.8,0.001451,0.000376, 37,0.036342,-0.001395,  36.740
   236.0,0.001444,0.000370, 37,0.036256,-0.001382,  36.740
   236.2,0.001447,0.000370, 37,0.036145,-0.001403,  36.740
   236.4,0.001442,0.000368, 37,0.036026,-0.001403,  36.740
   236.6,0.001433,0.000361, 37,0.035898,-0.001378,  36.736
   236.8,0.001428,0.000361, 37,0.035780,-0.001411,  36.741
   237.0,0.001421,0.000358, 37,0.035665,-0.001411,  36.738
   237.2,0.001414,0.000353, 37,0.035549,-0.001398,  36.740
   237.4,0.001414,0.000353, 37,0.035441,-0.001386,  36.732
   237.6,0.001415,0.000351, 37,0.035341,-0.001386,  36.734
   237.8,0.001408,0.000351, 37,0.035237,-0.001386,  36.739
   238.0,0.001403,0.000354, 37,0.035133,-0.001407,  36.734
   238.2,0.001399,0.000356, 37,0.035040,-0.001407,  36.734
   238.4,0.001393,0.000350, 37,0.034944,-0.001407,  36.734
   238.6,0.001389,0.000349, 37,0.034767,-0.001428,  36.733
   238.8,0.001394,0.000351, 37,0.034547,-0.001407,  36.736
   239.0,0.001389,0.000349, 37,0.034288,-0.001394,  36.729
   239.2,0.001387,0.000345, 37,0.033985,-0.001415,  36.728
   239.4,0.001387,0.000343, 37,0.033947,-0.001415,  36.726
   239.6,0.001380,0.000345, 37,0.033987,-0.001402,  36.728
   239.8,0.001372,0.000341, 37,0.034099,-0.001423,  36.725
   240.0,0.001368,0.000335, 37,0.034098,-0.001410,  36.725
   240.2,0.001360,0.000336, 37,0.034075,-0.001397,  36.723
   240.4,0.001358,0.000337, 37,0.034039,-0.001418,  36.719
   240.6,0.001361,0.000337, 37,0.033944,-0.001418,  36.717
   240.8,0.001353,0.000340, 37,0.033812,-0.001397,  36.719
   241.0,0.001349,0.000340, 37,0.033641,-0.001431,  36.717
   241.2,0.001347,0.000339, 37,0.033580,-0.001406,  36.718
   241.4,0.001338,0.000335, 37,0.033545,-0.001393,  36.719
   241.6,0.001333,0.000337, 37,0.033548,-0.001414,  36.716
   241.8,0.001339,0.000334, 37,0.033431,-0.001367,  36.714
   242.0,0.001336,0.000332, 37,0.033268,-0.001355,  36.709
   242.2,0.001333,0.000331, 37,0.033059,-0.001363,  36.713
   242.4,0.001339,0.000327, 37,0.032938,-0.001329,  36.709
   242.6,0.001336,0.000327, 37,0.032847,-0.001316,  36.711
   242.8,0.001339,0.000322, 37,0.032769,-0.001337,  36.710
   243.0,0.001332,0.000322, 37,0.032654,-0.001325,  36.707
   243.2,0.001324,0.000321, 37,0.032532,-0.001337,  36.708
   243.4,0.001319,0.000318, 37,0.032404,-0.001371,  36.707
   243.6,0.001319,0.000323, 37,0.032318,-0.001358,  36.708
   243.8,0.001313,0.000320, 37,0.032249,-0.001337,  36.706
   244.0,0.001306,0.000322, 37,0.032206,-0.001371,  36.700
   244.2,0.001301,0.000322, 37,0.032108,-0.001337,  36.704
   244.4,0.001304,0.000319, 37,0.031997,-0.001316,  36.700
   244.6,0.001297,0.000318, 37,0.031872,-0.001337,  36.702
   244.8,0.001295,0.000315, 37,0.031767,-0.001325,  36.700
   245.0,0.001290,0.000312, 37,0.031677,-0.001333,  36.701
   245.2,0.001288,0.000315, 37,0.031582,-0.001354,  36.698
   245.4,0.001286,0.000313, 37,0.031524,-0.001375,  36.692
   245.6,0.001281,0.000313, 37,0.031484,-0.001349,  36.681
   245.8,0.001279,0.000311, 37,0.031459,-0.001383,  36.684
   246.0,0.001274,0.000316, 37,0.031366,-0.001383,  36.680
   246.2,0.001270,0.000316, 37,0.031246,-0.001315,  36.679
   246.4,0.001267,0.000313, 37,0.031101,-0.001303,  36.677
   246.6,0.001267,0.000312, 37,0.030992,-0.001311,  36.675
   246.8,0.001265,0.000311, 37,0.030882,-0.001298,  36.675
   247.0,0.001261,0.000307, 37,0.030787,-0.001272,  36.673
   247.2,0.001256,0.000308, 37,0.030708,-0.001293,  36.671
   247.4,0.001257,0.000306, 37,0.030631,-0.001272,  36.671
   247.6,0.001252,0.000304, 37,0.030581,-0.001293,  36.669
   247.8,0.001252,0.000303, 37,0.030530,-0.001314,  36.667
   248.0,0.001255,0.000299, 37,0.030448,-0.001314,  36.669
   248.2,0.001242,0.000297, 37,0.030355,-0.001314,  36.672
   248.4,0.001240,0.000297, 37,0.030261,-0.001302,  36.664
   248.6,0.001235,0.000290, 37,0.030137,-0.001302,  36.666
   248.8,0.001233,0.000290, 37,0.029996,-0.001281,  36.665
   249.0,0.001231,0.000293, 37,0.029826,-0.001255,  36.660
   249.2,0.001234,0.000291, 37,0.029755,-0.001276,  36.664
   249.4,0.001231,0.000288, 37,0.029726,-0.001276,  36.660
   249.6,0.001227,0.000292, 37,0.029731,-0.001284,  36.657
   249.8,0.001215,0.000288, 37,0.029455,-0.001271,  36.657
   250.0,0.001209,0.000290, 37,0.029048,-0.001271,  36.660
   250.2,0.001205,0.000287, 37,0.028528,-0.001292,  36.659
   250.4,0.001210,0.000288, 37,0.028178,-0.001280,  36.657
   250.6,0.001210,0.000287, 37,0.027851,-0.001301,  36.658
   250.8,0.001203,0.000285, 37,0.027546,-0.001309,  36.654
   251.0,0.001200,0.000288, 37,0.027524,-0.001262,  36.656
   251.2,0.001200,0.000288, 37,0.027658,-0.001262,  36.656
   251.4,0.001195,0.000288, 37,0.027947,-0.001283,  36.655
   251.6,0.001193,0.000288, 37,0.028028,-0.001237,  36.646
   251.8,0.001190,0.000288, 37,0.028082,-0.001262,  36.651
   252.0,0.001188,0.000286, 37,0.028122,-0.001296,  36.651
   252.2,0.001189,0.000285, 37,0.027808,-0.001237,  36.649
   252.4,0.001189,0.000281, 37,0.027305,-0.001237,  36.651
   252.6,0.001194,0.000282, 37,0.026624,-0.001258,  36.653
   252.8,0.001189,0.000284, 37,0.026436,-0.001245,  36.648
   253.0,0.001194,0.000284, 37,0.026396,-0.001245,  36.646
   253.2,0.001189,0.000283, 37,0.026506,-0.001266,  36.645
   253.4,0.001181,0.000285, 37,0.026557,-0.001253,  36.645
   253.6,0.001181,0.000284, 37,0.026655,-0.001253,  36.647
   253.8,0.001184,0.000281, 37,0.026802,-0.001228,  36.646
   254.0,0.001181,0.000284, 37,0.026914,-0.001228,  36.650
   254.2,0.001185,0.000282, 37,0.027022,-0.001228,  36.645
   254.4,0.001185,0.000282, 37,0.027131,-0.001248,  36.649
   254.6,0.001177,0.000287, 37,0.027150,-0.001236,  36.647
   254.8,0.001175,0.000290, 37,0.027136,-0.001236,  36.647
   255.0,0.001175,0.000291, 37,0.027060,-0.001257,  36.653
   255.2,0.001175,0.000288, 37,0.026976,-0.001257,  36.649
   255.4,0.001180,0.000290, 37,0.026868,-0.001210,  36.644
   255.6,0.001180,0.000292, 37,0.026730,-0.001197,  36.655
   255.8,0.001175,0.000293, 37,0.026692,-0.001197,  36.649
   256.0,0.001180,0.000289, 37,0.026689,-0.001185,  36.652
   256.2,0.001180,0.000292, 37,0.026718,-0.001172,  36.653
   256.4,0.001175,0.000296, 37,0.026640,-0.001206,  36.648
   256.6,0.001178,0.000294, 37,0.026513,-0.001193,  36.652
   256.8,0.001178,0.000296, 37,0.026350,-0.001214,  36.652
   257.0,0.001175,0.000297, 37,0.026282,-0.001180,  36.648
   257.2,0.001180,0.000294, 37,0.026237,-0.001201,  36.653
   257.4,0.001180,0.000299, 37,0.026222,-0.001180,  36.654
   257.6,0.001180,0.000302, 37,0.026226,-0.001167,  36.658
   257.8,0.001185,0.000304, 37,0.026141,-0.001167,  36.660
   258.0,0.001185,0.000301, 37,0.026035,-0.001154,  36.664
   258.2,0.001185,0.000302, 37,0.025909,-0.001142,  36.659
   258.4,0.001183,0.000302, 37,0.025802,-0.001163,  36.660
   258.6,0.001183,0.000304, 37,0.025701,-0.001150,  36.665
   258.8,0.001180,0.000306, 37,0.025600,-0.001137,  36.663
   259.0,0.001172,0.000307, 37,0.025540,-0.001158,  36.665
   259.2,0.001170,0.000311, 37,0.025501,-0.001158,  36.664
   259.4,0.001170,0.000309, 37,0.025478,-0.001133,  36.664
   259.6,0.001173,0.000315, 37,0.025401,-0.001166,  36.664
   259.8,0.001171,0.000316, 37,0.025310,-0.001133,  36.662
   260.0,0.001166,0.000317, 37,0.025208,-0.001153,  36.660
   260.2,0.001173,0.000317, 37,0.025136,-0.001141,  36.663
   260.4,0.001173,0.000313, 37,0.025075,-0.001141,  36.663
   260.6,0.001171,0.000316, 37,0.025021,-0.001162,  36.665
   260.8,0.001174,0.000318, 37,0.024801,-0.001128,  36.663
   261.0,0.001176,0.000314, 37,0.024507,-0.001115,  36.666
   261.2,0.001174,0.000316, 37,0.024126,-0.001136,  36.671
   261.4,0.001174,0.000313, 37,0.023735,-0.001123,  36.670
   261.6,0.001174,0.000313, 37,0.023291,-0.001110,  36.669
   261.8,0.001174,0.000316, 37,0.022802,-0.001119,  36.664
   262.0,0.001171,0.000316, 37,0.022812,-0.001119,  36.670
   262.2,0.001174,0.000317, 37,0.023052,-0.001119,  36.668
   262.4,0.001176,0.000319, 37,0.023520,-0.001140,  36.669
   262.6,0.001176,0.000322, 37,0.023634,-0.001127,  36.672
   262.8,0.001181,0.000324, 37,0.023682,-0.001127,  36.673
   263.0,0.001181,0.000327, 37,0.023673,-0.001148,  36.671
   263.2,0.001176,0.000329, 37,0.023672,-0.001148,  36.671
   263.4,0.001171,0.000332, 37,0.023648,-0.001101,  36.675
   263.6,0.001171,0.000333, 37,0.023605,-0.001122,  36.674
   263.8,0.001160,0.000334, 37,0.023604,-0.001122,  36.671
   264.0,0.001162,0.000335, 37,0.023610,-0.001076,  36.672
   264.2,0.001162,0.000334, 37,0.023627,-0.001097,  36.672
   264.4,0.001160,0.000335, 37,0.023599,-0.001097,  36.674
   264.6,0.001161,0.000335, 37,0.023553,-0.001097,  36.675
   264.8,0.001163,0.000339, 37,0.023486,-0.001105,  36.673
   265.0,0.001160,0.000339, 37,0.023436,-0.001105,  36.673
   265.2,0.001160,0.000337, 37,0.023387,-0.001105,  36.673
   265.4,0.001165,0.000341, 37,0.023345,-0.001126,  36.672
   265.6,0.001165,0.000341, 37,0.023291,-0.001113,  36.668
   265.8,0.001170,0.000343, 37,0.023233,-0.001079,  36.671
   266.0,0.001172,0.000339, 37,0.023168,-0.001079,  36.673
   266.2,0.001175,0.000338, 37,0.023102,-0.001066,  36.671
   266.4,0.001175,0.000340, 37,0.023006,-0.001054,  36.671
   266.6,0.001175,0.000341, 37,0.022899,-0.001041,  36.671
   266.8,0.001180,0.000346, 37,0.022780,-0.001062,  36.670
   267.0,0.001185,0.000347, 37,0.022698,-0.001049,  36.674
   267.2,0.001185,0.000344, 37,0.022627,-0.001083,  36.671
   267.4,0.001180,0.000343, 37,0.022576,-0.001057,  36.675
   267.6,0.001175,0.000346, 37,0.022451,-0.001044,  36.675
   267.8,0.001177,0.000351, 37,0.022292,-0.001044,  36.675
   268.0,0.001179,0.000352, 37,0.022098,-0.001032,  36.674
   268.2,0.001181,0.000354, 37,0.021750,-0.001053,  36.673
   268.4,0.001178,0.000351, 37,0.021314,-0.001065,  36.670
   268.6,0.001178,0.000358, 37,0.020785,-0.001053,  36.674
   268.8,0.001173,0.000360, 37,0.020566,-0.001086,  36.676
   269.0,0.001175,0.000359, 37,0.020452,-0.001040,  36.673
   269.2,0.001173,0.000363, 37,0.020456,-0.001027,  36.673
   269.4,0.001176,0.000368, 37,0.020323,-0.001061,  36.671
   269.6,0.001176,0.000366, 37,0.020163,-0.001014,  36.669
   269.8,0.001174,0.000368, 37,0.019996,-0.001035,  36.669
   270.0,0.001175,0.000373, 37,0.020102,-0.001035,  36.667
   270.2,0.001177,0.000372, 37,0.020327,-0.001022,  36.669
   270.4,0.001179,0.000371, 37,0.020683,-0.001043,  36.666
   270.6,0.001187,0.000371, 37,0.020691,-0.000997,  36.671
   270.8,0.001189,0.000369, 37,0.020585,-0.000997,  36.667
   271.0,0.001191,0.000367, 37,0.020365,-0.000997,  36.669
   271.2,0.001186,0.000369, 37,0.020435,-0.000997,  36.667
   271.4,0.001180,0.000367, 37,0.020594,-0.000989,  36.668
   271.6,0.001180,0.000368, 37,0.020843,-0.001022,  36.667
   271.8,0.001185,0.000372, 37,0.020941,-0.001031,  36.667
   272.0,0.001193,0.000373, 37,0.021009,-0.001005,  36.667
   272.2,0.001195,0.000379, 37,0.021045,-0.001013,  36.664
   272.4,0.001197,0.000381, 37,0.021049,-0.001000,  36.672
   272.6,0.001198,0.000383, 37,0.021023,-0.001000,  36.664
   272.8,0.001198,0.000384, 37,0.020954,-0.001021,  36.669
   273.0,0.001193,0.000387, 37,0.020930,-0.001000,  36.663
   273.2,0.001196,0.000388, 37,0.020919,-0.001000,  36.666
   273.4,0.001198,0.000389, 37,0.020900,-0.001009,  36.661
   273.6,0.001195,0.000391, 37,0.020831,-0.001009,  36.661
   273.8,0.001199,0.000389, 37,0.020730,-0.000996,  36.659
   274.0,0.001202,0.000391, 37,0.020601,-0.001017,  36.660
   274.2,0.001202,0.000395, 37,0.020559,-0.000991,  36.658
   274.4,0.001207,0.000394, 37,0.020560,-0.000991,  36.656
   274.6,0.001209,0.000391, 37,0.020580,-0.000978,  36.653
   274.8,0.001204,0.000395, 37,0.020549,-0.000966,  36.646
   275.0,0.001207,0.000392, 37,0.020511,-0.000966,  36.649
   275.2,0.001209,0.000395, 37,0.020457,-0.000953,  36.648
   275.4,0.001212,0.000397, 37,0.020386,-0.000940,  36.644
   275.6,0.001217,0.000400, 37,0.020355,-0.000927,  36.648
   275.8,0.001222,0.000402, 37,0.020329,-0.000927,  36.646
   276.0,0.001224,0.000407, 37,0.020307,-0.000914,  36.645
   276.2,0.001224,0.000410, 37,0.020254,-0.000935,  36.641
   276.4,0.001228,0.000412, 37,0.020187,-0.000935,  36.638
   276.6,0.001231,0.000407, 37,0.020114,-0.000956,  36.640
   276.8,0.001231,0.000409, 37,0.020033,-0.000931,  36.638
   277.0,0.001233,0.000414, 37,0.019931,-0.000910,  36.640
   277.2,0.001225,0.000420, 37,0.019817,-0.000910,  36.638
   277.4,0.001225,0.000426, 37,0.019385,-0.000931,  36.639
   277.6,0.001230,0.000429, 37,0.018785,-0.000943,  36.636
   277.8,0.001226,0.000432, 37,0.018015,-0.000931,  36.640
   278.0,0.001236,0.000432, 37,0.017914,-0.000952,  36.637
   278.2,0.001239,0.000433, 37,0.018064,-0.000918,  36.632
   278.4,0.001238,0.000433, 37,0.018466,-0.000905,  36.628
   278.6,0.001243,0.000433, 37,0.018582,-0.000926,  36.628
   278.8,0.001245,0.000434, 37,0.018691,-0.000892,  36.624
   279.0,0.001250,0.000437, 37,0.018784,-0.000867,  36.620
   279.2,0.001260,0.000438, 37,0.018505,-0.000900,  36.626
   279.4,0.001262,0.000442, 37,0.018031,-0.000900,  36.620
   279.6,0.001264,0.000444, 37,0.017359,-0.000888,  36.624
   279.8,0.001267,0.000449, 37,0.017391,-0.000896,  36.625
   280.0,0.001270,0.000448, 37,0.017673,-0.000896,  36.622
   280.2,0.001274,0.000446, 37,0.018214,-0.000917,  36.617
   280.4,0.001274,0.000454, 37,0.018348,-0.000904,  36.618
   280.6,0.001276,0.000458, 37,0.018404,-0.000904,  36.621
   280.8,0.001279,0.000455, 37,0.018382,-0.000925,  36.617
   281.0,0.001279,0.000462, 37,0.018248,-0.000878,  36.616
   281.2,0.001279,0.000462, 37,0.018022,-0.000878,  36.620
   281.4,0.001283,0.000468, 37,0.017705,-0.000887,  36.619
   281.6,0.001288,0.000470, 37,0.017732,-0.000874,  36.617
   281.8,0.001290,0.000471, 37,0.017886,-0.000874,  36.611
   282.0,0.001289,0.000473, 37,0.018167,-0.000895,  36.614
   282.2,0.001288,0.000480, 37,0.018260,-0.000869,  36.609
   282.4,0.001288,0.000482, 37,0.018319,-0.000882,  36.603
   282.6,0.001287,0.000481, 37,0.018336,-0.000903,  36.602
   282.8,0.001290,0.000487, 37,0.018174,-0.000856,  36.604
   283.0,0.001303,0.000492, 37,0.017904,-0.000856,  36.603
   283.2,0.001313,0.000498, 37,0.017531,-0.000877,  36.599
   283.4,0.001315,0.000502, 37,0.017455,-0.000844,  36.596
   283.6,0.001317,0.000504, 37,0.017471,-0.000844,  36.594
   283.8,0.001323,0.000509, 37,0.017592,-0.000864,  36.592
   284.0,0.001325,0.000511, 37,0.017800,-0.000831,  36.591
   284.2,0.001328,0.000515, 37,0.017535,-0.000818,  36.596
   284.4,0.001325,0.000514, 37,0.017136,-0.000805,  36.591
   284.6,0.001331,0.000518, 37,0.016604,-0.000826,  36.590
   284.8,0.001336,0.000521, 37,0.016626,-0.000813,  36.589
   285.0,0.001338,0.000522, 37,0.016858,-0.000813,  36.593
   285.2,0.001342,0.000525, 37,0.017298,-0.000813,  36.587
   285.4,0.001339,0.000528, 37,0.017456,-0.000800,  36.590
   285.6,0.001338,0.000529, 37,0.017580,-0.000821,  36.586
   285.8,0.001345,0.000530, 37,0.017665,-0.000809,  36.583
   286.0,0.001346,0.000532, 37,0.017738,-0.000809,  36.586
   286.2,0.001343,0.000535, 37,0.017784,-0.000809,  36.580
   286.4,0.001348,0.000535, 37,0.017816,-0.000830,  36.581
   286.6,0.001350,0.000538, 37,0.017829,-0.000817,  36.581
   286.8,0.001355,0.000534, 37,0.017817,-0.000817,  36.577
   287.0,0.001357,0.000542, 37,0.017778,-0.000825,  36.571
   287.2,0.001360,0.000545, 37,0.017763,-0.000825,  36.570
   287.4,0.001362,0.000544, 37,0.017742,-0.000791,  36.568
   287.6,0.001359,0.000553, 37,0.017715,-0.000778,  36.555
   287.8,0.001356,0.000557, 37,0.017729,-0.000787,  36.551
   288.0,0.001356,0.000558, 37,0.017752,-0.000787,  36.544
   288.2,0.001358,0.000559, 37,0.017792,-0.000774,  36.543
   288.4,0.001358,0.000563, 37,0.017760,-0.000795,  36.540
   288.6,0.001366,0.000563, 37,0.017699,-0.000761,  36.541
   288.8,0.001368,0.000567, 37,0.017604,-0.000748,  36.538
   289.0,0.001370,0.000572, 37,0.017544,-0.000782,  36.535
   289.2,0.001376,0.000571, 37,0.017486,-0.000748,  36.536
   289.4,0.001383,0.000571, 37,0.017439,-0.000735,  36.532
   289.6,0.001386,0.000570, 37,0.017401,-0.000769,  36.534
   289.8,0.001388,0.000574, 37,0.017364,-0.000756,  36.534
   290.0,0.001387,0.000577, 37,0.017337,-0.000743,  36.532
   290.2,0.001392,0.000578, 37,0.017343,-0.000731,  36.532
   290.4,0.001400,0.000578, 37,0.017370,-0.000731,  36.525
   290.6,0.001397,0.000581, 37,0.017408,-0.000718,  36.528
   290.8,0.001407,0.000582, 37,0.017383,-0.000718,  36.533
   291.0,0.001407,0.000583, 37,0.017330,-0.000743,  36.537
   291.2,0.001404,0.000582, 37,0.017253,-0.000743,  36.530
   291.4,0.001411,0.000588, 37,0.017200,-0.000718,  36.532
   291.6,0.001411,0.000591, 37,0.017149,-0.000705,  36.537
   291.8,0.001410,0.000592, 37,0.017088,-0.000726,  36.537
   292.0,0.001418,0.000598, 37,0.017059,-0.000713,  36.539
   292.2,0.001420,0.000602, 37,0.017042,-0.000734,  36.538
   292.4,0.001419,0.000599, 37,0.017042,-0.000734,  36.535
   292.6,0.001429,0.000602, 37,0.017047,-0.000755,  36.536
   292.8,0.001432,0.000605, 37,0.016886,-0.000721,  36.537
   293.0,0.001428,0.000607, 37,0.016664,-0.000708,  36.537
   293.2,0.001436,0.000610, 37,0.016387,-0.000729,  36.541
   293.4,0.001436,0.000610, 37,0.016340,-0.000717,  36.541
   293.6,0.001435,0.000613, 37,0.016381,-0.000717,  36.537
   293.8,0.001437,0.000618, 37,0.016504,-0.000738,  36.534
   294.0,0.001440,0.000622, 37,0.016487,-0.000712,  36.532
   294.2,0.001439,0.000625, 37,0.016436,-0.000691,  36.538
   294.4,0.001443,0.000628, 37,0.016357,-0.000712,  36.538
   294.6,0.001451,0.000631, 37,0.016386,-0.000712,  36.538
   294.8,0.001454,0.000634, 37,0.016452,-0.000678,  36.539
   295.0,0.001461,0.000630, 37,0.016552,-0.000712,  36.539
   295.2,0.001469,0.000634, 37,0.016529,-0.000712,  36.539
   295.4,0.001476,0.000635, 37,0.016451,-0.000691,  36.539
   295.6,0.001474,0.000638, 37,0.016328,-0.000712,  36.542
   295.8,0.001477,0.000642, 37,0.016295,-0.000686,  36.540
   296.0,0.001473,0.000642, 37,0.016284,-0.000674,  36.541
   296.2,0.001474,0.000646, 37,0.016290,-0.000682,  36.545
   296.4,0.001482,0.000650, 37,0.016312,-0.000682,  36.541
   296.6,0.001487,0.000657, 37,0.016341,-0.000682,  36.542
   296.8,0.001486,0.000660, 37,0.016394,-0.000703,  36.543
   297.0,0.001493,0.000666, 37,0.016253,-0.000690,  36.545
   297.2,0.001501,0.000669, 37,0.016015,-0.000669,  36.546
   297.4,0.001506,0.000674, 37,0.015689,-0.000703,  36.546
   297.6,0.001510,0.000675, 37,0.015640,-0.000677,  36.547
   297.8,0.001512,0.000680, 37,0.015686,-0.000643,  36.549
   298.0,0.001511,0.000684, 37,0.015823,-0.000698,  36.549
   298.2,0.001516,0.000685, 37,0.015855,-0.000685,  36.550
   298.4,0.001515,0.000694, 37,0.015877,-0.000672,  36.550
   298.6,0.001514,0.000696, 37,0.015893,-0.000693,  36.547
   298.8,0.001522,0.000700, 37,0.015948,-0.000693,  36.552
   299.0,0.001524,0.000700, 37,0.016019,-0.000647,  36.547
   299.2,0.001523,0.000700, 37,0.016106,-0.000634,  36.551
   299.4,0.001533,0.000701, 37,0.016117,-0.000655,  36.553
   299.6,0.001541,0.000704, 37,0.016085,-0.000676,  36.555
   299.8,0.001540,0.000707, 37,0.016037,-0.000663,  36.562
   300.0,0.001542,0.000708, 37,0.016004,-0.000650,  36.559
   300.2,0.001552,0.000712, 37,0.015963,-0.000663,  36.554
   300.4,0.001551,0.000717, 37,0.015920,-0.000650,  36.560
   300.6,0.001559,0.000722, 37,0.015913,-0.000637,  36.557
   300.8,0.001564,0.000722, 37,0.015929,-0.000637,  36.559
   301.0,0.001563,0.000727, 37,0.015951,-0.000637,  36.561
   301.2,0.001568,0.000732, 37,0.015999,-0.000658,  36.565
   301.4,0.001570,0.000731, 37,0.015959,-0.000625,  36.561
   301.6,0.001569,0.000737, 37,0.015892,-0.000612,  36.561
   301.8,0.001576,0.000740, 37,0.015797,-0.000599,  36.566
   302.0,0.001584,0.000741, 37,0.015785,-0.000586,  36.564
   302.2,0.001585,0.000746, 37,0.015794,-0.000573,  36.565
   302.4,0.001593,0.000749, 37,0.015826,-0.000560,  36.562
   302.6,0.001603,0.000752, 37,0.015835,-0.000548,  36.569
   302.8,0.001602,0.000750, 37,0.015844,-0.000573,  36.572
   303.0,0.001609,0.000755, 37,0.015847,-0.000573,  36.567
   303.2,0.001609,0.000754, 37,0.015854,-0.000581,  36.564
   303.4,0.001608,0.000754, 37,0.015865,-0.000581,  36.565
   303.6,0.001618,0.000757, 37,0.015879,-0.000569,  36.573
   303.8,0.001621,0.000761, 37,0.015869,-0.000590,  36.570
   304.0,0.001625,0.000761, 37,0.015853,-0.000556,  36.570
   304.2,0.001630,0.000768, 37,0.015828,-0.000543,  36.576
   304.4,0.001637,0.000773, 37,0.015818,-0.000564,  36.571
   304.6,0.001640,0.000776, 37,0.015821,-0.000530,  36.574
   304.8,0.001639,0.000782, 37,0.015820,-0.000517,  36.576
   305.0,0.001646,0.000784, 37,0.015819,-0.000551,  36.578
   305.2,0.001646,0.000786, 37,0.015817,-0.000530,  36.582
   305.4,0.001651,0.000790, 37,0.015819,-0.000538,  36.585
   305.6,0.001643,0.000792, 37,0.015785,-0.000559,  36.587
   305.8,0.001649,0.000794, 37,0.015726,-0.000559,  36.584
   306.0,0.001653,0.000793, 37,0.015657,-0.000580,  36.585
   306.2,0.001655,0.000799, 37,0.015627,-0.000555,  36.585
   306.4,0.001655,0.000799, 37,0.015600,-0.000534,  36.584
   306.6,0.001660,0.000802, 37,0.015590,-0.000555,  36.587
   306.8,0.001659,0.000809, 37,0.015560,-0.000542,  36.586
   307.0,0.001667,0.000810, 37,0.015527,-0.000542,  36.579
   307.2,0.001666,0.000810, 37,0.015491,-0.000563,  36.585
   307.4,0.001670,0.000807, 37,0.015469,-0.000529,  36.584
   307.6,0.001673,0.000807, 37,0.015448,-0.000529,  36.581
   307.8,0.001672,0.000811, 37,0.015446,-0.000550,  36.583
   308.0,0.001679,0.000822, 37,0.015450,-0.000529,  36.586
   308.2,0.001684,0.000821, 37,0.015448,-0.000508,  36.585
   308.4,0.001691,0.000821, 37,0.015462,-0.000529,  36.580
   308.6,0.001695,0.000823, 37,0.015468,-0.000516,  36.578
   308.8,0.001703,0.000826, 37,0.015462,-0.000503,  36.583
   309.0,0.001707,0.000829, 37,0.015461,-0.000524,  36.582
   309.2,0.001706,0.000833, 37,0.015416,-0.000511,  36.583
   309.4,0.001714,0.000837, 37,0.015353,-0.000532,  36.580
   309.6,0.001719,0.000838, 37,0.015261,-0.000553,  36.580
   309.8,0.001723,0.000840, 37,0.015225,-0.000553,  36.585
   310.0,0.001733,0.000846, 37,0.015200,-0.000541,  36.581
   310.2,0.001740,0.000852, 37,0.015197,-0.000507,  36.585
   310.4,0.001747,0.000856, 37,0.015203,-0.000541,  36.583
   310.6,0.001754,0.000859, 37,0.015183,-0.000541,  36.584
   310.8,0.001759,0.000861, 37,0.015160,-0.000507,  36.580
   311.0,0.001758,0.000868, 37,0.015135,-0.000528,  36.580
   311.2,0.001765,0.000870, 37,0.015113,-0.000515,  36.580
   311.4,0.001772,0.000873, 37,0.015085,-0.000489,  36.584
   311.6,0.001769,0.000883, 37,0.015066,-0.000510,  36.584
   311.8,0.001781,0.000887, 37,0.015061,-0.000497,  36.587
   312.0,0.001788,0.000892, 37,0.015063,-0.000451,  36.587
   312.2,0.001785,0.000895, 37,0.015071,-0.000438,  36.583
   312.4,0.001793,0.000896, 37,0.015102,-0.000438,  36.587
   312.6,0.001797,0.000903, 37,0.015153,-0.000451,  36.582
   312.8,0.001804,0.000907, 37,0.015207,-0.000438,  36.585
   313.0,0.001814,0.000918, 37,0.015205,-0.000459,  36.587
   313.2,0.001821,0.000921, 37,0.015183,-0.000446,  36.582
   313.4,0.001822,0.000925, 37,0.015127,-0.000433,  36.583
   313.6,0.001829,0.000929, 37,0.015120,-0.000454,  36.586
   313.8,0.001838,0.000934, 37,0.015132,-0.000454,  36.583
   314.0,0.001839,0.000943, 37,0.015144,-0.000428,  36.584
   314.2,0.001844,0.000949, 37,0.015158,-0.000462,  36.581
   314.4,0.001848,0.000952, 37,0.015178,-0.000462,  36.584
   314.6,0.001855,0.000957, 37,0.015197,-0.000449,  36.585
   314.8,0.001863,0.000959, 37,0.015144,-0.000458,  36.582
   315.0,0.001865,0.000960, 37,0.015063,-0.000424,  36.584
   315.2,0.001869,0.000964, 37,0.014939,-0.000445,  36.584
   315.4,0.001874,0.000967, 37,0.014942,-0.000432,  36.586
   315.6,0.001884,0.000969, 37,0.014992,-0.000419,  36.582
   315.8,0.001888,0.000977, 37,0.015083,-0.000440,  36.582
   316.0,0.001891,0.000981, 37,0.015079,-0.000406,  36.582
   316.2,0.001891,0.000986, 37,0.015048,-0.000393,  36.583
   316.4,0.001895,0.000995, 37,0.014993,-0.000414,  36.586
   316.6,0.001900,0.001001, 37,0.015017,-0.000402,  36.585
   316.8,0.001902,0.001004, 37,0.015068,-0.000402,  36.585
   317.0,0.001906,0.001009, 37,0.015142,-0.000435,  36.585
   317.2,0.001911,0.001014, 37,0.015172,-0.000402,  36.585
   317.4,0.001911,0.001021, 37,0.015183,-0.000393,  36.590
   317.6,0.001918,0.001028, 37,0.015189,-0.000427,  36.581
   317.8,0.001918,0.001032, 37,0.015203,-0.000402,  36.587
   318.0,0.001918,0.001034, 37,0.015209,-0.000376,  36.591
   318.2,0.001928,0.001037, 37,0.015212,-0.000384,  36.585
   318.4,0.001928,0.001038, 37,0.015202,-0.000384,  36.587
   318.6,0.001925,0.001036, 37,0.015182,-0.000363,  36.586
   318.8,0.001928,0.001031, 37,0.015149,-0.000350,  36.588
   319.0,0.001932,0.001033, 37,0.015105,-0.000371,  36.586
   319.2,0.001932,0.001032, 37,0.015069,-0.000358,  36.589
   319.4,0.001937,0.001035, 37,0.015028,-0.000358,  36.588
   319.6,0.001943,0.001041, 37,0.014986,-0.000379,  36.589
   319.8,0.001956,0.001041, 37,0.014947,-0.000333,  36.588
   320.0,0.001955,0.001044, 37,0.014919,-0.000354,  36.592
   320.2,0.001959,0.001051, 37,0.014894,-0.000375,  36.591
   320.4,0.001961,0.001052, 37,0.014850,-0.000328,  36.592
   320.6,0.001966,0.001055, 37,0.014803,-0.000307,  36.593
   320.8,0.001970,0.001060, 37,0.014750,-0.000328,  36.589
   321.0,0.001973,0.001063, 37,0.014791,-0.000328,  36.588
   321.2,0.001975,0.001066, 37,0.014879,-0.000315,  36.585
   321.4,0.001983,0.001062, 37,0.015012,-0.000336,  36.586
   321.6,0.001988,0.001064, 37,0.015060,-0.000336,  36.582
   321.8,0.001987,0.001067, 37,0.015091,-0.000323,  36.589
   322.0,0.001996,0.001074, 37,0.015093,-0.000344,  36.581
   322.2,0.002007,0.001079, 37,0.015059,-0.000344,  36.580
   322.4,0.002008,0.001078, 37,0.014996,-0.000331,  36.580
   322.6,0.002010,0.001085, 37,0.014903,-0.000352,  36.585
   322.8,0.002014,0.001096, 37,0.014862,-0.000352,  36.583
   323.0,0.002019,0.001096, 37,0.014837,-0.000319,  36.583
   323.2,0.002028,0.001101, 37,0.014823,-0.000306,  36.584
   323.4,0.002028,0.001109, 37,0.014848,-0.000293,  36.588
   323.6,0.002032,0.001113, 37,0.014903,-0.000293,  36.586
   323.8,0.002034,0.001115, 37,0.014982,-0.000293,  36.590
   324.0,0.002044,0.001120, 37,0.014990,-0.000293,  36.587
   324.2,0.002053,0.001124, 37,0.014971,-0.000293,  36.588
   324.4,0.002055,0.001128, 37,0.014932,-0.000280,  36.585
   324.6,0.002059,0.001128, 37,0.014867,-0.000280,  36.582
   324.8,0.002059,0.001132, 37,0.014772,-0.000267,  36.585
   325.0,0.002065,0.001136, 37,0.014662,-0.000254,  36.583
   325.2,0.002070,0.001141, 37,0.014471,-0.000288,  36.582
   325.4,0.002077,0.001138, 37,0.014232,-0.000275,  36.581
   325.6,0.002079,0.001143, 37,0.013941,-0.000262,  36.580
   325.8,0.002089,0.001147, 37,0.013972,-0.000275,  36.580
   326.0,0.002104,0.001148, 37,0.014139,-0.000241,  36.579
   326.2,0.002103,0.001154, 37,0.014427,-0.000216,  36.576
   326.4,0.002105,0.001161, 37,0.014551,-0.000237,  36.580
   326.6,0.002113,0.001168, 37,0.014657,-0.000258,  36.580
   326.8,0.002112,0.001170, 37,0.014752,-0.000232,  36.580
   327.0,0.002117,0.001175, 37,0.014779,-0.000219,  36.578
   327.2,0.002127,0.001179, 37,0.014760,-0.000219,  36.577
   327.4,0.002126,0.001183, 37,0.014708,-0.000240,  36.579
   327.6,0.002133,0.001190, 37,0.014709,-0.000227,  36.578
   327.8,0.002142,0.001194, 37,0.014712,-0.000261,  36.576
   328.0,0.002139,0.001195, 37,0.014733,-0.000215,  36.578
   328.2,0.002144,0.001199, 37,0.014752,-0.000202,  36.571
   328.4,0.002152,0.001198, 37,0.014782,-0.000181,  36.564
   328.6,0.002156,0.001200, 37,0.014817,-0.000194,  36.564
   328.8,0.002161,0.001206, 37,0.014859,-0.000168,  36.566
   329.0,0.002171,0.001207, 37,0.014720,-0.000202,  36.569
   329.2,0.002178,0.001213, 37,0.014490,-0.000189,  36.569
   329.4,0.002177,0.001222, 37,0.014163,-0.000210,  36.565
   329.6,0.002187,0.001223, 37,0.014199,-0.000197,  36.568
   329.8,0.002194,0.001225, 37,0.014373,-0.000197,  36.569
   330.0,0.002193,0.001229, 37,0.014667,-0.000218,  36.570
   330.2,0.002198,0.001229, 37,0.014737,-0.000205,  36.570
   330.4,0.002198,0.001229, 37,0.014778,-0.000192,  36.572
   330.6,0.002204,0.001233, 37,0.014767,-0.000213,  36.568
   330.8,0.002209,0.001237, 37,0.014791,-0.000200,  36.570
   331.0,0.002213,0.001241, 37,0.014815,-0.000200,  36.565
   331.2,0.002216,0.001249, 37,0.014838,-0.000208,  36.568
   331.4,0.002226,0.001255, 37,0.014555,-0.000175,  36.567
   331.6,0.002228,0.001264, 37,0.014117,-0.000175,  36.567
   331.8,0.002232,0.001269, 37,0.013523,-0.000196,  36.564
   332.0,0.002240,0.001270, 37,0.013548,-0.000149,  36.566
   332.2,0.002240,0.001275, 37,0.013813,-0.000149,  36.564
   332.4,0.002241,0.001278, 37,0.014315,-0.000170,  36.559
   332.6,0.002246,0.001278, 37,0.014458,-0.000170,  36.563
   332.8,0.002256,0.001280, 37,0.014545,-0.000157,  36.558
   333.0,0.002263,0.001288, 37,0.014577,-0.000178,  36.557
   333.2,0.002265,0.001292, 37,0.014577,-0.000178,  36.557
   333.4,0.002265,0.001292, 37,0.014538,-0.000144,  36.551
   333.6,0.002269,0.001297, 37,0.014444,-0.000165,  36.551
   333.8,0.002276,0.001301, 37,0.014510,-0.000152,  36.553
   334.0,0.002281,0.001302, 37,0.014625,-0.000152,  36.546
   334.2,0.002283,0.001305, 37,0.014799,-0.000127,  36.546
   334.4,0.002285,0.001308, 37,0.014867,-0.000127,  36.543
   334.6,0.002293,0.001311, 37,0.014902,-0.000127,  36.543
   334.8,0.002297,0.001316, 37,0.014918,-0.000114,  36.545
   335.0,0.002294,0.001321, 37,0.014960,-0.000101,  36.539
   335.2,0.002300,0.001326, 37,0.015002,-0.000101,  36.536
   335.4,0.002304,0.001328, 37,0.015048,-0.000122,  36.537
   335.6,0.002303,0.001331, 37,0.015034,-0.000122,  36.536
   335.8,0.002311,0.001329, 37,0.014998,-0.000109,  36.538
   336.0,0.002315,0.001331, 37,0.014934,-0.000109,  36.534
   336.2,0.002317,0.001341, 37,0.014850,-0.000083,  36.530
   336.4,0.002327,0.001343, 37,0.014852,-0.000083,  36.530
   336.6,0.002331,0.001345, 37,0.014877,-0.000083,  36.529
   336.8,0.002328,0.001353, 37,0.014917,-0.000117,  36.534
   337.0,0.002338,0.001354, 37,0.014951,-0.000117,  36.532
   337.2,0.002343,0.001358, 37,0.014988,-0.000117,  36.534
   337.4,0.002345,0.001357, 37,0.015033,-0.000104,  36.528
   337.6,0.002353,0.001359, 37,0.015064,-0.000138,  36.529
   337.8,0.002355,0.001361, 37,0.015088,-0.000091,  36.530
   338.0,0.002359,0.001370, 37,0.015102,-0.000079,  36.529
   338.2,0.002362,0.001377, 37,0.015089,-0.000100,  36.535
   338.4,0.002366,0.001375, 37,0.015058,-0.000100,  36.532
   338.6,0.002371,0.001378, 37,0.014999,-0.000087,  36.532
   338.8,0.002373,0.001379, 37,0.015005,-0.000061,  36.533
   339.0,0.002383,0.001380, 37,0.015024,-0.000074,  36.536
   339.2,0.002387,0.001386, 37,0.015063,-0.000061,  36.533
   339.4,0.002392,0.001386, 37,0.015087,-0.000048,  36.532
   339.6,0.002404,0.001387, 37,0.015111,-0.000048,  36.535
   339.8,0.002406,0.001393, 37,0.015127,-0.000069,  36.532
   340.0,0.002401,0.001404, 37,0.015101,-0.000056,  36.536
   340.2,0.002403,0.001406, 37,0.015037,-0.000077,  36.528
   340.4,0.002413,0.001413, 37,0.014949,-0.000064,  36.528
   340.6,0.002410,0.001416, 37,0.014939,-0.000064,  36.533
   340.8,0.002418,0.001417, 37,0.014957,-0.000031,  36.528
   341.0,0.002422,0.001419, 37,0.014987,-0.000018,  36.530
   341.2,0.002427,0.001423, 37,0.014830,-0.000039,  36.524
   341.4,0.002437,0.001428, 37,0.014593,-0.000005,  36.527
   341.6,0.002438,0.001432, 37,0.014275,-0.000005,  36.523
   341.8,0.002448,0.001442, 37,0.014294,-0.000026,  36.525
   342.0,0.002452,0.001445, 37,0.014445,0.000008,  36.525
   342.2,0.002451,0.001447, 37,0.014723,-0.000013,  36.525
   342.4,0.002456,0.001444, 37,0.014840,-0.000021,  36.521
   342.6,0.002458,0.001445, 37,0.014931,-0.000008,  36.520
   342.8,0.002457,0.001451, 37,0.015005,-0.000029,  36.522
   343.0,0.002467,0.001453, 37,0.015068,-0.000029,  36.519
   343.2,0.002475,0.001456, 37,0.015119,-0.000008,  36.523
   343.4,0.002474,0.001461, 37,0.015151,-0.000016,  36.518
   343.6,0.002484,0.001462, 37,0.015174,-0.000016,  36.519
   343.8,0.002484,0.001467, 37,0.015187,0.000018,  36.519
   344.0,0.002483,0.001473, 37,0.015192,0.000030,  36.518
   344.2,0.002493,0.001480, 37,0.015177,0.000043,  36.521
   344.4,0.002495,0.001484, 37,0.015152,0.000009,  36.520
   344.6,0.002494,0.001485, 37,0.015109,0.000043,  36.519
   344.8,0.002504,0.001489, 37,0.015057,0.000056,  36.521
   345.0,0.002510,0.001490, 37,0.015038,0.000056,  36.522
   345.2,0.002509,0.001492, 37,0.015043,0.000056,  36.521
   345.4,0.002516,0.001495, 37,0.015046,0.000035,  36.521
   345.6,0.002526,0.001500, 37,0.015005,0.000048,  36.525
   345.8,0.002527,0.001504, 37,0.014956,0.000048,  36.524
   346.0,0.002531,0.001511, 37,0.014889,0.000027,  36.524
   346.2,0.002539,0.001514, 37,0.014852,0.000040,  36.522
   346.4,0.002538,0.001515, 37,0.014825,0.000040,  36.527
   346.6,0.002548,0.001511, 37,0.014811,0.000032,  36.525
   346.8,0.002556,0.001511, 37,0.014808,0.000032,  36.525
   347.0,0.002555,0.001516, 37,0.014821,0.000066,  36.527
   347.2,0.002565,0.001522, 37,0.014842,0.000045,  36.528
   347.4,0.002567,0.001524, 37,0.014885,0.000058,  36.529
   347.6,0.002572,0.001525, 37,0.014942,0.000058,  36.530
   347.8,0.002576,0.001530, 37,0.015015,0.000070,  36.530
   348.0,0.002584,0.001535, 37,0.015067,0.000070,  36.530
   348.2,0.002586,0.001534, 37,0.015112,0.000083,  36.525
   348.4,0.002591,0.001535, 37,0.015156,0.000062,  36.531
   348.6,0.002591,0.001540, 37,0.015143,0.000062,  36.527
   348.8,0.002593,0.001543, 37,0.015095,0.000075,  36.536
   349.0,0.002601,0.001544, 37,0.015019,0.000054,  36.528
   349.2,0.002603,0.001556, 37,0.015031,0.000054,  36.529
   349.4,0.002605,0.001560, 37,0.015068,0.000101,  36.534
   349.6,0.002607,0.001562, 37,0.015139,0.000114,  36.532
   349.8,0.002610,0.001566, 37,0.015107,0.000114,  36.535
   350.0,0.002617,0.001568, 37,0.015038,0.000114,  36.537
   350.2,0.002624,0.001568, 37,0.014936,0.000127,  36.535
   350.4,0.002621,0.001573, 37,0.014948,0.000140,  36.531
   350.6,0.002631,0.001572, 37,0.014995,0.000140,  36.532
   350.8,0.002638,0.001572, 37,0.015076,0.000152,  36.536
   351.0,0.002634,0.001577, 37,0.015105,0.000118,  36.538
   351.2,0.002637,0.001580, 37,0.015123,0.000131,  36.533
   351.4,0.002639,0.001581, 37,0.015121,0.000144,  36.536
   351.6,0.002641,0.001592, 37,0.015076,0.000110,  36.535
   351.8,0.002647,0.001597, 37,0.015014,0.000157,  36.538
   352.0,0.002652,0.001600, 37,0.014916,0.000170,  36.536
   352.2,0.002657,0.001608, 37,0.014875,0.000136,  36.538
   352.4,0.002666,0.001609, 37,0.014849,0.000170,  36.540
   352.6,0.002671,0.001613, 37,0.014835,0.000170,  36.540
   352.8,0.002680,0.001613, 37,0.014837,0.000196,  36.540
   353.0,0.002681,0.001617, 37,0.014816,0.000149,  36.539
   353.2,0.002675,0.001622, 37,0.014788,0.000149,  36.543
   353.4,0.002681,0.001628, 37,0.014760,0.000128,  36.538
   353.6,0.002686,0.001630, 37,0.014773,0.000128,  36.543
   353.8,0.002690,0.001633, 37,0.014797,0.000141,  36.542
   354.0,0.002695,0.001635, 37,0.014834,0.000154,  36.543
   354.2,0.002707,0.001638, 37,0.014894,0.000133,  36.539
   354.4,0.002722,0.001646, 37,0.014973,0.000154,  36.537
   354.6,0.002724,0.001650, 37,0.015069,0.000133,  36.538
   354.8,0.002728,0.001651, 37,0.015066,0.000146,  36.539
   355.0,0.002730,0.001654, 37,0.015013,0.000159,  36.534
   355.2,0.002740,0.001655, 37,0.014918,0.000138,  36.530
   355.4,0.002747,0.001657, 37,0.014924,0.000171,  36.528
   355.6,0.002747,0.001659, 37,0.014948,0.000171,  36.530
   355.8,0.002756,0.001664, 37,0.015000,0.000163,  36.536
   356.0,0.002759,0.001666, 37,0.015013,0.000197,  36.531
   356.2,0.002758,0.001665, 37,0.015016,0.000210,  36.527
   356.4,0.002766,0.001670, 37,0.015011,0.000189,  36.527
   356.6,0.002773,0.001675, 37,0.015007,0.000202,  36.526
   356.8,0.002778,0.001680, 37,0.014997,0.000202,  36.523
   357.0,0.002788,0.001685, 37,0.014990,0.000168,  36.525
   357.2,0.002789,0.001697, 37,0.014978,0.000202,  36.523
   357.4,0.002791,0.001703, 37,0.014957,0.000236,  36.522
   357.6,0.002796,0.001709, 37,0.014931,0.000202,  36.524
   357.8,0.002795,0.001715, 37,0.014942,0.000236,  36.517
   358.0,0.002799,0.001716, 37,0.014960,0.000236,  36.524
   358.2,0.002799,0.001720, 37,0.014995,0.000215,  36.516
   358.4,0.002806,0.001723, 37,0.015027,0.000228,  36.517
   358.6,0.002816,0.001727, 37,0.015068,0.000207,  36.517
   358.8,0.002815,0.001732, 37,0.015115,0.000186,  36.517
   359.0,0.002821,0.001742, 37,0.015129,0.000232,  36.519
   359.2,0.002826,0.001745, 37,0.015135,0.000232,  36.514
   359.4,0.002825,0.001746, 37,0.015130,0.000224,  36.517
   359.6,0.002833,0.001747, 37,0.015110,0.000271,  36.513
   359.8,0.002837,0.001747, 37,0.015081,0.000271,  36.513
   360.0,0.002842,0.001755, 37,0.015042,0.000250,  36.512
   360.2,0.002846,0.001757, 37,0.015034,0.000310,  36.507
   360.4,0.002854,0.001759, 37,0.015027,0.000297,  36.508
   360.6,0.002859,0.001761, 37,0.015034,0.000276,  36.510
   360.8,0.002863,0.001761, 37,0.015036,0.000323,  36.510
   361.0,0.002871,0.001767, 37,0.015039,0.000323,  36.512
   361.2,0.002875,0.001769, 37,0.015057,0.000336,  36.514
   361.4,0.002880,0.001773, 37,0.015067,0.000302,  36.511
   361.6,0.002882,0.001774, 37,0.015108,0.000315,  36.510
   361.8,0.002887,0.001777, 37,0.015154,0.000281,  36.514
   362.0,0.002889,0.001783, 37,0.015214,0.000294,  36.508
   362.2,0.002897,0.001786, 37,0.015191,0.000281,  36.512
   362.4,0.002901,0.001795, 37,0.015142,0.000281,  36.507
   362.6,0.002902,0.001796, 37,0.015052,0.000273,  36.508
   362.8,0.002905,0.001797, 37,0.015073,0.000285,  36.508
   363.0,0.002909,0.001808, 37,0.015130,0.000285,  36.514
   363.2,0.002909,0.001814, 37,0.015226,0.000298,  36.510
   363.4,0.002915,0.001819, 37,0.015222,0.000311,  36.511
   363.6,0.002919,0.001815, 37,0.015189,0.000319,  36.510
   363.8,0.002921,0.001820, 37,0.015123,0.000332,  36.506
   364.0,0.002931,0.001814, 37,0.015143,0.000358,  36.509
   364.2,0.002935,0.001817, 37,0.015200,0.000337,  36.512
   364.4,0.002937,0.001819, 37,0.015285,0.000316,  36.512
   364.6,0.002945,0.001824, 37,0.015317,0.000329,  36.509
   364.8,0.002950,0.001828, 37,0.015351,0.000363,  36.511
   365.0,0.002952,0.001831, 37,0.015374,0.000389,  36.502
   365.2,0.002952,0.001830, 37,0.015321,0.000389,  36.495
   365.4,0.002954,0.001832, 37,0.015238,0.000389,  36.493
   365.6,0.002951,0.001838, 37,0.015112,0.000401,  36.494
   365.8,0.002956,0.001842, 37,0.015092,0.000401,  36.489
   366.0,0.002959,0.001845, 37,0.015090,0.000389,  36.491
   366.2,0.002963,0.001849, 37,0.015120,0.000389,  36.485
   366.4,0.002965,0.001860, 37,0.015152,0.000368,  36.485
   366.6,0.002973,0.001861, 37,0.015198,0.000380,  36.487
   366.8,0.002983,0.001868, 37,0.015258,0.000393,  36.485
   367.0,0.002985,0.001868, 37,0.015261,0.000372,  36.485
   367.2,0.002985,0.001871, 37,0.015246,0.000419,  36.485
   367.4,0.002984,0.001873, 37,0.015204,0.000432,  36.488
   367.6,0.002987,0.001877, 37,0.015200,0.000411,  36.485
   367.8,0.002991,0.001877, 37,0.015206,0.000411,  36.486
   368.0,0.002996,0.001880, 37,0.015214,0.000424,  36.486
   368.2,0.002996,0.001883, 37,0.014903,0.000424,  36.484
   368.4,0.003001,0.001884, 37,0.014430,0.000424,  36.483
   368.6,0.003000,0.001883, 37,0.013803,0.000403,  36.480
   368.8,0.003010,0.001891, 37,0.013801,0.000416,  36.481
   369.0,0.003020,0.001893, 37,0.014034,0.000382,  36.484
   369.2,0.003019,0.001895, 37,0.014494,0.000361,  36.482
   369.4,0.003031,0.001896, 37,0.014613,0.000421,  36.478
   369.6,0.003039,0.001897, 37,0.014665,0.000408,  36.476
   369.8,0.003038,0.001899, 37,0.014660,0.000387,  36.480
   370.0,0.003043,0.001906, 37,0.014715,0.000433,  36.473
   370.2,0.003050,0.001906, 37,0.014781,0.000433,  36.477
   370.4,0.003052,0.001910, 37,0.014833,0.000446,  36.476
   370.6,0.003064,0.001918, 37,0.014898,0.000459,  36.475
   370.8,0.003074,0.001922, 37,0.014926,0.000459,  36.477
   371.0,0.003073,0.001922, 37,0.014932,0.000459,  36.478
   371.2,0.003075,0.001928, 37,0.014924,0.000472,  36.480
   371.4,0.003077,0.001929, 37,0.014964,0.000485,  36.479
   371.6,0.003077,0.001931, 37,0.015020,0.000485,  36.477
   371.8,0.003084,0.001942, 37,0.015081,0.000464,  36.477
   372.0,0.003094,0.001947, 37,0.015066,0.000498,  36.480
   372.2,0.003099,0.001948, 37,0.015014,0.000485,  36.480
   372.4,0.003103,0.001954, 37,0.014926,0.000451,  36.480
   372.6,0.003111,0.001956, 37,0.014927,0.000477,  36.481
   372.8,0.003118,0.001957, 37,0.014958,0.000490,  36.480
   373.0,0.003115,0.001960, 37,0.015020,0.000469,  36.478
   373.2,0.003124,0.001963, 37,0.015016,0.000482,  36.477
   373.4,0.003131,0.001963, 37,0.014996,0.000482,  36.482
   373.6,0.003128,0.001968, 37,0.014972,0.000461,  36.480
   373.8,0.003136,0.001976, 37,0.014973,0.000495,  36.478
   374.0,0.003140,0.001979, 37,0.014975,0.000529,  36.479
   374.2,0.003137,0.001982, 37,0.014986,0.000508,  36.481
   374.4,0.003145,0.001987, 37,0.015010,0.000508,  36.481
   374.6,0.003147,0.001990, 37,0.015044,0.000520,  36.481
   374.8,0.003152,0.001993, 37,0.015085,0.000499,  36.481
   375.0,0.003146,0.001996, 37,0.015127,0.000512,  36.480
   375.2,0.003152,0.001999, 37,0.015172,0.000525,  36.483
   375.4,0.003154,0.002004, 37,0.015228,0.000504,  36.482
   375.6,0.003148,0.002013, 37,0.015252,0.000517,  36.482
   375.8,0.003156,0.002015, 37,0.015265,0.000538,  36.479
   376.0,0.003158,0.002024, 37,0.015271,0.000483,  36.481
   376.2,0.003161,0.002030, 37,0.015279,0.000496,  36.480
   376.4,0.003166,0.002034, 37,0.015286,0.000496,  36.482
   376.6,0.003166,0.002035, 37,0.015283,0.000475,  36.480
   376.8,0.003168,0.002037, 37,0.015296,0.000488,  36.475
   377.0,0.003174,0.002036, 37,0.015304,0.000535,  36.480
   377.2,0.003176,0.002035, 37,0.015307,0.000548,  36.479
   377.4,0.003175,0.002037, 37,0.015331,0.000548,  36.479
   377.6,0.003183,0.002038, 37,0.015352,0.000548,  36.481
   377.8,0.003193,0.002036, 37,0.015378,0.000595,  36.486
   378.0,0.003195,0.002042, 37,0.015380,0.000607,  36.483
   378.2,0.003203,0.002045, 37,0.015373,0.000595,  36.484
   378.4,0.003213,0.002044, 37,0.015363,0.000595,  36.484
   378.6,0.003217,0.002046, 37,0.015345,0.000607,  36.484
   378.8,0.003214,0.002048, 37,0.015299,0.000574,  36.485
   379.0,0.003219,0.002053, 37,0.015245,0.000586,  36.479
   379.2,0.003221,0.002056, 37,0.015175,0.000565,  36.481
   379.4,0.003228,0.002058, 37,0.015135,0.000565,  36.477
   379.6,0.003228,0.002061, 37,0.015114,0.000612,  36.478
   379.8,0.003232,0.002066, 37,0.015095,0.000625,  36.479
   380.0,0.003240,0.002069, 37,0.014962,0.000625,  36.480
   380.2,0.003239,0.002074, 37,0.014770,0.000625,  36.482
   380.4,0.003241,0.002073, 37,0.014533,0.000638,  36.479
   380.6,0.003241,0.002075, 37,0.014553,0.000604,  36.480
   380.8,0.003246,0.002078, 37,0.014681,0.000604,  36.482
   381.0,0.003250,0.002078, 37,0.014911,0.000617,  36.481
   381.2,0.003256,0.002084, 37,0.014966,0.000604,  36.479
   381.4,0.003255,0.002090, 37,0.014983,0.000625,  36.476
   381.6,0.003265,0.002092, 37,0.014960,0.000651,  36.477
   381.8,0.003275,0.002096, 37,0.014979,0.000617,  36.479
   382.0,0.003276,0.002104, 37,0.015002,0.000630,  36.476
   382.2,0.003286,0.002108, 37,0.015030,0.000643,  36.472
   382.4,0.003290,0.002109, 37,0.015050,0.000622,  36.476
   382.6,0.003293,0.002111, 37,0.015069,0.000622,  36.475
   382.8,0.003297,0.002113, 37,0.015089,0.000622,  36.475
   383.0,0.003292,0.002119, 37,0.014903,0.000635,  36.472
   383.2,0.003297,0.002124, 37,0.014612,0.000669,  36.478
   383.4,0.003300,0.002129, 37,0.014223,0.000682,  36.474
   383.6,0.003300,0.002140, 37,0.014045,0.000640,  36.476
   383.8,0.003307,0.002145, 37,0.013913,0.000653,  36.479
   384.0,0.003306,0.002143, 37,0.013845,0.000644,  36.475
   384.2,0.003314,0.002137, 37,0.013935,0.000657,  36.477
   384.4,0.003322,0.002135, 37,0.014123,0.000657,  36.477
   384.6,0.003321,0.002137, 37,0.014424,0.000636,  36.476
   384.8,0.003328,0.002142, 37,0.014429,0.000696,  36.479
   385.0,0.003331,0.002145, 37,0.014334,0.000683,  36.477
   385.2,0.003328,0.002149, 37,0.014153,0.000662,  36.471
   385.4,0.003333,0.002154, 37,0.014241,0.000709,  36.472
   385.6,0.003333,0.002157, 37,0.014412,0.000709,  36.477
   385.8,0.003332,0.002158, 37,0.014675,0.000688,  36.470
   386.0,0.003344,0.002158, 37,0.014607,0.000722,  36.475
   386.2,0.003349,0.002163, 37,0.014421,0.000722,  36.476
   386.4,0.003353,0.002165, 37,0.014105,0.000701,  36.475
   386.6,0.003358,0.002165, 37,0.014145,0.000701,  36.475
   386.8,0.003363,0.002164, 37,0.014302,0.000714,  36.476
   387.0,0.003366,0.002163, 37,0.014573,0.000727,  36.476
   387.2,0.003366,0.002166, 37,0.014666,0.000740,  36.479
   387.4,0.003369,0.002169, 37,0.014725,0.000740,  36.476
   387.6,0.003370,0.002173, 37,0.014761,0.000740,  36.473
   387.8,0.003372,0.002179, 37,0.014757,0.000766,  36.476
   388.0,0.003371,0.002183, 37,0.014831,0.000766,  36.479
   388.2,0.003378,0.002184, 37,0.014914,0.000753,  36.474
   388.4,0.003381,0.002189, 37,0.015008,0.000719,  36.478
   388.6,0.003388,0.002188, 37,0.015013,0.000732,  36.474
   388.8,0.003390,0.002191, 37,0.014972,0.000766,  36.475
   389.0,0.003390,0.002193, 37,0.014894,0.000744,  36.471
   389.2,0.003395,0.002193, 37,0.014841,0.000757,  36.472
   389.4,0.003399,0.002198, 37,0.014782,0.000770,  36.469
   389.6,0.003399,0.002201, 37,0.014718,0.000749,  36.472
   389.8,0.003409,0.002210, 37,0.014750,0.000749,  36.473
   390.0,0.003411,0.002211, 37,0.014830,0.000762,  36.468
   390.2,0.003415,0.002213, 37,0.014955,0.000741,  36.462
   390.4,0.003426,0.002216, 37,0.015018,0.000754,  36.467
   390.6,0.003431,0.002220, 37,0.015060,0.000788,  36.466
   390.8,0.003430,0.002222, 37,0.015095,0.000767,  36.467
   391.0,0.003440,0.002231, 37,0.015114,0.000793,  36.463
   391.2,0.003442,0.002237, 37,0.015122,0.000814,  36.454
   391.4,0.003442,0.002236, 37,0.015112,0.000793,  36.455
   391.6,0.003444,0.002243, 37,0.015098,0.000793,  36.455
   391.8,0.003442,0.002246, 37,0.015073,0.000827,  36.450
   392.0,0.003439,0.002246, 37,0.015045,0.000806,  36.451
   392.2,0.003447,0.002247, 37,0.015040,0.000806,  36.454
   392.4,0.003454,0.002250, 37,0.015033,0.000819,  36.449
   392.6,0.003462,0.002258, 37,0.015035,0.000832,  36.450
   392.8,0.003464,0.002262, 37,0.014954,0.000832,  36.452
   393.0,0.003466,0.002265, 37,0.014840,0.000832,  36.448
   393.2,0.003476,0.002269, 37,0.014686,0.000845,  36.445
   393.4,0.003476,0.002270, 37,0.014272,0.000845,  36.447
   393.6,0.003471,0.002273, 37,0.013695,0.000845,  36.448
   393.8,0.003475,0.002278, 37,0.012973,0.000857,  36.447
   394.0,0.003482,0.002285, 37,0.012701,0.000870,  36.445
   394.2,0.003487,0.002287, 37,0.012569,0.000870,  36.448
   394.4,0.003491,0.002284, 37,0.012577,0.000849,  36.447
   394.6,0.003494,0.002283, 37,0.012772,0.000875,  36.450
   394.8,0.003499,0.002283, 37,0.013133,0.000862,  36.445
   395.0,0.003498,0.002285, 37,0.013655,0.000841,  36.445
   395.2,0.003503,0.002287, 37,0.013916,0.000820,  36.457
   395.4,0.003503,0.002287, 37,0.014134,0.000854,  36.450
   395.6,0.003505,0.002296, 37,0.014294,0.000867,  36.450
   395.8,0.003507,0.002303, 37,0.014406,0.000833,  36.451
   396.0,0.003515,0.002302, 37,0.014511,0.000893,  36.458
   396.2,0.003512,0.002304, 37,0.014581,0.000880,  36.460
   396.4,0.003519,0.002308, 37,0.014620,0.000859,  36.456
   396.6,0.003527,0.002311, 37,0.014661,0.000859,  36.456
   396.8,0.003524,0.002311, 37,0.014690,0.000893,  36.458
   397.0,0.003529,0.002320, 37,0.014713,0.000906,  36.459
   397.2,0.003530,0.002320, 37,0.014764,0.000885,  36.454
   397.4,0.003527,0.002319, 37,0.014818,0.000885,  36.450
   397.6,0.003534,0.002322, 37,0.014881,0.000898,  36.456
   397.8,0.003546,0.002320, 37,0.014853,0.000911,  36.449
   398.0,0.003543,0.002326, 37,0.014772,0.000898,  36.456
   398.2,0.003545,0.002323, 37,0.014648,0.000877,  36.455
   398.4,0.003551,0.002326, 37,0.014626,0.000890,  36.451
   398.6,0.003550,0.002327, 37,0.014624,0.000869,  36.451
   398.8,0.003552,0.002329, 37,0.014641,0.000848,  36.450
   399.0,0.003557,0.002326, 37,0.014656,0.000882,  36.447
   399.2,0.003554,0.002327, 37,0.014680,0.000869,  36.449
   399.4,0.003562,0.002333, 37,0.014710,0.000882,  36.446
   399.6,0.003572,0.002339, 37,0.014471,0.000895,  36.449
   399.8,0.003574,0.002343, 37,0.014101,0.000929,  36.449
   400.0,0.003576,0.002345, 37,0.013604,0.000954,  36.448
   400.2,0.003576,0.002353, 37,0.013601,0.000933,  36.449
   400.4,0.003574,0.002356, 37,0.013765,0.000967,  36.451
   400.6,0.003579,0.002357, 37,0.014111,0.000946,  36.448
   400.8,0.003586,0.002362, 37,0.014243,0.000972,  36.446
   401.0,0.003591,0.002362, 37,0.014346,0.000959,  36.444
   401.2,0.003595,0.002365, 37,0.014430,0.000938,  36.446
   401.4,0.003600,0.002369, 37,0.014520,0.000972,  36.444
   401.6,0.003608,0.002369, 37,0.014598,0.000972,  36.444
   401.8,0.003612,0.002372, 37,0.014656,0.000951,  36.444
   402.0,0.003611,0.002376, 37,0.014710,0.000951,  36.436
   402.2,0.003611,0.002382, 37,0.014757,0.000964,  36.438
   402.4,0.003613,0.002385, 37,0.014791,0.000943,  36.438
   402.6,0.003613,0.002388, 37,0.014804,0.000943,  36.440
   402.8,0.003617,0.002393, 37,0.014795,0.000990,  36.439
   403.0,0.003621,0.002396, 37,0.014770,0.000969,  36.436
   403.2,0.003626,0.002399, 37,0.014663,0.000982,  36.434
   403.4,0.003630,0.002399, 37,0.014508,0.000982,  36.433
   403.6,0.003635,0.002403, 37,0.014302,0.000961,  36.438
   403.8,0.003637,0.002408, 37,0.014264,0.001021,  36.437
   404.0,0.003645,0.002412, 37,0.014278,0.001008,  36.431
   404.2,0.003649,0.002416, 37,0.014358,0.001008,  36.441
   404.4,0.003651,0.002423, 37,0.014494,0.001021,  36.440
   404.6,0.003661,0.002429, 37,0.014533,0.001021,  36.439
   404.8,0.003666,0.002429, 37,0.014567,0.001021,  36.437
   405.0,0.003670,0.002432, 37,0.014602,0.001013,  36.437
   405.2,0.003673,0.002437, 37,0.014637,0.001013,  36.432
   405.4,0.003683,0.002439, 37,0.014671,0.001025,  36.426
   405.6,0.003685,0.002439, 37,0.014704,0.001004,  36.429
   405.8,0.003685,0.002440, 37,0.014702,0.001004,  36.426
   406.0,0.003695,0.002442, 37,0.014692,0.001025,  36.427
   406.2,0.003699,0.002452, 37,0.014669,0.001004,  36.431
   406.4,0.003699,0.002455, 37,0.014661,0.001004,  36.425
   406.6,0.003696,0.002456, 37,0.014652,0.001038,  36.427
   406.8,0.003704,0.002463, 37,0.014648,0.001017,  36.429
   407.0,0.003709,0.002464, 37,0.014627,0.001030,  36.424
   407.2,0.003708,0.002464, 37,0.014594,0.001077,  36.428
   407.4,0.003713,0.002469, 37,0.014555,0.001069,  36.429
   407.6,0.003715,0.002473, 37,0.014560,0.001082,  36.431
   407.8,0.003714,0.002473, 37,0.014589,0.001082,  36.434
   408.0,0.003717,0.002477, 37,0.014641,0.001095,  36.435
   408.2,0.003722,0.002482, 37,0.014637,0.001108,  36.434
   408.4,0.003722,0.002487, 37,0.014616,0.001108,  36.439
   408.6,0.003724,0.002494, 37,0.014573,0.001121,  36.437
   408.8,0.003727,0.002494, 37,0.014574,0.001121,  36.436
   409.0,0.003727,0.002494, 37,0.014577,0.001121,  36.436
   409.2,0.003729,0.002499, 37,0.014595,0.001134,  36.434
   409.4,0.003731,0.002502, 37,0.014599,0.001147,  36.436
   409.6,0.003731,0.002503, 37,0.014606,0.001147,  36.437
   409.8,0.003730,0.002502, 37,0.014609,0.001126,  36.436
   410.0,0.003740,0.002505, 37,0.014619,0.001118,  36.437
   410.2,0.003746,0.002507, 37,0.014642,0.001105,  36.436
   410.4,0.003742,0.002508, 37,0.014666,0.001084,  36.438
   410.6,0.003748,0.002512, 37,0.014648,0.001063,  36.435
   410.8,0.003748,0.002507, 37,0.014620,0.001131,  36.437
   411.0,0.003747,0.002513, 37,0.014571,0.001144,  36.438
   411.2,0.003757,0.002515, 37,0.014584,0.001110,  36.437
   411.4,0.003761,0.002518, 37,0.014609,0.001144,  36.440
   411.6,0.003761,0.002523, 37,0.014660,0.001157,  36.437
   411.8,0.003770,0.002531, 37,0.014700,0.001110,  36.442
   412.0,0.003770,0.002533, 37,0.014742,0.001144,  36.433
   412.2,0.003772,0.002535, 37,0.014783,0.001157,  36.437
   412.4,0.003780,0.002538, 37,0.014807,0.001123,  36.436
   412.6,0.003784,0.002536, 37,0.014816,0.001135,  36.437
   412.8,0.003783,0.002540, 37,0.014813,0.001148,  36.438
   413.0,0.003791,0.002543, 37,0.014794,0.001161,  36.432
   413.2,0.003796,0.002546, 37,0.014773,0.001127,  36.434
   413.4,0.003795,0.002548, 37,0.014735,0.001161,  36.432
   413.6,0.003803,0.002555, 37,0.014686,0.001174,  36.430
   413.8,0.003811,0.002557, 37,0.014684,0.001187,  36.428
   414.0,0.003810,0.002561, 37,0.014705,0.001200,  36.430
   414.2,0.003818,0.002565, 37,0.014725,0.001213,  36.427
   414.4,0.003818,0.002571, 37,0.014672,0.001200,  36.425
   414.6,0.003814,0.002576, 37,0.014585,0.001200,  36.426
   414.8,0.003822,0.002581, 37,0.014469,0.001213,  36.423
   415.0,0.003822,0.002582, 37,0.014438,0.001179,  36.413
   415.2,0.003827,0.002585, 37,0.014423,0.001192,  36.415
   415.4,0.003829,0.002587, 37,0.014434,0.001184,  36.414
   415.6,0.003837,0.002591, 37,0.014449,0.001150,  36.411
   415.8,0.003841,0.002591, 37,0.014473,0.001163,  36.412
   416.0,0.003843,0.002596, 37,0.014512,0.001142,  36.409
   416.2,0.003849,0.002602, 37,0.014392,0.001189,  36.411
   416.4,0.003853,0.002601, 37,0.014208,0.001210,  36.408
   416.6,0.003858,0.002605, 37,0.013963,0.001176,  36.404
   416.8,0.003865,0.002610, 37,0.013869,0.001236,  36.406
   417.0,0.003868,0.002611, 37,0.013828,0.001236,  36.405
   417.2,0.003861,0.002612, 37,0.013838,0.001215,  36.404
   417.4,0.003859,0.002613, 37,0.013894,0.001249,  36.400
   417.6,0.003861,0.002617, 37,0.013983,0.001249,  36.405
   417.8,0.003864,0.002623, 37,0.014122,0.001249,  36.400
   418.0,0.003864,0.002628, 37,0.014210,0.001249,  36.403
   418.2,0.003869,0.002631, 37,0.014280,0.001270,  36.405
   418.4,0.003866,0.002636, 37,0.014343,0.001249,  36.407
   418.6,0.003874,0.002638, 37,0.014232,0.001262,  36.409
   418.8,0.003879,0.002638, 37,0.014028,0.001275,  36.410
   419.0,0.003881,0.002640, 37,0.013732,0.001267,  36.399
   419.2,0.003876,0.002646, 37,0.013698,0.001267,  36.405
   419.4,0.003881,0.002647, 37,0.013756,0.001280,  36.409
   419.6,0.003891,0.002646, 37,0.013907,0.001258,  36.404
   419.8,0.003894,0.002646, 37,0.013995,0.001271,  36.408
   420.0,0.003903,0.002649, 37,0.014076,0.001271,  36.402
   420.2,0.003913,0.002652, 37,0.014180,0.001250,  36.403
   420.4,0.003911,0.002653, 37,0.014269,0.001297,  36.405
   420.6,0.003903,0.002656, 37,0.014343,0.001310,  36.406
   420.8,0.003906,0.002662, 37,0.014415,0.001289,  36.407
   421.0,0.003906,0.002665, 37,0.014423,0.001323,  36.408
   421.2,0.003911,0.002664, 37,0.014398,0.001310,  36.406
   421.4,0.003908,0.002666, 37,0.014337,0.001289,  36.405
   421.6,0.003916,0.002664, 37,0.014328,0.001302,  36.407
   421.8,0.003921,0.002666, 37,0.014320,0.001302,  36.407
   422.0,0.003920,0.002670, 37,0.014327,0.001302,  36.406
   422.2,0.003928,0.002672, 37,0.014340,0.001315,  36.408
   422.4,0.003930,0.002671, 37,0.014336,0.001302,  36.412
   422.6,0.003929,0.002676, 37,0.014318,0.001289,  36.407
   422.8,0.003937,0.002677, 37,0.014298,0.001281,  36.411
   423.0,0.003937,0.002679, 37,0.014290,0.001315,  36.404
   423.2,0.003934,0.002679, 37,0.014293,0.001328,  36.408
   423.4,0.003941,0.002684, 37,0.014293,0.001307,  36.410
   423.6,0.003949,0.002686, 37,0.014320,0.001320,  36.406
   423.8,0.003948,0.002693, 37,0.014370,0.001354,  36.408
   424.0,0.003951,0.002696, 37,0.014422,0.001333,  36.406
   424.2,0.003955,0.002698, 37,0.014430,0.001333,  36.405
   424.4,0.003954,0.002697, 37,0.014411,0.001346,  36.404
   424.6,0.003960,0.002701, 37,0.014379,0.001359,  36.410
   424.8,0.003965,0.002703, 37,0.014359,0.001359,  36.409
   425.0,0.003964,0.002706, 37,0.014324,0.001372,  36.409
   425.2,0.003972,0.002711, 37,0.014293,0.001351,  36.410
   425.4,0.003982,0.002715, 37,0.014294,0.001351,  36.413
   425.6,0.003981,0.002718, 37,0.014307,0.001364,  36.408
   425.8,0.003989,0.002714, 37,0.014331,0.001343,  36.404
   426.0,0.003989,0.002720, 37,0.014185,0.001343,  36.404
   426.2,0.003991,0.002721, 37,0.013954,0.001377,  36.407
   426.4,0.003993,0.002727, 37,0.013633,0.001390,  36.408
   426.6,0.003998,0.002733, 37,0.013631,0.001403,  36.406
   426.8,0.004001,0.002734, 37,0.013740,0.001403,  36.408
   427.0,0.004003,0.002736, 37,0.013959,0.001416,  36.405
   427.2,0.004005,0.002736, 37,0.014045,0.001382,  36.403
   427.4,0.004008,0.002737, 37,0.014128,0.001395,  36.403
   427.6,0.004010,0.002742, 37,0.014196,0.001408,  36.402
   427.8,0.004012,0.002747, 37,0.014183,0.001361,  36.405
   428.0,0.004012,0.002747, 37,0.014132,0.001395,  36.402
   428.2,0.004014,0.002751, 37,0.014033,0.001408,  36.399
   428.4,0.004011,0.002756, 37,0.013782,0.001374,  36.399
   428.6,0.004021,0.002754, 37,0.013440,0.001421,  36.398
   428.8,0.004023,0.002757, 37,0.013011,0.001434,  36.394
   429.0,0.004026,0.002757, 37,0.013020,0.001387,  36.395
   429.2,0.004031,0.002761, 37,0.013205,0.001421,  36.398
   429.4,0.004036,0.002764, 37,0.013563,0.001446,  36.392
   429.6,0.004032,0.002770, 37,0.013680,0.001412,  36.393
   429.8,0.004032,0.002770, 37,0.013771,0.001425,  36.391
   430.0,0.004032,0.002773, 37,0.013820,0.001438,  36.394
   430.2,0.004032,0.002772, 37,0.013881,0.001451,  36.392
   430.4,0.004036,0.002773, 37,0.013928,0.001451,  36.392
   430.6,0.004036,0.002780, 37,0.013962,0.001430,  36.390
   430.8,0.004043,0.002783, 37,0.013981,0.001443,  36.394
   431.0,0.004046,0.002788, 37,0.014005,0.001456,  36.388
   431.2,0.004054,0.002792, 37,0.014023,0.001456,  36.388
   431.4,0.004056,0.002799, 37,0.014039,0.001422,  36.388
   431.6,0.004059,0.002799, 37,0.014070,0.001435,  36.390
   431.8,0.004069,0.002798, 37,0.014105,0.001469,  36.390
   432.0,0.004073,0.002803, 37,0.014147,0.001482,  36.388
   432.2,0.004072,0.002805, 37,0.014176,0.001435,  36.390
   432.4,0.004077,0.002800, 37,0.014199,0.001469,  36.387
   432.6,0.004081,0.002803, 37,0.014212,0.001461,  36.391
   432.8,0.004081,0.002803, 37,0.014192,0.001474,  36.385
   433.0,0.004086,0.002804, 37,0.014149,0.001487,  36.389
   433.2,0.004088,0.002807, 37,0.014089,0.001466,  36.391
   433.4,0.004090,0.002812, 37,0.014043,0.001513,  36.393
   433.6,0.004095,0.002814, 37,0.013997,0.001500,  36.389
   433.8,0.004097,0.002820, 37,0.013950,0.001479,  36.391
   434.0,0.004097,0.002826, 37,0.013747,0.001526,  36.388
   434.2,0.004099,0.002827, 37,0.013454,0.001539,  36.388
   434.4,0.004102,0.002827, 37,0.013093,0.001518,  36.390
   434.6,0.004109,0.002829, 37,0.012784,0.001552,  36.389
   434.8,0.004112,0.002829, 37,0.012456,0.001552,  36.390
   435.0,0.004119,0.002831, 37,0.012120,0.001531,  36.385
   435.2,0.004118,0.002839, 37,0.012209,0.001531,  36.387
   435.4,0.004124,0.002844, 37,0.012506,0.001497,  36.386
   435.6,0.004126,0.002842, 37,0.013022,0.001489,  36.385
   435.8,0.004125,0.002844, 37,0.013126,0.001523,  36.381
   436.0,0.004133,0.002850, 37,0.013137,0.001523,  36.385
   436.2,0.004132,0.002852, 37,0.013052,0.001502,  36.382
   436.4,0.004137,0.002854, 37,0.013184,0.001549,  36.382
   436.6,0.004137,0.002854, 37,0.013380,0.001549,  36.384
   436.8,0.004134,0.002858, 37,0.013631,0.001528,  36.389
   437.0,0.004144,0.002863, 37,0.013731,0.001562,  36.386
   437.2,0.004150,0.002863, 37,0.013775,0.001575,  36.382
   437.4,0.004147,0.002870, 37,0.013768,0.001541,  36.377
   437.6,0.004151,0.002877, 37,0.013815,0.001562,  36.383
   437.8,0.004159,0.002879, 37,0.013857,0.001583,  36.381
   438.0,0.004156,0.002880, 37,0.013902,0.001562,  36.381
   438.2,0.004156,0.002884, 37,0.013927,0.001575,  36.382
   438.4,0.004159,0.002884, 37,0.013929,0.001601,  36.376
   438.6,0.004156,0.002888, 37,0.013929,0.001580,  36.381
   438.8,0.004161,0.002891, 37,0.013937,0.001614,  36.379
   439.0,0.004164,0.002894, 37,0.013942,0.001627,  36.377
   439.2,0.004164,0.002891, 37,0.013939,0.001627,  36.379
   439.4,0.004170,0.002893, 37,0.013953,0.001606,  36.375
   439.6,0.004174,0.002894, 37,0.013977,0.001653,  36.375
   439.8,0.004179,0.002895, 37,0.014008,0.001653,  36.377
   440.0,0.004173,0.002892, 37,0.014043,0.001631,  36.377
   440.2,0.004174,0.002893, 37,0.014002,0.001666,  36.371
   440.4,0.004176,0.002898, 37,0.013941,0.001644,  36.377
   440.6,0.004179,0.002905, 37,0.013845,0.001623,  36.373
   440.8,0.004184,0.002905, 37,0.013781,0.001636,  36.371
   441.0,0.004186,0.002908, 37,0.013712,0.001649,  36.377
   441.2,0.004189,0.002911, 37,0.013642,0.001628,  36.383
   441.4,0.004191,0.002914, 37,0.013711,0.001628,  36.378
   441.6,0.004193,0.002916, 37,0.013851,0.001628,  36.381
   441.8,0.004190,0.002917, 37,0.014062,0.001607,  36.378
   442.0,0.004192,0.002921, 37,0.014076,0.001607,  36.379
   442.2,0.004194,0.002920, 37,0.014030,0.001641,  36.379
   442.4,0.004189,0.002919, 37,0.013923,0.001654,  36.379
   442.6,0.004194,0.002921, 37,0.013860,0.001654,  36.382
   442.8,0.004197,0.002918, 37,0.013790,0.001654,  36.380
   443.0,0.004199,0.002924, 37,0.013710,0.001667,  36.379
   443.2,0.004204,0.002926, 37,0.013652,0.001680,  36.380
   443.4,0.004212,0.002924, 37,0.013604,0.001680,  36.378
   443.6,0.004204,0.002927, 37,0.013552,0.001680,  36.381
   443.8,0.004212,0.002929, 37,0.013550,0.001693,  36.379
   444.0,0.004208,0.002930, 37,0.013570,0.001693,  36.381
   444.2,0.004210,0.002936, 37,0.013617,0.001727,  36.381
   444.4,0.004215,0.002943, 37,0.013615,0.001727,  36.383
   444.6,0.004217,0.002944, 37,0.013593,0.001701,  36.381
   444.8,0.004220,0.002947, 37,0.013570,0.001714,  36.384
   445.0,0.004217,0.002947, 37,0.013524,0.001706,  36.382
   445.2,0.004219,0.002945, 37,0.013465,0.001685,  36.382
   445.4,0.004223,0.002952, 37,0.013385,0.001664,  36.386
   445.6,0.004223,0.002953, 37,0.013398,0.001643,  36.387
   445.8,0.004232,0.002947, 37,0.013433,0.001677,  36.382
   446.0,0.004237,0.002951, 37,0.013503,0.001703,  36.386
   446.2,0.004236,0.002951, 37,0.013208,0.001703,  36.379
   446.4,0.004236,0.002951, 37,0.012737,0.001703,  36.379
   446.6,0.004241,0.002953, 37,0.012096,0.001716,  36.383
   446.8,0.004246,0.002959, 37,0.012112,0.001729,  36.384
   447.0,0.004251,0.002962, 37,0.012377,0.001729,  36.379
   447.2,0.004256,0.002966, 37,0.012880,0.001742,  36.379
   447.4,0.004261,0.002972, 37,0.013024,0.001742,  36.380
   447.6,0.004263,0.002975, 37,0.013102,0.001755,  36.383
   447.8,0.004270,0.002977, 37,0.013128,0.001768,  36.380
   448.0,0.004273,0.002984, 37,0.013189,0.001734,  36.382
   448.2,0.004275,0.002984, 37,0.013240,0.001747,  36.381
   448.4,0.004283,0.002987, 37,0.013279,0.001760,  36.381
   448.6,0.004285,0.002990, 37,0.013312,0.001739,  36.377
   448.8,0.004287,0.002993, 37,0.013346,0.001773,  36.375
   449.0,0.004284,0.002994, 37,0.013365,0.001773,  36.376
   449.2,0.004286,0.002997, 37,0.013377,0.001752,  36.376
   449.4,0.004290,0.002994, 37,0.013364,0.001786,  36.374
   449.6,0.004284,0.002998, 37,0.013333,0.001786,  36.377
   449.8,0.004284,0.003001, 37,0.013282,0.001765,  36.377
   450.0,0.004287,0.003002, 37,0.012883,0.001778,  36.373
   450.2,0.004284,0.003003, 37,0.012296,0.001778,  36.377
   450.4,0.004286,0.003004, 37,0.011537,0.001778,  36.375
   450.6,0.004296,0.003005, 37,0.011501,0.001778,  36.370
   450.8,0.004295,0.003003, 37,0.011732,0.001799,  36.372
   451.0,0.004303,0.003007, 37,0.012234,0.001778,  36.374
   451.2,0.004311,0.003009, 37,0.012410,0.001791,  36.374
   451.4,0.004310,0.003013, 37,0.012567,0.001804,  36.366
   451.6,0.004318,0.003012, 37,0.012694,0.001783,  36.372
   451.8,0.004323,0.003019, 37,0.012385,0.001804,  36.366
   452.0,0.004331,0.003026, 37,0.011851,0.001804,  36.366
   452.2,0.004333,0.003032, 37,0.011086,0.001783,  36.368
   452.4,0.004335,0.003039, 37,0.011174,0.001796,  36.368
   452.6,0.004335,0.003043, 37,0.011572,0.001809,  36.368
   452.8,0.004337,0.003048, 37,0.012268,0.001801,  36.368
   453.0,0.004345,0.003047, 37,0.012510,0.001801,  36.367
   453.2,0.004344,0.003050, 37,0.012688,0.001835,  36.364
   453.4,0.004347,0.003052, 37,0.012792,0.001814,  36.362
   453.6,0.004349,0.003060, 37,0.012723,0.001827,  36.353
   453.8,0.004352,0.003061, 37,0.012529,0.001861,  36.351
   454.0,0.004354,0.003062, 37,0.012216,0.001840,  36.355
   454.2,0.004356,0.003065, 37,0.012250,0.001819,  36.354
   454.4,0.004362,0.003064, 37,0.012401,0.001844,  36.352
   454.6,0.004364,0.003065, 37,0.012657,0.001823,  36.350
   454.8,0.004361,0.003070, 37,0.012769,0.001844,  36.352
   455.0,0.004361,0.003069, 37,0.012863,0.001866,  36.354
   455.2,0.004363,0.003075, 37,0.012941,0.001844,  36.356
   455.4,0.004358,0.003073, 37,0.012820,0.001879,  36.354
   455.6,0.004361,0.003077, 37,0.012593,0.001879,  36.354
   455.8,0.004366,0.003083, 37,0.012250,0.001857,  36.350
   456.0,0.004368,0.003084, 37,0.011963,0.001892,  36.358
   456.2,0.004373,0.003088, 37,0.011649,0.001892,  36.357
   456.4,0.004375,0.003089, 37,0.011302,0.001883,  36.354
   456.6,0.004380,0.003091, 37,0.011277,0.001896,  36.349
   456.8,0.004378,0.003090, 37,0.011407,0.001862,  36.359
   457.0,0.004380,0.003091, 37,0.011677,0.001841,  36.357
   457.2,0.004385,0.003098, 37,0.012097,0.001854,  36.359
   457.4,0.004392,0.003101, 37,0.012266,0.001854,  36.362
   457.6,0.004397,0.003101, 37,0.012422,0.001888,  36.361
   457.8,0.004399,0.003109, 37,0.012559,0.001901,  36.354
   458.0,0.004404,0.003107, 37,0.012676,0.001901,  36.361
   458.2,0.004412,0.003113, 37,0.012779,0.001901,  36.361
   458.4,0.004417,0.003114, 37,0.012857,0.001914,  36.366
   458.6,0.004414,0.003111, 37,0.012935,0.001914,  36.374
   458.8,0.004422,0.003116, 37,0.012998,0.001927,  36.374
   459.0,0.004427,0.003119, 37,0.013049,0.001940,  36.378
   459.2,0.004431,0.003118, 37,0.013071,0.001940,  36.373
   459.4,0.004428,0.003121, 37,0.013066,0.001953,  36.376
   459.6,0.004433,0.003118, 37,0.013028,0.001932,  36.375
   459.8,0.004440,0.003123, 37,0.013037,0.001945,  36.374
   460.0,0.004439,0.003125, 37,0.013056,0.001945,  36.374
   460.2,0.004439,0.003128, 37,0.013086,0.001924,  36.373
   460.4,0.004437,0.003135, 37,0.013061,0.001937,  36.374
   460.6,0.004439,0.003139, 37,0.013007,0.001958,  36.377
   460.8,0.004442,0.003143, 37,0.012929,0.001971,  36.382
   461.0,0.004444,0.003146, 37,0.012904,0.001971,  36.376
   461.2,0.004452,0.003151, 37,0.012889,0.001984,  36.381
   461.4,0.004451,0.003151, 37,0.012889,0.001997,  36.377
   461.6,0.004458,0.003152, 37,0.012843,0.001997,  36.380
   461.8,0.004466,0.003150, 37,0.012774,0.002010,  36.378
   462.0,0.004466,0.003154, 37,0.012689,0.002023,  36.372
   462.2,0.004468,0.003162, 37,0.012731,0.001997,  36.373
   462.4,0.004468,0.003162, 37,0.012816,0.001984,  36.378
   462.6,0.004465,0.003165, 37,0.012956,0.001997,  36.376
   462.8,0.004473,0.003174, 37,0.012972,0.001976,  36.377
   463.0,0.004475,0.003179, 37,0.012960,0.001989,  36.379
   463.2,0.004472,0.003180, 37,0.012910,0.002015,  36.375
   463.4,0.004477,0.003183, 37,0.012906,0.001981,  36.378
   463.6,0.004477,0.003186, 37,0.012903,0.002015,  36.377
   463.8,0.004474,0.003193, 37,0.012904,0.002028,  36.380
   464.0,0.004482,0.003194, 37,0.012920,0.002020,  36.383
   464.2,0.004482,0.003194, 37,0.012945,0.002020,  36.382
   464.4,0.004479,0.003197, 37,0.012982,0.002033,  36.378
   464.6,0.004489,0.003197, 37,0.012952,0.002033,  36.380
   464.8,0.004492,0.003198, 37,0.012902,0.002033,  36.382
   465.0,0.004489,0.003197, 37,0.012823,0.002046,  36.381
   465.2,0.004499,0.003201, 37,0.012806,0.002046,  36.384
   465.4,0.004506,0.003200, 37,0.012809,0.002059,  36.384
   465.6,0.004511,0.003205, 37,0.012822,0.002059,  36.385
   465.8,0.004513,0.003205, 37,0.012857,0.002038,  36.387
   466.0,0.004521,0.003202, 37,0.012860,0.002025,  36.388
   466.2,0.004523,0.003208, 37,0.012858,0.001991,  36.384
   466.4,0.004523,0.003215, 37,0.012849,0.001991,  36.386
   466.6,0.004526,0.003218, 37,0.012842,0.002004,  36.382
   466.8,0.004528,0.003220, 37,0.012834,0.002017,  36.381
   467.0,0.004531,0.003226, 37,0.012824,0.001996,  36.382
   467.2,0.004533,0.003231, 37,0.012788,0.002043,  36.386
   467.4,0.004535,0.003231, 37,0.012739,0.002043,  36.383
   467.6,0.004538,0.003230, 37,0.012673,0.002022,  36.384
   467.8,0.004543,0.003233, 37,0.012655,0.002082,  36.380
   468.0,0.004547,0.003232, 37,0.012658,0.002069,  36.385
   468.2,0.004544,0.003235, 37,0.012680,0.002048,  36.383
   468.4,0.004550,0.003241, 37,0.012688,0.002095,  36.382
   468.6,0.004554,0.003239, 37,0.012696,0.002095,  36.382
   468.8,0.004553,0.003242, 37,0.012707,0.002074,  36.381
   469.0,0.004559,0.003245, 37,0.012697,0.002108,  36.381
   469.2,0.004561,0.003248, 37,0.012671,0.002108,  36.382
   469.4,0.004558,0.003248, 37,0.012629,0.002087,  36.379
   469.6,0.004566,0.003256, 37,0.012589,0.002087,  36.377
   469.8,0.004566,0.003260, 37,0.012546,0.002100,  36.377
   470.0,0.004570,0.003266, 37,0.012492,0.002079,  36.373
   470.2,0.004573,0.003268, 37,0.012502,0.002079,  36.371
   470.4,0.004573,0.003269, 37,0.012543,0.002113,  36.375
   470.6,0.004576,0.003270, 37,0.012611,0.002092,  36.370
   470.8,0.004576,0.003272, 37,0.012626,0.002118,  36.375
   471.0,0.004576,0.003274, 37,0.012625,0.002152,  36.376
   471.2,0.004581,0.003276, 37,0.012616,0.002131,  36.379
   471.4,0.004583,0.003281, 37,0.012608,0.002144,  36.377
   471.6,0.004581,0.003279, 37,0.012579,0.002178,  36.380
   471.8,0.004586,0.003279, 37,0.012547,0.002157,  36.374
   472.0,0.004589,0.003278, 37,0.012551,0.002157,  36.377
   472.2,0.004589,0.003275, 37,0.012570,0.002144,  36.377
   472.4,0.004585,0.003278, 37,0.012600,0.002123,  36.377
   472.6,0.004588,0.003282, 37,0.012592,0.002170,  36.378
   472.8,0.004598,0.003285, 37,0.012581,0.002170,  36.380
   473.0,0.004597,0.003289, 37,0.012558,0.002162,  36.379
   473.2,0.004597,0.003290, 37,0.012551,0.002196,  36.382
   473.4,0.004604,0.003291, 37,0.012555,0.002196,  36.375
   473.6,0.004601,0.003294, 37,0.012574,0.002175,  36.375
   473.8,0.004609,0.003296, 37,0.012567,0.002175,  36.379
   474.0,0.004618,0.003298, 37,0.012552,0.002162,  36.377
   474.2,0.004614,0.003300, 37,0.012537,0.002162,  36.377
   474.4,0.004617,0.003300, 37,0.012514,0.002154,  36.378
   474.6,0.004624,0.003301, 37,0.012529,0.002188,  36.379
   474.8,0.004621,0.003308, 37,0.012559,0.002201,  36.376
   475.0,0.004624,0.003312, 37,0.012601,0.002180,  36.376
   475.2,0.004626,0.003314, 37,0.012592,0.002193,  36.375
   475.4,0.004625,0.003314, 37,0.012561,0.002193,  36.373
   475.6,0.004635,0.003319, 37,0.012509,0.002206,  36.374
   475.8,0.004637,0.003322, 37,0.012467,0.002206,  36.371
   476.0,0.004636,0.003325, 37,0.012424,0.002206,  36.372
   476.2,0.004644,0.003330, 37,0.012370,0.002219,  36.369
   476.4,0.004647,0.003331, 37,0.012350,0.002219,  36.370
   476.6,0.004644,0.003331, 37,0.012341,0.002232,  36.371
   476.8,0.004649,0.003327, 37,0.012344,0.002245,  36.372
   477.0,0.004652,0.003331, 37,0.012358,0.002245,  36.369
   477.2,0.004649,0.003331, 37,0.012387,0.002245,  36.370
   477.4,0.004657,0.003334, 37,0.012428,0.002258,  36.367
   477.6,0.004659,0.003337, 37,0.012430,0.002271,  36.367
   477.8,0.004662,0.003336, 37,0.012413,0.002258,  36.371
   478.0,0.004664,0.003342, 37,0.012393,0.002224,  36.369
   478.2,0.004669,0.003348, 37,0.012398,0.002250,  36.370
   478.4,0.004669,0.003352, 37,0.012400,0.002250,  36.371
   478.6,0.004671,0.003355, 37,0.012417,0.002229,  36.368
   478.8,0.004671,0.003356, 37,0.012420,0.002242,  36.370
   479.0,0.004674,0.003356, 37,0.012417,0.002276,  36.372
   479.2,0.004678,0.003362, 37,0.012414,0.002289,  36.370
   479.4,0.004673,0.003359, 37,0.012394,0.002302,  36.368
   479.6,0.004678,0.003358, 37,0.012361,0.002302,  36.366
   479.8,0.004681,0.003365, 37,0.012317,0.002315,  36.373
   480.0,0.004683,0.003369, 37,0.012291,0.002281,  36.371
   480.2,0.004694,0.003372, 37,0.012261,0.002281,  36.370
   480.4,0.004698,0.003375, 37,0.012235,0.002294,  36.366
   480.6,0.004695,0.003376, 37,0.012223,0.002273,  36.369
   480.8,0.004703,0.003381, 37,0.012224,0.002307,  36.372
   481.0,0.004705,0.003386, 37,0.012229,0.002320,  36.363
   481.2,0.004707,0.003390, 37,0.012222,0.002299,  36.369
   481.4,0.004710,0.003391, 37,0.012218,0.002307,  36.368
   481.6,0.004713,0.003389, 37,0.012208,0.002320,  36.370
   481.8,0.004713,0.003388, 37,0.012183,0.002265,  36.374
   482.0,0.004713,0.003389, 37,0.012151,0.002278,  36.374
   482.2,0.004715,0.003392, 37,0.012102,0.002291,  36.370
   482.4,0.004713,0.003394, 37,0.012088,0.002244,  36.372
   482.6,0.004713,0.003396, 37,0.012086,0.002278,  36.373
   482.8,0.004715,0.003400, 37,0.012104,0.002278,  36.369
   483.0,0.004715,0.003401, 37,0.012124,0.002278,  36.369
   483.2,0.004717,0.003400, 37,0.012101,0.002291,  36.372
   483.4,0.004725,0.003401, 37,0.012070,0.002291,  36.368
   483.6,0.004725,0.003401, 37,0.012032,0.002270,  36.368
   483.8,0.004727,0.003400, 37,0.012029,0.002304,  36.365
   484.0,0.004735,0.003400, 37,0.012033,0.002317,  36.369
   484.2,0.004737,0.003405, 37,0.012042,0.002343,  36.371
   484.4,0.004734,0.003402, 37,0.011996,0.002309,  36.368
   484.6,0.004738,0.003405, 37,0.011926,0.002343,  36.369
   484.8,0.004738,0.003409, 37,0.011823,0.002356,  36.363
   485.0,0.004738,0.003410, 37,0.011754,0.002335,  36.365
   485.2,0.004741,0.003414, 37,0.011686,0.002369,  36.367
   485.4,0.004749,0.003414, 37,0.011624,0.002369,  36.361
   485.6,0.004760,0.003421, 37,0.011612,0.002348,  36.365
   485.8,0.004759,0.003425, 37,0.011631,0.002382,  36.362
   486.0,0.004761,0.003426, 37,0.011678,0.002361,  36.360
   486.2,0.004766,0.003428, 37,0.011715,0.002374,  36.361
   486.4,0.004763,0.003431, 37,0.011765,0.002374,  36.364
   486.6,0.004767,0.003431, 37,0.011821,0.002353,  36.361
   486.8,0.004767,0.003435, 37,0.011480,0.002400,  36.362
   487.0,0.004770,0.003433, 37,0.010946,0.002400,  36.354
   487.2,0.004767,0.003439, 37,0.010215,0.002392,  36.347
   487.4,0.004774,0.003444, 37,0.010078,0.002392,  36.347
   487.6,0.004774,0.003444, 37,0.010133,0.002392,  36.346
   487.8,0.004777,0.003448, 37,0.010381,0.002371,  36.340
   488.0,0.004777,0.003454, 37,0.010544,0.002384,  36.348
   488.2,0.004780,0.003458, 37,0.010765,0.002418,  36.344
   488.4,0.004779,0.003459, 37,0.011033,0.002384,  36.338
   488.6,0.004781,0.003464, 37,0.011158,0.002397,  36.340
   488.8,0.004789,0.003467, 37,0.011238,0.002431,  36.336
   489.0,0.004788,0.003466, 37,0.011266,0.002410,  36.340
   489.2,0.004798,0.003472, 37,0.011353,0.002423,  36.337
   489.4,0.004803,0.003473, 37,0.011434,0.002423,  36.336
   489.6,0.004808,0.003474, 37,0.011523,0.002402,  36.334
   489.8,0.004810,0.003480, 37,0.011562,0.002436,  36.335
   490.0,0.004818,0.003482, 37,0.011579,0.002436,  36.334
   490.2,0.004820,0.003481, 37,0.011560,0.002415,  36.332
   490.4,0.004822,0.003478, 37,0.011594,0.002436,  36.328
   490.6,0.004828,0.003480, 37,0.011634,0.002436,  36.324
   490.8,0.004830,0.003485, 37,0.011680,0.002415,  36.322
   491.0,0.004824,0.003489, 37,0.011666,0.002415,  36.325
   491.2,0.004827,0.003489, 37,0.011633,0.002428,  36.322
   491.4,0.004829,0.003493, 37,0.011568,0.002428,  36.317
   491.6,0.004824,0.003501, 37,0.011480,0.002407,  36.323
   491.8,0.004831,0.003500, 37,0.011492,0.002441,  36.315
   492.0,0.004836,0.003503, 37,0.011516,0.002454,  36.318
   492.2,0.004836,0.003507, 37,0.011557,0.002467,  36.315
   492.4,0.004844,0.003511, 37,0.011526,0.002467,  36.312
   492.6,0.004848,0.003515, 37,0.011467,0.002467,  36.310
   492.8,0.004856,0.003513, 37,0.011376,0.002446,  36.314
   493.0,0.004863,0.003513, 37,0.011402,0.002446,  36.313
   493.2,0.004866,0.003517, 37,0.011474,0.002493,  36.311
   493.4,0.004868,0.003518, 37,0.011596,0.002472,  36.309
   493.6,0.004872,0.003522, 37,0.011385,0.002472,  36.312
   493.8,0.004880,0.003521, 37,0.011033,0.002519,  36.305
   494.0,0.004885,0.003524, 37,0.010545,0.002498,  36.309
   494.2,0.004887,0.003523, 37,0.010547,0.002498,  36.310
   494.4,0.004897,0.003524, 37,0.010705,0.002545,  36.309
   494.6,0.004899,0.003535, 37,0.011040,0.002524,  36.309
   494.8,0.004891,0.003540, 37,0.011155,0.002537,  36.309
   495.0,0.004891,0.003543, 37,0.011238,0.002537,  36.309
   495.2,0.004893,0.003553, 37,0.011298,0.002550,  36.306
   495.4,0.004895,0.003557, 37,0.011348,0.002563,  36.305
   495.6,0.004897,0.003558, 37,0.011371,0.002537,  36.307
   495.8,0.004902,0.003563, 37,0.011381,0.002550,  36.302
   496.0,0.004910,0.003559, 37,0.011437,0.002563,  36.307
   496.2,0.004917,0.003564, 37,0.011505,0.002576,  36.302
   496.4,0.004916,0.003569, 37,0.011584,0.002555,  36.308
   496.6,0.004919,0.003571, 37,0.011579,0.002555,  36.306
   496.8,0.004926,0.003572, 37,0.011542,0.002555,  36.306
   497.0,0.004926,0.003577, 37,0.011469,0.002534,  36.305
   497.2,0.004935,0.003580, 37,0.011480,0.002547,  36.305
   497.4,0.004943,0.003581, 37,0.011510,0.002581,  36.306
   497.6,0.004940,0.003580, 37,0.011571,0.002607,  36.307
   497.8,0.004953,0.003587, 37,0.011611,0.002573,  36.305
   498.0,0.004961,0.003592, 37,0.011651,0.002573,  36.303
   498.2,0.004962,0.003593, 37,0.011690,0.002586,  36.300
   498.4,0.004969,0.003602, 37,0.011658,0.002565,  36.304
   498.6,0.004974,0.003607, 37,0.011591,0.002586,  36.307
   498.8,0.004973,0.003610, 37,0.011476,0.002586,  36.310
   499.0,0.004974,0.003617, 37,0.011443,0.002578,  36.309
   499.2,0.004977,0.003621, 37,0.011437,0.002612,  36.311
   499.4,0.004973,0.003627, 37,0.011438,0.002625,  36.308
   499.6,0.004974,0.003631, 37,0.011438,0.002591,  36.308
   499.8,0.004979,0.003634, 37,0.011440,0.002625,  36.307
   500.0,0.004984,0.003636, 37,0.011451,0.002604,  36.311
   500.2,0.004986,0.003638, 37,0.011459,0.002617,  36.310
   500.4,0.004986,0.003642, 37,0.011510,0.002596,  36.309
   500.6,0.004985,0.003646, 37,0.011573,0.002630,  36.303
   500.8,0.004987,0.003653, 37,0.011657,0.002643,  36.311
   501.0,0.004985,0.003657, 37,0.011652,0.002643,  36.307
   501.2,0.004987,0.003657, 37,0.011606,0.002657,  36.309
   501.4,0.004983,0.003654, 37,0.011533,0.002670,  36.307
   501.6,0.004989,0.003654, 37,0.011507,0.002683,  36.305
   501.8,0.004993,0.003659, 37,0.011478,0.002670,  36.307
   502.0,0.004990,0.003660, 37,0.011463,0.002670,  36.309
   502.2,0.004998,0.003661, 37,0.011368,0.002696,  36.310
   502.4,0.005002,0.003658, 37,0.011237,0.002696,  36.311
   502.6,0.004999,0.003661, 37,0.011067,0.002696,  36.311
   502.8,0.005009,0.003661, 37,0.011070,0.002709,  36.308
   503.0,0.005012,0.003666, 37,0.011138,0.002696,  36.310
   503.2,0.005008,0.003669, 37,0.011274,0.002709,  36.317
   503.4,0.005014,0.003669, 37,0.011341,0.002688,  36.312
   503.6,0.005014,0.003667, 37,0.011387,0.002688,  36.314
   503.8,0.005006,0.003669, 37,0.011433,0.002701,  36.316
   504.0,0.005009,0.003670, 37,0.011474,0.002667,  36.312
   504.2,0.005009,0.003670, 37,0.011510,0.002688,  36.315
   504.4,0.005004,0.003666, 37,0.011539,0.002701,  36.315
   504.6,0.005009,0.003669, 37,0.011519,0.002680,  36.317
   504.8,0.005012,0.003670, 37,0.011466,0.002714,  36.314
   505.0,0.005009,0.003669, 37,0.011388,0.002706,  36.317
   505.2,0.005019,0.003671, 37,0.011074,0.002706,  36.316
   505.4,0.005022,0.003672, 37,0.010616,0.002706,  36.315
   505.6,0.005025,0.003674, 37,0.010021,0.002685,  36.318
   505.8,0.005025,0.003678, 37,0.010029,0.002719,  36.315
   506.0,0.005032,0.003682, 37,0.010262,0.002706,  36.319
   506.2,0.005035,0.003685, 37,0.010723,0.002672,  36.319
   506.4,0.005039,0.003690, 37,0.010876,0.002719,  36.321
   506.6,0.005041,0.003693, 37,0.010974,0.002732,  36.322
   506.8,0.005051,0.003695, 37,0.011038,0.002711,  36.323
   507.0,0.005054,0.003697, 37,0.011083,0.002711,  36.320
   507.2,0.005054,0.003700, 37,0.011090,0.002724,  36.328
   507.4,0.005064,0.003697, 37,0.011068,0.002703,  36.321
   507.6,0.005068,0.003700, 37,0.011054,0.002703,  36.328
   507.8,0.005063,0.003705, 37,0.011027,0.002737,  36.328
   508.0,0.005065,0.003702, 37,0.010985,0.002716,  36.331
   508.2,0.005073,0.003707, 37,0.010981,0.002729,  36.328
   508.4,0.005078,0.003710, 37,0.010993,0.002763,  36.327
   508.6,0.005077,0.003712, 37,0.011010,0.002776,  36.328
   508.8,0.005085,0.003718, 37,0.011043,0.002776,  36.324
   509.0,0.005087,0.003718, 37,0.011051,0.002755,  36.332
   509.2,0.005086,0.003721, 37,0.011047,0.002789,  36.329
   509.4,0.005094,0.003727, 37,0.011043,0.002768,  36.331
   509.6,0.005096,0.003726, 37,0.011080,0.002768,  36.328
   509.8,0.005095,0.003725, 37,0.011142,0.002789,  36.329
   510.0,0.005103,0.003731, 37,0.011221,0.002755,  36.333
   510.2,0.005108,0.003735, 37,0.011235,0.002781,  36.333
   510.4,0.005107,0.003737, 37,0.011220,0.002794,  36.332
   510.6,0.005114,0.003747, 37,0.011179,0.002773,  36.335
   510.8,0.005114,0.003753, 37,0.011153,0.002820,  36.331
   511.0,0.005111,0.003756, 37,0.011117,0.002820,  36.327
   511.2,0.005117,0.003754, 37,0.011073,0.002799,  36.327
   511.4,0.005117,0.003750, 37,0.011048,0.002846,  36.329
   511.6,0.005113,0.003749, 37,0.011038,0.002846,  36.325
   511.8,0.005117,0.003754, 37,0.011037,0.002838,  36.328
   512.0,0.005120,0.003760, 37,0.011049,0.002872,  36.329
   512.2,0.005119,0.003762, 37,0.011072,0.002872,  36.330
   512.4,0.005121,0.003765, 37,0.011106,0.002851,  36.330
   512.6,0.005129,0.003768, 37,0.011145,0.002864,  36.329
   512.8,0.005131,0.003770, 37,0.011181,0.002864,  36.328
   513.0,0.005139,0.003775, 37,0.011227,0.002830,  36.327
   513.2,0.005133,0.003783, 37,0.011212,0.002830,  36.330
   513.4,0.005139,0.003785, 37,0.011169,0.002864,  36.329
   513.6,0.005136,0.003787, 37,0.011093,0.002830,  36.333
   513.8,0.005143,0.003791, 37,0.011091,0.002843,  36.328
   514.0,0.005151,0.003796, 37,0.011108,0.002843,  36.324
   514.2,0.005153,0.003796, 37,0.011149,0.002856,  36.330
   514.4,0.005148,0.003797, 37,0.011168,0.002856,  36.333
   514.6,0.005151,0.003798, 37,0.011190,0.002856,  36.328
   514.8,0.005153,0.003798, 37,0.011208,0.002869,  36.325
   515.0,0.005156,0.003799, 37,0.011182,0.002869,  36.327
   515.2,0.005161,0.003799, 37,0.011129,0.002882,  36.333
   515.4,0.005165,0.003796, 37,0.011053,0.002874,  36.325
   515.6,0.005168,0.003802, 37,0.011028,0.002874,  36.332
   515.8,0.005170,0.003805, 37,0.011011,0.002887,  36.332
   516.0,0.005175,0.003804, 37,0.011009,0.002866,  36.330
   516.2,0.005179,0.003804, 37,0.011002,0.002866,  36.330
   516.4,0.005181,0.003803, 37,0.011000,0.002887,  36.331
   516.6,0.005184,0.003805, 37,0.011006,0.002887,  36.332
   516.8,0.005184,0.003811, 37,0.010981,0.002900,  36.333
   517.0,0.005187,0.003819, 37,0.010950,0.002900,  36.327
   517.2,0.005191,0.003822, 37,0.010911,0.002913,  36.329
   517.4,0.005186,0.003826, 37,0.010861,0.002927,  36.327
   517.6,0.005191,0.003829, 37,0.010858,0.002927,  36.326
   517.8,0.005194,0.003834, 37,0.010867,0.002927,  36.335
   518.0,0.005190,0.003832, 37,0.010887,0.002940,  36.335
   518.2,0.005194,0.003828, 37,0.010867,0.002940,  36.334
   518.4,0.005194,0.003830, 37,0.010831,0.002940,  36.337
   518.6,0.005196,0.003832, 37,0.010787,0.002953,  36.341
   518.8,0.005199,0.003830, 37,0.010763,0.002932,  36.340
   519.0,0.005199,0.003827, 37,0.010738,0.002945,  36.344
   519.2,0.005201,0.003828, 37,0.010719,0.002958,  36.343
   519.4,0.005199,0.003828, 37,0.010782,0.002924,  36.340
   519.6,0.005201,0.003832, 37,0.010887,0.002958,  36.348
   519.8,0.005206,0.003831, 37,0.011030,0.002971,  36.348
   520.0,0.005208,0.003834, 37,0.011017,0.002950,  36.345
   520.2,0.005216,0.003831, 37,0.010947,0.002984,  36.346
   520.4,0.005218,0.003835, 37,0.010813,0.002997,  36.351
   520.6,0.005220,0.003841, 37,0.010780,0.002976,  36.351
   520.8,0.005228,0.003844, 37,0.010768,0.002963,  36.347
   521.0,0.005230,0.003845, 37,0.010782,0.002963,  36.347
   521.2,0.005225,0.003841, 37,0.010747,0.002963,  36.349
   521.4,0.005229,0.003846, 37,0.010701,0.002963,  36.353
   521.6,0.005232,0.003852, 37,0.010647,0.002976,  36.350
   521.8,0.005237,0.003852, 37,0.010608,0.002955,  36.351
   522.0,0.005237,0.003854, 37,0.010582,0.002968,  36.352
   522.2,0.005242,0.003858, 37,0.010560,0.002981,  36.352
   522.4,0.005242,0.003864, 37,0.010563,0.002981,  36.353
   522.6,0.005249,0.003867, 37,0.010576,0.003002,  36.357
   522.8,0.005254,0.003866, 37,0.010598,0.003015,  36.364
   523.0,0.005256,0.003874, 37,0.010611,0.002981,  36.362
   523.2,0.005258,0.003875, 37,0.010629,0.002968,  36.361
   523.4,0.005257,0.003879, 37,0.010631,0.002981,  36.361
   523.6,0.005265,0.003885, 37,0.010660,0.002960,  36.361
   523.8,0.005265,0.003888, 37,0.010704,0.003007,  36.362
   524.0,0.005262,0.003892, 37,0.010754,0.003007,  36.360
   524.2,0.005265,0.003897, 37,0.010746,0.003007,  36.363
   524.4,0.005268,0.003899, 37,0.010710,0.003041,  36.363
   524.6,0.005267,0.003902, 37,0.010656,0.003054,  36.359
   524.8,0.005275,0.003903, 37,0.010669,0.003067,  36.356
   525.0,0.005285,0.003906, 37,0.010698,0.003067,  36.359
   525.2,0.005282,0.003904, 37,0.010739,0.003080,  36.356
   525.4,0.005290,0.003907, 37,0.010742,0.003059,  36.361
   525.6,0.005290,0.003907, 37,0.010733,0.003046,  36.361
   525.8,0.005286,0.003906, 37,0.010717,0.003046,  36.360
   526.0,0.005294,0.003912, 37,0.010676,0.003012,  36.360
   526.2,0.005299,0.003913, 37,0.010671,0.003025,  36.359
   526.4,0.005298,0.003916, 37,0.010663,0.003038,  36.359
   526.6,0.005308,0.003917, 37,0.010658,0.003051,  36.361
   526.8,0.005312,0.003920, 37,0.010656,0.003051,  36.359
   527.0,0.005317,0.003920, 37,0.010657,0.003085,  36.357
   527.2,0.005319,0.003923, 37,0.010658,0.003064,  36.357
   527.4,0.005324,0.003924, 37,0.010650,0.003077,  36.354
   527.6,0.005326,0.003927, 37,0.010634,0.003090,  36.357
   527.8,0.005328,0.003935, 37,0.010604,0.003069,  36.352
   528.0,0.005335,0.003940, 37,0.010595,0.003103,  36.348
   528.2,0.005340,0.003939, 37,0.010589,0.003103,  36.346
   528.4,0.005342,0.003944, 37,0.010579,0.003082,  36.340
   528.6,0.005347,0.003947, 37,0.010554,0.003095,  36.338
   528.8,0.005352,0.003950, 37,0.010528,0.003095,  36.339
   529.0,0.005354,0.003952, 37,0.010496,0.003074,  36.335
   529.2,0.005359,0.003957, 37,0.010503,0.003074,  36.335
   529.4,0.005364,0.003962, 37,0.010534,0.003121,  36.336
   529.6,0.005366,0.003966, 37,0.010597,0.003100,  36.330
   529.8,0.005366,0.003973, 37,0.010293,0.003100,  36.332
   530.0,0.005369,0.003980, 37,0.009817,0.003148,  36.326
   530.2,0.005371,0.003983, 37,0.009175,0.003127,  36.324
   530.4,0.005375,0.003990, 37,0.009171,0.003127,  36.323
   530.6,0.005375,0.003994, 37,0.009401,0.003127,  36.321
   530.8,0.005378,0.003999, 37,0.009858,0.003119,  36.321
   531.0,0.005380,0.004002, 37,0.009988,0.003153,  36.320
   531.2,0.005388,0.004005, 37,0.010069,0.003153,  36.315
   531.4,0.005392,0.004012, 37,0.010095,0.003132,  36.317
   531.6,0.005394,0.004013, 37,0.010192,0.003166,  36.311
   531.8,0.005402,0.004014, 37,0.010291,0.003153,  36.313
   532.0,0.005412,0.004018, 37,0.010391,0.003119,  36.312
   532.2,0.005414,0.004021, 37,0.010440,0.003179,  36.310
   532.4,0.005417,0.004022, 37,0.010453,0.003192,  36.305
   532.6,0.005424,0.004026, 37,0.010437,0.003171,  36.305
   532.8,0.005426,0.004027, 37,0.010439,0.003184,  36.306
   533.0,0.005417,0.004029, 37,0.010444,0.003184,  36.303
   533.2,0.005419,0.004031, 37,0.010453,0.003163,  36.297
   533.4,0.005423,0.004032, 37,0.010454,0.003163,  36.296
   533.6,0.005431,0.004030, 37,0.010459,0.003197,  36.292
   533.8,0.005430,0.004034, 37,0.010456,0.003176,  36.290
   534.0,0.005432,0.004043, 37,0.010456,0.003176,  36.287
   534.2,0.005440,0.004049, 37,0.010457,0.003223,  36.290
   534.4,0.005437,0.004054, 37,0.010453,0.003236,  36.285
   534.6,0.005445,0.004062, 37,0.010453,0.003236,  36.278
   534.8,0.005448,0.004068, 37,0.010461,0.003249,  36.280
   535.0,0.005445,0.004065, 37,0.010474,0.003249,  36.272
   535.2,0.005449,0.004065, 37,0.010491,0.003228,  36.273
   535.4,0.005453,0.004064, 37,0.010489,0.003228,  36.273
   535.6,0.005447,0.004064, 37,0.010489,0.003241,  36.274
   535.8,0.005444,0.004065, 37,0.010478,0.003241,  36.275
   536.0,0.005449,0.004064, 37,0.010442,0.003254,  36.270
   536.2,0.005445,0.004063, 37,0.010392,0.003241,  36.274
   536.4,0.005448,0.004066, 37,0.010317,0.003220,  36.271
   536.6,0.005453,0.004067, 37,0.010287,0.003233,  36.271
   536.8,0.005450,0.004063, 37,0.010277,0.003233,  36.272
   537.0,0.005455,0.004066, 37,0.010274,0.003212,  36.274
   537.2,0.005458,0.004062, 37,0.010266,0.003225,  36.274
   537.4,0.005455,0.004062, 37,0.010269,0.003259,  36.273
   537.6,0.005460,0.004064, 37,0.010276,0.003272,  36.274
   537.8,0.005465,0.004070, 37,0.010285,0.003272,  36.272
   538.0,0.005462,0.004070, 37,0.010304,0.003259,  36.275
   538.2,0.005468,0.004073, 37,0.010326,0.003272,  36.274
   538.4,0.005468,0.004075, 37,0.010366,0.003272,  36.270
   538.6,0.005464,0.004075, 37,0.010408,0.003272,  36.276
   538.8,0.005472,0.004076, 37,0.010459,0.003285,  36.274
   539.0,0.005474,0.004076, 37,0.010441,0.003264,  36.277
   539.2,0.005477,0.004077, 37,0.010387,0.003264,  36.274
   539.4,0.005471,0.004081, 37,0.010306,0.003278,  36.276
   539.6,0.005477,0.004082, 37,0.010288,0.003256,  36.273
   539.8,0.005480,0.004086, 37,0.010286,0.003278,  36.276
   540.0,0.005484,0.004087, 37,0.010305,0.003291,  36.273
   540.2,0.005494,0.004089, 37,0.010291,0.003256,  36.271
   540.4,0.005499,0.004088, 37,0.010270,0.003304,  36.270
   540.6,0.005506,0.004094, 37,0.010240,0.003317,  36.275
   540.8,0.005510,0.004098, 37,0.010259,0.003269,  36.275
   541.0,0.005510,0.004099, 37,0.010297,0.003304,  36.276
   541.2,0.005513,0.004102, 37,0.010352,0.003304,  36.273
   541.4,0.005515,0.004107, 37,0.010037,0.003291,  36.273
   541.6,0.005518,0.004108, 37,0.009550,0.003312,  36.275
   541.8,0.005520,0.004111, 37,0.008884,0.003325,  36.271
   542.0,0.005517,0.004117, 37,0.008848,0.003304,  36.278
   542.2,0.005519,0.004114, 37,0.009032,0.003317,  36.273
   542.4,0.005522,0.004117, 37,0.009435,0.003330,  36.273
   542.6,0.005524,0.004120, 37,0.009539,0.003309,  36.272
   542.8,0.005532,0.004123, 37,0.009602,0.003322,  36.276
   543.0,0.005534,0.004120, 37,0.009622,0.003335,  36.277
   543.2,0.005531,0.004127, 37,0.009688,0.003348,  36.277
   543.4,0.005536,0.004128, 37,0.009764,0.003348,  36.280
   543.6,0.005538,0.004131, 37,0.009842,0.003361,  36.275
   543.8,0.005543,0.004136, 37,0.009919,0.003361,  36.275
   544.0,0.005546,0.004135, 37,0.009964,0.003374,  36.273
   544.2,0.005554,0.004136, 37,0.009999,0.003374,  36.269
   544.4,0.005556,0.004140, 37,0.010018,0.003366,  36.271
   544.6,0.005556,0.004143, 37,0.009850,0.003366,  36.270
   544.8,0.005564,0.004142, 37,0.009594,0.003366,  36.266
   545.0,0.005564,0.004147, 37,0.009230,0.003379,  36.262
   545.2,0.005556,0.004148, 37,0.009261,0.003358,  36.269
   545.4,0.005561,0.004147, 37,0.009441,0.003392,  36.266
   545.6,0.005563,0.004143, 37,0.009766,0.003405,  36.267
   545.8,0.005565,0.004143, 37,0.009808,0.003371,  36.264
   546.0,0.005567,0.004144, 37,0.009782,0.003392,  36.262
   546.2,0.005572,0.004148, 37,0.009687,0.003384,  36.258
   546.4,0.005577,0.004149, 37,0.009404,0.003384,  36.258
   546.6,0.005577,0.004152, 37,0.008987,0.003384,  36.252
   546.8,0.005580,0.004158, 37,0.008445,0.003363,  36.257
   547.0,0.005592,0.004165, 37,0.008500,0.003410,  36.257
   547.2,0.005591,0.004167, 37,0.008775,0.003410,  36.259
   547.4,0.005598,0.004167, 37,0.009283,0.003376,  36.253
   547.6,0.005607,0.004170, 37,0.009450,0.003424,  36.254
   547.8,0.005606,0.004172, 37,0.009549,0.003424,  36.248
   548.0,0.005613,0.004177, 37,0.009592,0.003402,  36.251
   548.2,0.005612,0.004178, 37,0.009670,0.003437,  36.246
   548.4,0.005617,0.004182, 37,0.009731,0.003437,  36.247
   548.6,0.005614,0.004188, 37,0.009783,0.003416,  36.245
   548.8,0.005621,0.004191, 37,0.009843,0.003450,  36.241
   549.0,0.005627,0.004194, 37,0.009903,0.003450,  36.242
   549.2,0.005626,0.004201, 37,0.009953,0.003429,  36.244
   549.4,0.005628,0.004205, 37,0.009953,0.003476,  36.239
   549.6,0.005638,0.004211, 37,0.009917,0.003489,  36.240
   549.8,0.005637,0.004215, 37,0.009852,0.003468,  36.240
   550.0,0.005645,0.004220, 37,0.009715,0.003481,  36.238
   550.2,0.005650,0.004227, 37,0.009519,0.003447,  36.234
   550.4,0.005655,0.004230, 37,0.009282,0.003426,  36.238
   550.6,0.005659,0.004230, 37,0.009271,0.003473,  36.236
   550.8,0.005667,0.004231, 37,0.009341,0.003481,  36.235
   551.0,0.005672,0.004230, 37,0.009500,0.003447,  36.238
   551.2,0.005666,0.004233, 37,0.009582,0.003460,  36.236
   551.4,0.005674,0.004232, 37,0.009675,0.003494,  36.228
   551.6,0.005676,0.004238, 37,0.009770,0.003473,  36.232
   551.8,0.005681,0.004244, 37,0.009849,0.003486,  36.227
   552.0,0.005686,0.004250, 37,0.009931,0.003499,  36.225
   552.2,0.005688,0.004255, 37,0.010005,0.003478,  36.224
   552.4,0.005693,0.004265, 37,0.010033,0.003525,  36.224
   552.6,0.005695,0.004269, 37,0.010033,0.003525,  36.220
   552.8,0.005702,0.004267, 37,0.010005,0.003525,  36.211
   553.0,0.005704,0.004269, 37,0.009949,0.003551,  36.206
   553.2,0.005709,0.004270, 37,0.009977,0.003538,  36.208
   553.4,0.005713,0.004269, 37,0.010026,0.003551,  36.208
   553.6,0.005716,0.004275, 37,0.010084,0.003530,  36.205
   553.8,0.005723,0.004278, 37,0.010074,0.003565,  36.204
   554.0,0.005728,0.004280, 37,0.010040,0.003530,  36.200
   554.2,0.005727,0.004287, 37,0.009970,0.003496,  36.207
   554.4,0.005737,0.004292, 37,0.009933,0.003522,  36.200
   554.6,0.005741,0.004293, 37,0.009904,0.003522,  36.203
   554.8,0.005738,0.004294, 37,0.009867,0.003535,  36.192
   555.0,0.005741,0.004298, 37,0.009449,0.003535,  36.196
   555.2,0.005746,0.004303, 37,0.008846,0.003570,  36.197
   555.4,0.005743,0.004306, 37,0.008048,0.003549,  36.197
   555.6,0.005748,0.004308, 37,0.008056,0.003535,  36.193
   555.8,0.005753,0.004313, 37,0.008377,0.003570,  36.192
   556.0,0.005752,0.004316, 37,0.009007,0.003549,  36.195
   556.2,0.005760,0.004323, 37,0.009250,0.003549,  36.199
   556.4,0.005764,0.004329, 37,0.009455,0.003562,  36.203
   556.6,0.005764,0.004328, 37,0.009625,0.003575,  36.203
   556.8,0.005772,0.004330, 37,0.009491,0.003575,  36.201
   557.0,0.005777,0.004329, 37,0.009186,0.003588,  36.202
   557.2,0.005774,0.004334, 37,0.008710,0.003601,  36.203
   557.4,0.005777,0.004332, 37,0.008747,0.003614,  36.200
   557.6,0.005777,0.004334, 37,0.008956,0.003614,  36.204
   557.8,0.005780,0.004336, 37,0.009336,0.003593,  36.202
   558.0,0.005780,0.004339, 37,0.009459,0.003619,  36.203
   558.2,0.005787,0.004341, 37,0.009535,0.003606,  36.203
   558.4,0.005784,0.004348, 37,0.009567,0.003572,  36.198
   558.6,0.005789,0.004354, 37,0.009648,0.003585,  36.203
   558.8,0.005797,0.004356, 37,0.009721,0.003606,  36.210
   559.0,0.005794,0.004356, 37,0.009794,0.003619,  36.206
   559.2,0.005799,0.004359, 37,0.009830,0.003632,  36.206
   559.4,0.005799,0.004363, 37,0.009858,0.003632,  36.207
   559.6,0.005796,0.004365, 37,0.009859,0.003645,  36.210
   559.8,0.005804,0.004365, 37,0.009900,0.003645,  36.211
   560.0,0.005804,0.004365, 37,0.009957,0.003645,  36.207
   560.2,0.005803,0.004369, 37,0.010028,0.003658,  36.215
   560.4,0.005811,0.004370, 37,0.010025,0.003658,  36.216
   560.6,0.005813,0.004367, 37,0.009992,0.003658,  36.215
   560.8,0.005812,0.004365, 37,0.009934,0.003671,  36.223
   561.0,0.005820,0.004368, 37,0.009934,0.003671,  36.221
   561.2,0.005828,0.004371, 37,0.009943,0.003671,  36.225
   561.4,0.005827,0.004371, 37,0.009967,0.003685,  36.223
   561.6,0.005827,0.004377, 37,0.010004,0.003664,  36.223
   561.8,0.005834,0.004384, 37,0.009992,0.003664,  36.221
   562.0,0.005834,0.004387, 37,0.009981,0.003664,  36.228
   562.2,0.005838,0.004385, 37,0.009953,0.003677,  36.228
   562.4,0.005848,0.004386, 37,0.009928,0.003677,  36.239
   562.6,0.005845,0.004387, 37,0.009904,0.003690,  36.238
   562.8,0.005848,0.004391, 37,0.009875,0.003703,  36.236
   563.0,0.005853,0.004391, 37,0.009838,0.003682,  36.240
   563.2,0.005853,0.004395, 37,0.009789,0.003716,  36.246
   563.4,0.005860,0.004405, 37,0.009734,0.003729,  36.247
   563.6,0.005865,0.004410, 37,0.009773,0.003695,  36.244
   563.8,0.005869,0.004409, 37,0.009841,0.003729,  36.247
   564.0,0.005872,0.004413, 37,0.009952,0.003742,  36.249
   564.2,0.005877,0.004415, 37,0.009981,0.003695,  36.248
   564.4,0.005878,0.004419, 37,0.009984,0.003729,  36.249
   564.6,0.005880,0.004421, 37,0.009959,0.003742,  36.243
   564.8,0.005885,0.004422, 37,0.009837,0.003708,  36.248
   565.0,0.005888,0.004420, 37,0.009650,0.003755,  36.246
   565.2,0.005891,0.004424, 37,0.009398,0.003768,  36.246
   565.4,0.005892,0.004426, 37,0.009383,0.003734,  36.248
   565.6,0.005891,0.004430, 37,0.009453,0.003734,  36.253
   565.8,0.005890,0.004433, 37,0.009599,0.003747,  36.256
   566.0,0.005892,0.004439, 37,0.009644,0.003726,  36.253
   566.2,0.005897,0.004443, 37,0.009682,0.003713,  36.257
   566.4,0.005897,0.004445, 37,0.009696,0.003713,  36.259
   566.6,0.005901,0.004445, 37,0.009716,0.003705,  36.255
   566.8,0.005901,0.004444, 37,0.009743,0.003739,  36.260
   567.0,0.005898,0.004445, 37,0.009766,0.003752,  36.251
   567.2,0.005906,0.004450, 37,0.009770,0.003731,  36.257
   567.4,0.005908,0.004452, 37,0.009768,0.003765,  36.254
   567.6,0.005911,0.004450, 37,0.009768,0.003744,  36.254
   567.8,0.005905,0.004457, 37,0.009792,0.003757,  36.252
   568.0,0.005908,0.004457, 37,0.009817,0.003757,  36.252
   568.2,0.005911,0.004461, 37,0.009861,0.003736,  36.256
   568.4,0.005911,0.004466, 37,0.009878,0.003771,  36.255
   568.6,0.005916,0.004465, 37,0.009880,0.003757,  36.254
   568.8,0.005924,0.004464, 37,0.009870,0.003749,  36.252
   569.0,0.005924,0.004463, 37,0.009844,0.003749,  36.257
   569.2,0.005926,0.004463, 37,0.009806,0.003749,  36.258
   569.4,0.005934,0.004463, 37,0.009756,0.003728,  36.258
   569.6,0.005938,0.004465, 37,0.009700,0.003728,  36.256
   569.8,0.005940,0.004462, 37,0.009652,0.003749,  36.258
   570.0,0.005940,0.004462, 37,0.009603,0.003715,  36.257
   570.2,0.005942,0.004468, 37,0.009617,0.003728,  36.254
   570.4,0.005947,0.004472, 37,0.009665,0.003763,  36.255
   570.6,0.005944,0.004472, 37,0.009744,0.003728,  36.253
   570.8,0.005949,0.004481, 37,0.009768,0.003755,  36.254
   571.0,0.005957,0.004483, 37,0.009782,0.003789,  36.257
   571.2,0.005954,0.004486, 37,0.009787,0.003802,  36.260
   571.4,0.005962,0.004487, 37,0.009777,0.003802,  36.261
   571.6,0.005964,0.004489, 37,0.009746,0.003828,  36.259
   571.8,0.005963,0.004491, 37,0.009696,0.003815,  36.264
   572.0,0.005971,0.004493, 37,0.009626,0.003828,  36.261
   572.2,0.005971,0.004496, 37,0.009601,0.003841,  36.262
   572.4,0.005968,0.004498, 37,0.009588,0.003841,  36.265
   572.6,0.005975,0.004497, 37,0.009587,0.003820,  36.268
   572.8,0.005983,0.004494, 37,0.009557,0.003820,  36.267
   573.0,0.005980,0.004496, 37,0.009521,0.003841,  36.266
   573.2,0.005980,0.004497, 37,0.009479,0.003833,  36.266
   573.4,0.005980,0.004497, 37,0.009165,0.003833,  36.268
   573.6,0.005983,0.004503, 37,0.008708,0.003833,  36.270
   573.8,0.005995,0.004505, 37,0.008119,0.003812,  36.269
   574.0,0.005999,0.004514, 37,0.008149,0.003859,  36.276
   574.2,0.006002,0.004513, 37,0.008415,0.003859,  36.273
   574.4,0.006008,0.004516, 37,0.008926,0.003838,  36.270
   574.6,0.006008,0.004520, 37,0.009067,0.003838,  36.270
   574.8,0.006007,0.004517, 37,0.009146,0.003851,  36.272
   575.0,0.006015,0.004522, 37,0.009146,0.003830,  36.270
   575.2,0.006024,0.004527, 37,0.008828,0.003830,  36.276
   575.4,0.006026,0.004531, 37,0.008321,0.003865,  36.275
   575.6,0.006025,0.004534, 37,0.007615,0.003843,  36.278
   575.8,0.006032,0.004541, 37,0.007677,0.003843,  36.279
   576.0,0.006033,0.004546, 37,0.008034,0.003865,  36.275
   576.2,0.006040,0.004548, 37,0.008680,0.003843,  36.278
   576.4,0.006045,0.004552, 37,0.008879,0.003857,  36.279
   576.6,0.006044,0.004556, 37,0.009005,0.003891,  36.278
   576.8,0.006051,0.004561, 37,0.009053,0.003870,  36.277
   577.0,0.006052,0.004568, 37,0.009138,0.003870,  36.277
   577.2,0.006060,0.004570, 37,0.009207,0.003904,  36.277
   577.4,0.006064,0.004573, 37,0.009255,0.003883,  36.279
   577.6,0.006063,0.004579, 37,0.009315,0.003896,  36.276
   577.8,0.006071,0.004582, 37,0.009379,0.003930,  36.279
   578.0,0.006076,0.004588, 37,0.009437,0.003909,  36.279
   578.2,0.006076,0.004594, 37,0.009124,0.003943,  36.279
   578.4,0.006083,0.004596, 37,0.008627,0.003951,  36.278
   578.6,0.006089,0.004597, 37,0.007940,0.003917,  36.277
   578.8,0.006092,0.004604, 37,0.007933,0.003943,  36.279
   579.0,0.006096,0.004606, 37,0.008169,0.003956,  36.278
   579.2,0.006093,0.004608, 37,0.008649,0.003935,  36.282
   579.4,0.006097,0.004612, 37,0.008826,0.003948,  36.274
   579.6,0.006099,0.004615, 37,0.008978,0.003948,  36.282
   579.8,0.006098,0.004616, 37,0.009103,0.003961,  36.280
   580.0,0.006098,0.004616, 37,0.009221,0.003975,  36.282
   580.2,0.006103,0.004617, 37,0.009320,0.003975,  36.280
   580.4,0.006108,0.004623, 37,0.009406,0.003975,  36.279
   580.6,0.006110,0.004625, 37,0.009462,0.004001,  36.279
   580.8,0.006115,0.004624, 37,0.009500,0.003940,  36.281
   581.0,0.006117,0.004628, 37,0.009511,0.003975,  36.280
   581.2,0.006119,0.004629, 37,0.009500,0.003953,  36.282
   581.4,0.006119,0.004629, 37,0.009533,0.003953,  36.278
   581.6,0.006121,0.004629, 37,0.009571,0.004001,  36.279
   581.8,0.006126,0.004632, 37,0.009611,0.004014,  36.282
   582.0,0.006131,0.004636, 37,0.009612,0.004014,  36.279
   582.2,0.006135,0.004640, 37,0.009593,0.004001,  36.280
   582.4,0.006135,0.004649, 37,0.009550,0.003967,  36.278
   582.6,0.006135,0.004648, 37,0.009530,0.003980,  36.275
   582.8,0.006143,0.004655, 37,0.009509,0.003980,  36.279
   583.0,0.006147,0.004647, 37,0.009492,0.003945,  36.274
   583.2,0.006147,0.004648, 37,0.009521,0.003972,  36.274
   583.4,0.006155,0.004651, 37,0.009572,0.004006,  36.276
   583.6,0.006155,0.004652, 37,0.009641,0.004019,  36.273
   583.8,0.006155,0.004654, 37,0.009681,0.004019,  36.271
   584.0,0.006152,0.004656, 37,0.009715,0.004019,  36.270
   584.2,0.006154,0.004656, 37,0.009744,0.004032,  36.272
   584.4,0.006162,0.004663, 37,0.009735,0.004011,  36.266
   584.6,0.006164,0.004665, 37,0.009699,0.004024,  36.261
   584.8,0.006166,0.004663, 37,0.009644,0.004037,  36.262
   585.0,0.006169,0.004668, 37,0.009618,0.004003,  36.266
   585.2,0.006171,0.004673, 37,0.009592,0.004037,  36.264
   585.4,0.006175,0.004675, 37,0.009568,0.004037,  36.259
   585.6,0.006178,0.004680, 37,0.009566,0.004037,  36.263
   585.8,0.006182,0.004684, 37,0.009588,0.004072,  36.265
   586.0,0.006181,0.004686, 37,0.009622,0.004085,  36.260
   586.2,0.006184,0.004688, 37,0.009588,0.004064,  36.261
   586.4,0.006189,0.004690, 37,0.009533,0.004064,  36.261
   586.6,0.006188,0.004689, 37,0.009450,0.004077,  36.259
   586.8,0.006198,0.004696, 37,0.009451,0.004069,  36.261
   587.0,0.006204,0.004698, 37,0.009485,0.004056,  36.262
   587.2,0.006207,0.004703, 37,0.009545,0.004069,  36.264
   587.4,0.006218,0.004708, 37,0.009519,0.004082,  36.262
   587.6,0.006228,0.004713, 37,0.009465,0.004082,  36.259
   587.8,0.006230,0.004717, 37,0.009397,0.004095,  36.261
   588.0,0.006231,0.004717, 37,0.009401,0.004095,  36.264
   588.2,0.006232,0.004718, 37,0.009411,0.004095,  36.263
   588.4,0.006228,0.004726, 37,0.009451,0.004108,  36.266
   588.6,0.006233,0.004729, 37,0.009468,0.004108,  36.261
   588.8,0.006235,0.004728, 37,0.009491,0.004121,  36.263
   589.0,0.006236,0.004733, 37,0.009507,0.004134,  36.264
   589.2,0.006249,0.004734, 37,0.009525,0.004134,  36.263
   589.4,0.006251,0.004734, 37,0.009513,0.004134,  36.262
   589.6,0.006255,0.004737, 37,0.009472,0.004134,  36.264
   589.8,0.006258,0.004739, 37,0.009427,0.004147,  36.264
   590.0,0.006263,0.004739, 37,0.009419,0.004161,  36.260
   590.2,0.006265,0.004742, 37,0.009425,0.004139,  36.260
   590.4,0.006260,0.004751, 37,0.009438,0.004139,  36.256
   590.6,0.006268,0.004752, 37,0.009434,0.004105,  36.261
   590.8,0.006272,0.004751, 37,0.009433,0.004126,  36.257
   591.0,0.006269,0.004758, 37,0.009423,0.004105,  36.259
   591.2,0.006279,0.004760, 37,0.009435,0.004118,  36.255
   591.4,0.006283,0.004765, 37,0.009458,0.004145,  36.255
   591.6,0.006278,0.004766, 37,0.009487,0.004158,  36.255
   591.8,0.006281,0.004770, 37,0.009360,0.004145,  36.254
   592.0,0.006286,0.004776, 37,0.009157,0.004179,  36.255
   592.2,0.006283,0.004778, 37,0.008883,0.004192,  36.247
   592.4,0.006290,0.004782, 37,0.008886,0.004158,  36.250
   592.6,0.006295,0.004785, 37,0.008995,0.004192,  36.251
   592.8,0.006297,0.004787, 37,0.009211,0.004184,  36.250
   593.0,0.006305,0.004790, 37,0.009298,0.004197,  36.254
   593.2,0.006305,0.004786, 37,0.009371,0.004197,  36.252
   593.4,0.006307,0.004792, 37,0.009444,0.004176,  36.247
   593.6,0.006302,0.004796, 37,0.009484,0.004189,  36.251
   593.8,0.006305,0.004797, 37,0.009507,0.004176,  36.250
   594.0,0.006304,0.004802, 37,0.009515,0.004142,  36.253
   594.2,0.006308,0.004808, 37,0.009512,0.004155,  36.251
   594.4,0.006318,0.004811, 37,0.009510,0.004155,  36.247
   594.6,0.006323,0.004814, 37,0.009487,0.004121,  36.249
   594.8,0.006328,0.004816, 37,0.009482,0.004168,  36.244
   595.0,0.006333,0.004816, 37,0.009486,0.004189,  36.242
   595.2,0.006341,0.004817, 37,0.009479,0.004168,  36.244
   595.4,0.006341,0.004821, 37,0.009502,0.004181,  36.238
   595.6,0.006344,0.004822, 37,0.009527,0.004215,  36.233
   595.8,0.006351,0.004825, 37,0.009567,0.004194,  36.232
   596.0,0.006351,0.004829, 37,0.009595,0.004228,  36.228
   596.2,0.006351,0.004828, 37,0.009613,0.004250,  36.226
   596.4,0.006351,0.004832, 37,0.009619,0.004228,  36.223
   596.6,0.006353,0.004835, 37,0.009603,0.004242,  36.223
   596.8,0.006361,0.004838, 37,0.009570,0.004242,  36.214
   597.0,0.006360,0.004840, 37,0.009512,0.004234,  36.208
   597.2,0.006364,0.004842, 37,0.009503,0.004234,  36.212
   597.4,0.006370,0.004846, 37,0.009516,0.004234,  36.208
   597.6,0.006369,0.004852, 37,0.009540,0.004213,  36.206
   597.8,0.006373,0.004851, 37,0.009562,0.004260,  36.205
   598.0,0.006381,0.004850, 37,0.009590,0.004247,  36.208
   598.2,0.006378,0.004851, 37,0.009619,0.004247,  36.201
   598.4,0.006380,0.004851, 37,0.009652,0.004247,  36.209
   598.6,0.006381,0.004849, 37,0.009681,0.004247,  36.205
   598.8,0.006378,0.004856, 37,0.009707,0.004268,  36.207
   599.0,0.006380,0.004858, 37,0.009730,0.004247,  36.207
   599.2,0.006388,0.004858, 37,0.009694,0.004273,  36.204
   599.4,0.006385,0.004863, 37,0.009638,0.004273,  36.209
   599.6,0.006387,0.004867, 37,0.009542,0.004252,  36.205
   599.8,0.006395,0.004869, 37,0.009534,0.004265,  36.205
   600.0,0.006394,0.004867, 37,0.009557,0.004265,  36.206
   600.2,0.006396,0.004867, 37,0.009598,0.004244,  36.201
   600.4,0.006401,0.004866, 37,0.009460,0.004257,  36.202
   600.6,0.006398,0.004866, 37,0.009231,0.004291,  36.203
   600.8,0.006403,0.004871, 37,0.008919,0.004283,  36.203
   601.0,0.006406,0.004870, 37,0.008942,0.004283,  36.203
   601.2,0.006403,0.004873, 37,0.009079,0.004318,  36.203
   601.4,0.006411,0.004875, 37,0.009337,0.004297,  36.204
   601.6,0.006418,0.004882, 37,0.009392,0.004310,  36.203
   601.8,0.006415,0.004884, 37,0.009408,0.004297,  36.201
   602.0,0.006418,0.004883, 37,0.009371,0.004297,  36.202
   602.2,0.006424,0.004883, 37,0.009351,0.004323,  36.207
   602.4,0.006424,0.004883, 37,0.009319,0.004323,  36.203
   602.6,0.006426,0.004885, 37,0.009270,0.004323,  36.206
   602.8,0.006428,0.004895, 37,0.009288,0.004336,  36.202
   603.0,0.006436,0.004895, 37,0.009324,0.004323,  36.203
   603.2,0.006438,0.004900, 37,0.009394,0.004323,  36.203
   603.4,0.006438,0.004904, 37,0.009434,0.004336,  36.207
   603.6,0.006440,0.004903, 37,0.009479,0.004323,  36.207
   603.8,0.006437,0.004907, 37,0.009514,0.004336,  36.212
   604.0,0.006445,0.004908, 37,0.009404,0.004349,  36.212
   604.2,0.006447,0.004910, 37,0.009217,0.004349,  36.210
   604.4,0.006452,0.004918, 37,0.008959,0.004362,  36.212
   604.6,0.006456,0.004921, 37,0.008928,0.004362,  36.209
   604.8,0.006466,0.004919, 37,0.008976,0.004362,  36.206
   605.0,0.006469,0.004923, 37,0.009107,0.004341,  36.211
   605.2,0.006468,0.004920, 37,0.009189,0.004341,  36.205
   605.4,0.006473,0.004918, 37,0.009274,0.004354,  36.200
   605.6,0.006470,0.004925, 37,0.009379,0.004333,  36.205
   605.8,0.006473,0.004929, 37,0.009413,0.004346,  36.203
   606.0,0.006479,0.004932, 37,0.009408,0.004380,  36.202
   606.2,0.006481,0.004938, 37,0.009376,0.004394,  36.205
   606.4,0.006484,0.004943, 37,0.009405,0.004407,  36.205
   606.6,0.006494,0.004944, 37,0.009443,0.004380,  36.201
   606.8,0.006499,0.004948, 37,0.009495,0.004380,  36.201
   607.0,0.006504,0.004949, 37,0.009383,0.004380,  36.200
   607.2,0.006504,0.004952, 37,0.009196,0.004380,  36.204
   607.4,0.006508,0.004955, 37,0.008932,0.004380,  36.201
   607.6,0.006513,0.004962, 37,0.008584,0.004380,  36.197
   607.8,0.006515,0.004970, 37,0.008602,0.004346,  36.203
   608.0,0.006519,0.004971, 37,0.008724,0.004394,  36.204
   608.2,0.006524,0.004971, 37,0.008946,0.004407,  36.205
   608.4,0.006532,0.004966, 37,0.009071,0.004386,  36.204
   608.6,0.006534,0.004973, 37,0.009196,0.004399,  36.201
   608.8,0.006531,0.004978, 37,0.009321,0.004412,  36.199
   609.0,0.006539,0.004979, 37,0.009283,0.004378,  36.202
   609.2,0.006543,0.004988, 37,0.009155,0.004412,  36.205
   609.4,0.006545,0.004995, 37,0.008945,0.004425,  36.207
   609.6,0.006551,0.004998, 37,0.008950,0.004391,  36.203
   609.8,0.006553,0.004997, 37,0.009019,0.004425,  36.202
   610.0,0.006555,0.005003, 37,0.009139,0.004451,  36.201
   610.2,0.006558,0.005003, 37,0.009081,0.004417,  36.205
   610.4,0.006565,0.005003, 37,0.008959,0.004417,  36.204
   610.6,0.006568,0.005009, 37,0.008774,0.004430,  36.202
   610.8,0.006568,0.005012, 37,0.008792,0.004443,  36.196
   611.0,0.006575,0.005015, 37,0.008883,0.004443,  36.200
   611.2,0.006580,0.005017, 37,0.009040,0.004443,  36.201
   611.4,0.006577,0.005019, 37,0.009117,0.004457,  36.197
   611.6,0.006574,0.005019, 37,0.009183,0.004457,  36.202
   611.8,0.006579,0.005027, 37,0.009243,0.004470,  36.199
