Run Name,Run 1 50%
Run Date,01:23:18 PM   01-29-13
Method Name,50%B-Isocratic
Export Format Version, 1.00
Method ID, 1509
Points/Second, 5.00
Number of Records,   2903
Offset from Run Start Time,00:00:00
Run End Time,00:09:41
Time,Second
QuadTec 1, (280.0 nm), AU
QuadTec 2, (260.0 nm), AU
Gradient Pump,<Not Selected>
QuadTec 3, (214.0 nm), AU
QuadTec 4, (405.0 nm), AU
Conductivity,mS/cm
Trace 6,<Not Available>
GP Pressure,<Not Selected>
Volume,<Not Selected>
Fraction,<Not Available>
Time,QuadTec 1,QuadTec 2,QuadTec 3,QuadTec 4,Conductivity
     0.0,0.011538,-0.356284,0.096650,-0.424400,  46.959
     0.2,0.011540,-0.356281,0.096642,-0.424422,  46.954
     0.4,0.011532,-0.356283,0.096657,-0.424435,  46.949
     0.6,0.011538,-0.356277,0.096688,-0.424400,  46.946
     0.8,0.011540,-0.356277,0.096659,-0.424422,  46.950
     1.0,0.011537,-0.356277,0.096634,-0.424422,  46.949
     1.2,0.011548,-0.356278,0.096588,-0.424373,  46.951
     1.4,0.011551,-0.356274,0.096596,-0.424395,  46.950
     1.6,0.011547,-0.356272,0.096621,-0.424395,  46.950
     1.8,0.011554,-0.356272,0.096676,-0.424360,  46.953
     2.0,0.011559,-0.356268,0.096692,-0.424382,  46.956
     2.2,0.011555,-0.356269,0.096699,-0.424395,  46.959
     2.4,0.011562,-0.356265,0.096678,-0.424373,  46.951
     2.6,0.011558,-0.356266,0.096346,-0.424395,  46.954
     2.8,0.011561,-0.356268,0.095860,-0.424408,  46.956
     3.0,0.011563,-0.356265,0.095208,-0.424373,  46.957
     3.2,0.011563,-0.356259,0.095192,-0.424395,  46.957
     3.4,0.011554,-0.356261,0.095419,-0.424408,  46.959
     3.6,0.011549,-0.356263,0.095888,-0.424386,  46.957
     3.8,0.011545,-0.356265,0.096041,-0.424408,  46.966
     4.0,0.011539,-0.356271,0.096156,-0.424408,  46.972
     4.2,0.011540,-0.356273,0.096253,-0.424386,  46.981
     4.4,0.011540,-0.356272,0.096346,-0.424408,  46.979
     4.6,0.011540,-0.356277,0.096422,-0.424408,  46.967
     4.8,0.011540,-0.356277,0.096475,-0.424386,  46.967
     5.0,0.011548,-0.356272,0.096514,-0.424386,  46.968
     5.2,0.011551,-0.356275,0.096545,-0.424373,  46.967
     5.4,0.011545,-0.356273,0.096554,-0.424373,  46.972
     5.6,0.011551,-0.356266,0.096579,-0.424373,  46.972
     5.8,0.011554,-0.356271,0.096617,-0.424360,  46.971
     6.0,0.011550,-0.356266,0.096662,-0.424373,  46.971
     6.2,0.011991,0.000000,0.096590,-0.424373,  46.971
     6.4,0.012011,0.000000,0.096590,-0.424395,  46.970
     6.6,0.012005,0.000000,0.096590,-0.424408,  46.973
     6.8,0.012057,0.000000,0.096590,-0.424386,  46.975
     7.0,0.000000,0.000000,0.000000,-0.424386,  46.978
     7.2,0.000000,0.000000,0.000000,-0.424364,  46.977
     7.4,0.000000,0.000000,0.000000,0.000000,  46.977
     7.6,0.000000,0.000000,0.000000,0.000000,  46.981
     7.8,0.000000,0.000000,0.000000,0.000000,  46.978
     8.0,0.000000,0.000000,0.000000,0.000000,  46.973
     8.2,0.000000,0.000000,0.000000,0.000000,  46.986
     8.4,0.000000,0.000000,0.000000,0.000000,  46.991
     8.6,0.000000,0.000000,0.000000,0.000000,  46.982
     8.8,0.000000,0.000000,0.000000,0.000000,  46.983
     9.0,0.000000,0.000000,0.000000,0.000000,  46.982
     9.2,0.000000,0.000000,0.000000,0.000000,  46.984
     9.4,0.000000,0.000000,0.000000,0.000000,  46.980
     9.6,0.000000,0.000000,0.000000,0.000000,  46.981
     9.8,0.000000,0.000000,0.000000,0.000000,  46.981
    10.0,0.000000,0.000000,0.000000,0.000000,  46.980
    10.2,0.000000,0.000000,0.000000,0.000000,  46.985
    10.4,0.000000,0.000000,0.000000,0.000000,  46.984
    10.6,0.000000,0.000000,0.000000,0.000000,  46.983
    10.8,0.000000,-0.000013,0.000000,0.000000,  46.983
    11.0,0.000002,-0.000012,0.000037,0.000000,  46.982
    11.2,-0.000015,-0.000018,0.000065,0.000000,  46.981
    11.4,-0.000017,-0.000018,0.000065,0.000000,  46.978
    11.6,-0.000022,-0.000026,0.000063,0.000000,  46.976
    11.8,-0.000026,-0.000026,0.000034,0.000000,  46.977
    12.0,-0.000032,-0.000033,0.000007,0.000000,  46.983
    12.2,-0.000029,-0.000033,-0.000000,0.000000,  46.978
    12.4,-0.000033,-0.000031,-0.000000,0.000023,  46.979
    12.6,-0.000030,-0.000032,0.000001,-0.000040,  46.993
    12.8,-0.000026,-0.000026,-0.000006,-0.000053,  47.003
    13.0,-0.000030,-0.000026,-0.000013,-0.000031,  46.999
    13.2,-0.000027,-0.000024,-0.000021,-0.000053,  46.988
    13.4,-0.000019,-0.000023,-0.000021,-0.000053,  46.982
    13.6,-0.000022,-0.000018,-0.000027,-0.000053,  46.981
    13.8,-0.000019,-0.000017,-0.000021,-0.000053,  46.981
    14.0,-0.000008,-0.000007,-0.000021,-0.000066,  46.987
    14.2,-0.000012,-0.000003,-0.000028,-0.000058,  46.984
    14.4,-0.000006,-0.000005,-0.000044,-0.000080,  46.980
    14.6,-0.000004,-0.000003,-0.000051,-0.000066,  46.980
    14.8,-0.000005,0.000000,-0.000065,-0.000040,  46.979
    15.0,0.000004,-0.000002,-0.000087,-0.000026,  46.977
    15.2,0.000002,0.000002,-0.000087,-0.000026,  46.975
    15.4,0.000002,-0.000000,-0.000087,-0.000013,  46.979
    15.6,-0.000001,-0.000003,-0.000075,-0.000013,  46.978
    15.8,-0.000007,-0.000005,-0.000052,-0.000013,  46.973
    16.0,-0.000009,-0.000011,-0.000030,-0.000013,  46.981
    16.2,-0.000009,-0.000011,-0.000006,-0.000013,  46.982
    16.4,-0.000009,-0.000015,0.000003,-0.000013,  46.980
    16.6,-0.000012,-0.000017,0.000008,-0.000013,  46.982
    16.8,-0.000018,-0.000014,-0.000013,-0.000013,  46.989
    17.0,-0.000012,-0.000014,-0.000034,-0.000013,  46.994
    17.2,-0.000005,-0.000013,-0.000051,-0.000013,  46.987
    17.4,-0.000012,-0.000011,-0.000082,0.000000,  46.986
    17.6,-0.000006,-0.000009,-0.000090,0.000000,  46.983
    17.8,-0.000004,-0.000010,-0.000097,0.000000,  46.981
    18.0,-0.000007,-0.000010,-0.000104,0.000014,  46.988
    18.2,0.000004,-0.000001,-0.000090,0.000027,  46.981
    18.4,0.000007,0.000001,-0.000068,0.000014,  46.985
    18.6,0.000003,0.000004,-0.000051,0.000014,  46.987
    18.8,0.000010,0.000007,-0.000042,0.000027,  46.989
    19.0,0.000010,0.000011,-0.000028,0.000014,  46.989
    19.2,0.000006,0.000017,-0.000034,0.000014,  46.991
    19.4,0.000015,0.000016,-0.000021,0.000027,  46.991
    19.6,0.000015,0.000013,0.000008,0.000027,  46.992
    19.8,0.000003,0.000011,0.000045,0.000027,  46.993
    20.0,-0.000004,0.000002,0.000090,0.000027,  46.996
    20.2,-0.000025,-0.000002,0.000106,0.000027,  46.990
    20.4,-0.000034,-0.000005,0.000117,0.000027,  46.991
    20.6,-0.000030,-0.000010,0.000114,0.000014,  46.992
    20.8,-0.000025,-0.000012,0.000099,0.000000,  46.992
    21.0,-0.000028,-0.000006,0.000075,0.000023,  47.008
    21.2,-0.000019,-0.000006,0.000035,-0.000026,  47.012
    21.4,-0.000011,-0.000000,0.000030,-0.000040,  47.015
    21.6,-0.000012,0.000005,0.000051,-0.000040,  47.005
    21.8,-0.000006,0.000007,0.000080,-0.000013,  46.999
    22.0,-0.000004,0.000011,0.000096,-0.000013,  46.999
    22.2,-0.000002,0.000013,0.000113,0.000000,  46.999
    22.4,0.000010,0.000012,0.000134,0.000014,  47.001
    22.6,0.000012,0.000018,0.000142,0.000014,  47.008
    22.8,0.000009,0.000022,0.000156,0.000000,  47.008
    23.0,0.000018,0.000018,0.000164,0.000000,  47.005
    23.2,0.000024,0.000023,0.000179,0.000014,  47.002
    23.4,0.000020,0.000029,0.000193,0.000027,  47.004
    23.6,0.000020,0.000029,0.000209,0.000027,  47.005
    23.8,0.000029,0.000027,0.000231,0.000027,  47.010
    24.0,0.000026,0.000027,0.000245,0.000027,  47.007
    24.2,0.000029,0.000021,0.000259,0.000027,  47.003
    24.4,0.000024,0.000019,0.000261,0.000027,  47.014
    24.6,0.000021,0.000013,0.000254,0.000027,  47.017
    24.8,0.000019,0.000011,0.000238,0.000014,  47.017
    25.0,0.000016,0.000012,0.000219,0.000000,  47.015
    25.2,0.000016,0.000005,0.000210,0.000023,  47.023
    25.4,0.000007,0.000008,0.000193,-0.000026,  47.034
    25.6,0.000013,0.000015,0.000172,-0.000026,  47.046
    25.8,0.000022,0.000012,0.000149,0.000023,  47.045
    26.0,0.000016,0.000012,0.000125,-0.000013,  47.046
    26.2,0.000022,0.000011,0.000113,-0.000013,  47.044
    26.4,0.000022,0.000014,0.000120,0.000023,  47.048
    26.6,0.000016,0.000012,0.000121,0.000000,  47.046
    26.8,0.000022,0.000016,0.000114,0.000014,  47.049
    27.0,0.000020,0.000015,0.000103,0.000049,  47.053
    27.2,0.000016,0.000013,0.000107,0.000049,  47.054
    27.4,0.000022,0.000014,0.000107,0.000041,  47.057
    27.6,0.000020,0.000014,0.000086,0.000014,  47.059
    27.8,0.000016,0.000018,0.000070,0.000049,  47.055
    28.0,0.000022,0.000018,0.000055,0.000027,  47.063
    28.2,0.000022,0.000009,0.000062,0.000027,  47.064
    28.4,0.000011,0.000001,0.000070,0.000027,  47.069
    28.6,0.000004,-0.000009,0.000099,0.000027,  47.069
    28.8,-0.000012,-0.000016,0.000114,0.000027,  47.065
    29.0,-0.000019,-0.000020,0.000114,0.000027,  47.070
    29.2,-0.000012,-0.000015,0.000114,0.000027,  47.074
    29.4,-0.000007,-0.000015,0.000093,0.000027,  47.069
    29.6,-0.000011,-0.000011,0.000076,0.000014,  47.081
    29.8,-0.000007,-0.000014,0.000031,0.000000,  47.094
    30.0,-0.000007,-0.000010,-0.000030,0.000000,  47.090
    30.2,-0.000011,-0.000014,-0.000113,0.000023,  47.084
    30.4,-0.000004,-0.000014,-0.000206,-0.000013,  47.084
    30.6,-0.000002,-0.000013,-0.000244,-0.000013,  47.087
    30.8,-0.000005,-0.000013,-0.000265,0.000036,  47.081
    31.0,-0.000003,-0.000011,-0.000265,0.000014,  47.087
    31.2,-0.000003,-0.000005,-0.000263,0.000027,  47.090
    31.4,-0.000006,-0.000000,-0.000254,0.000049,  47.090
    31.6,0.000005,-0.000000,-0.000244,0.000014,  47.085
    31.8,0.000009,0.000000,-0.000220,0.000027,  47.076
    32.0,0.000003,0.000000,-0.000182,0.000014,  47.086
    32.2,0.000003,0.000000,-0.000144,0.000014,  47.086
    32.4,0.000000,0.000002,-0.000118,0.000027,  47.087
    32.6,0.000000,-0.000002,-0.000080,0.000014,  47.088
    32.8,-0.000012,-0.000004,-0.000038,0.000014,  47.090
    33.0,-0.000012,-0.000004,-0.000028,0.000027,  47.090
    33.2,-0.000017,-0.000008,-0.000027,0.000027,  47.088
    33.4,-0.000017,-0.000010,-0.000041,0.000027,  47.086
    33.6,-0.000017,-0.000006,-0.000025,0.000027,  47.092
    33.8,-0.000014,-0.000008,-0.000010,0.000014,  47.096
    34.0,-0.000018,-0.000006,0.000000,0.000000,  47.107
    34.2,-0.000009,-0.000006,0.000007,0.000000,  47.096
    34.4,-0.000006,-0.000005,0.000007,-0.000013,  47.099
    34.6,-0.000010,-0.000007,-0.000014,-0.000026,  47.098
    34.8,-0.000001,-0.000003,-0.000014,-0.000026,  47.099
    35.0,0.000003,-0.000004,-0.000007,-0.000013,  47.095
    35.2,-0.000001,-0.000008,-0.000014,0.000000,  47.096
    35.4,0.000002,0.000000,-0.000014,0.000000,  47.091
    35.6,0.000011,0.000004,-0.000020,0.000000,  47.098
    35.8,0.000007,-0.000000,-0.000020,0.000000,  47.097
    36.0,0.000007,0.000002,-0.000021,0.000027,  47.100
    36.2,0.000010,0.000004,-0.000035,0.000000,  47.103
    36.4,0.000003,0.000004,-0.000052,0.000014,  47.100
    36.6,0.000010,0.000002,-0.000083,0.000027,  47.101
    36.8,0.000010,-0.000003,-0.000106,0.000027,  47.107
    37.0,-0.000002,-0.000011,-0.000123,0.000027,  47.104
    37.2,-0.000006,-0.000024,-0.000134,0.000027,  47.104
    37.4,-0.000019,-0.000026,-0.000125,0.000027,  47.107
    37.6,-0.000026,-0.000030,-0.000110,0.000027,  47.104
    37.8,-0.000022,-0.000029,-0.000086,0.000027,  47.101
    38.0,-0.000019,-0.000027,-0.000069,0.000014,  47.109
    38.2,-0.000023,-0.000027,-0.000068,0.000000,  47.117
    38.4,-0.000019,-0.000023,-0.000059,-0.000013,  47.122
    38.6,-0.000019,-0.000021,-0.000059,-0.000013,  47.110
    38.8,-0.000020,-0.000021,-0.000075,-0.000013,  47.103
    39.0,-0.000020,-0.000019,-0.000099,-0.000013,  47.100
    39.2,-0.000018,-0.000020,-0.000104,-0.000013,  47.096
    39.4,-0.000021,-0.000019,-0.000104,0.000000,  47.092
    39.6,-0.000016,-0.000015,-0.000104,0.000014,  47.095
    39.8,-0.000010,-0.000009,-0.000118,0.000014,  47.099
    40.0,-0.000013,-0.000010,-0.000128,0.000000,  47.096
    40.2,-0.000005,-0.000006,-0.000159,0.000000,  47.091
    40.4,0.000008,-0.000002,-0.000145,0.000000,  47.086
    40.6,0.000004,-0.000002,-0.000135,0.000000,  47.086
    40.8,0.000004,-0.000005,-0.000106,0.000000,  47.086
    41.0,0.000008,-0.000003,-0.000083,0.000000,  47.081
    41.2,0.000005,-0.000011,-0.000062,0.000000,  47.083
    41.4,0.000005,-0.000008,-0.000041,0.000000,  47.087
    41.6,0.000000,-0.000011,-0.000032,0.000014,  47.088
    41.8,-0.000005,-0.000017,-0.000027,0.000014,  47.083
    42.0,-0.000003,-0.000013,-0.000041,0.000014,  47.084
    42.2,-0.000003,-0.000011,-0.000062,0.000014,  47.089
    42.4,0.000000,-0.000013,-0.000093,0.000000,  47.095
    42.6,-0.000006,-0.000009,-0.000138,0.000000,  47.092
    42.8,-0.000006,-0.000009,-0.000145,0.000000,  47.088
    43.0,0.000000,-0.000013,-0.000151,0.000000,  47.087
    43.2,-0.000004,-0.000009,-0.000135,0.000000,  47.084
    43.4,-0.000004,-0.000009,-0.000135,0.000000,  47.083
    43.6,-0.000001,-0.000009,-0.000141,0.000000,  47.082
    43.8,-0.000005,-0.000007,-0.000141,0.000000,  47.079
    44.0,0.000002,-0.000004,-0.000141,0.000014,  47.085
    44.2,0.000002,-0.000002,-0.000154,0.000014,  47.084
    44.4,-0.000002,-0.000006,-0.000149,0.000014,  47.089
    44.6,0.000004,-0.000003,-0.000156,0.000027,  47.089
    44.8,0.000004,-0.000002,-0.000163,0.000014,  47.090
    45.0,0.000001,-0.000001,-0.000165,0.000014,  47.093
    45.2,0.000004,0.000001,-0.000166,0.000014,  47.093
    45.4,0.000004,0.000003,-0.000137,0.000014,  47.095
    45.6,-0.000002,-0.000003,-0.000093,0.000000,  47.094
    45.8,-0.000001,-0.000004,-0.000034,0.000000,  47.095
    46.0,-0.000009,-0.000003,-0.000027,0.000014,  47.098
    46.2,-0.000015,-0.000008,-0.000049,0.000014,  47.096
    46.4,-0.000004,0.000001,-0.000086,0.000014,  47.105
    46.6,0.000003,0.000000,-0.000079,0.000014,  47.113
    46.8,-0.000004,0.000000,-0.000085,0.000000,  47.122
    47.0,-0.000004,0.000000,-0.000070,0.000000,  47.129
    47.2,0.000000,0.000003,-0.000062,0.000000,  47.133
    47.4,-0.000006,0.000004,-0.000041,0.000000,  47.129
    47.6,-0.000004,0.000006,-0.000027,0.000000,  47.128
    47.8,0.000003,0.000007,-0.000027,0.000014,  47.125
    48.0,-0.000001,0.000008,-0.000041,0.000014,  47.107
    48.2,0.000011,0.000010,-0.000056,0.000014,  47.118
    48.4,0.000022,0.000015,-0.000055,0.000027,  47.122
    48.6,0.000021,0.000014,-0.000041,0.000027,  47.116
    48.8,0.000026,0.000015,-0.000027,0.000027,  47.112
    49.0,0.000034,0.000020,-0.000011,0.000027,  47.113
    49.2,0.000037,0.000024,0.000010,0.000027,  47.116
    49.4,0.000028,0.000022,0.000025,0.000027,  47.121
    49.6,0.000032,0.000025,0.000055,0.000027,  47.118
    49.8,0.000024,0.000025,0.000090,0.000027,  47.122
    50.0,0.000021,0.000024,0.000113,0.000014,  47.120
    50.2,0.000019,0.000012,0.000113,0.000000,  47.126
    50.4,0.000013,0.000005,0.000099,0.000023,  47.124
    50.6,0.000007,0.000011,0.000055,-0.000026,  47.125
    50.8,0.000007,0.000013,0.000020,-0.000026,  47.149
    51.0,0.000013,0.000013,-0.000004,0.000023,  47.157
    51.2,0.000012,0.000013,-0.000044,0.000000,  47.153
    51.4,0.000012,0.000011,-0.000051,0.000014,  47.154
    51.6,0.000019,0.000014,-0.000042,0.000014,  47.172
    51.8,0.000015,0.000016,-0.000014,0.000027,  47.190
    52.0,0.000018,0.000017,-0.000016,0.000041,  47.219
    52.2,0.000024,0.000014,-0.000035,0.000014,  47.244
    52.4,0.000020,0.000018,-0.000045,0.000014,  47.266
    52.6,0.000023,0.000020,-0.000068,0.000027,  47.291
    52.8,0.000032,0.000019,-0.000069,0.000014,  47.288
    53.0,0.000028,0.000026,-0.000083,0.000014,  47.281
    53.2,0.000028,0.000026,-0.000085,0.000027,  47.270
    53.4,0.000032,0.000021,-0.000069,0.000027,  47.261
    53.6,0.000026,0.000025,-0.000052,0.000027,  47.251
    53.8,0.000023,0.000022,-0.000035,0.000027,  47.248
    54.0,0.000021,0.000018,-0.000006,0.000041,  47.242
    54.2,0.000010,0.000012,0.000024,0.000041,  47.218
    54.4,0.000004,0.000008,0.000070,0.000041,  47.211
    54.6,0.000000,0.000008,0.000078,0.000041,  47.206
    54.8,-0.000006,0.000004,0.000065,0.000027,  47.203
    55.0,0.000003,0.000001,0.000042,0.000014,  47.196
    55.2,0.000017,0.000002,0.000027,0.000000,  47.195
    55.4,0.000013,-0.000005,-0.000003,-0.000013,  47.189
    55.6,0.000017,0.000001,-0.000035,-0.000026,  47.186
    55.8,0.000017,0.000006,0.000013,-0.000026,  47.185
    56.0,0.000013,0.000006,0.000104,-0.000013,  47.181
    56.2,0.000020,0.000003,0.000227,0.000000,  47.177
    56.4,0.000020,0.000010,0.000244,0.000014,  47.180
    56.6,0.000019,0.000010,0.000216,0.000014,  47.176
    56.8,0.000027,0.000014,0.000175,0.000027,  47.176
    57.0,0.000030,0.000016,0.000152,0.000041,  47.182
    57.2,0.000026,0.000021,0.000109,0.000027,  47.179
    57.4,0.000033,0.000023,0.000076,0.000027,  47.175
    57.6,0.000030,0.000021,0.000054,0.000027,  47.173
    57.8,0.000027,0.000023,0.000017,0.000027,  47.171
    58.0,0.000021,0.000021,-0.000007,0.000027,  47.176
    58.2,0.000016,0.000013,-0.000014,0.000027,  47.182
    58.4,0.000017,0.000008,-0.000013,0.000027,  47.181
    58.6,0.000000,0.000003,-0.000000,0.000027,  47.185
    58.8,-0.000012,-0.000001,0.000065,0.000041,  47.186
    59.0,-0.000028,0.000008,0.000165,0.000041,  47.181
    59.2,-0.000013,0.000022,0.000299,0.000041,  47.190
    59.4,0.000027,0.000049,0.000479,0.000041,  47.185
    59.6,0.000075,0.000059,0.000710,0.000014,  47.187
    59.8,0.000074,0.000070,0.000989,0.000000,  47.188
    60.0,0.000072,0.000077,0.001083,-0.000013,  47.188
    60.2,0.000046,0.000046,0.001109,-0.000053,  47.188
    60.4,-0.000011,-0.000005,0.001089,-0.000040,  47.188
    60.6,-0.000071,-0.000078,0.001089,0.000000,  47.185
    60.8,-0.000158,-0.000123,0.001061,0.000041,  47.188
    61.0,-0.000212,-0.000168,0.001027,0.000041,  47.184
    61.2,-0.000245,-0.000209,0.000971,0.000014,  47.180
    61.4,-0.000280,-0.000235,0.000885,0.000000,  47.171
    61.6,-0.000302,-0.000251,0.000782,-0.000066,  47.157
    61.8,-0.000301,-0.000248,0.000657,-0.000106,  47.152
    62.0,-0.000296,-0.000248,0.000587,-0.000173,  47.152
    62.2,-0.000294,-0.000246,0.000530,-0.000240,  47.158
    62.4,-0.000274,-0.000232,0.000484,-0.000266,  47.163
    62.6,-0.000258,-0.000220,0.000412,-0.000280,  47.168
    62.8,-0.000249,-0.000214,0.000330,-0.000293,  47.164
    63.0,-0.000224,-0.000196,0.000234,-0.000293,  47.172
    63.2,-0.000208,-0.000185,0.000186,-0.000280,  47.176
    63.4,-0.000196,-0.000179,0.000159,-0.000253,  47.182
    63.6,-0.000174,-0.000167,0.000149,-0.000240,  47.182
    63.8,-0.000155,-0.000160,0.000099,-0.000226,  47.184
    64.0,-0.000131,-0.000138,0.000037,-0.000213,  47.187
    64.2,-0.000108,-0.000107,-0.000042,-0.000186,  47.186
    64.4,-0.000075,-0.000069,-0.000097,-0.000173,  47.184
    64.6,-0.000056,-0.000048,-0.000159,-0.000160,  47.187
    64.8,-0.000049,-0.000034,-0.000228,-0.000146,  47.192
    65.0,-0.000038,-0.000023,-0.000265,-0.000146,  47.189
    65.2,-0.000027,-0.000010,-0.000292,-0.000111,  47.186
    65.4,-0.000023,-0.000002,-0.000317,-0.000106,  47.193
    65.6,-0.000014,0.000002,-0.000307,-0.000093,  47.193
    65.8,-0.000009,0.000008,-0.000282,-0.000031,  47.195
    66.0,-0.000001,0.000011,-0.000231,-0.000040,  47.197
    66.2,0.000011,0.000012,-0.000199,-0.000040,  47.193
    66.4,0.000013,0.000009,-0.000159,-0.000040,  47.196
    66.6,0.000010,0.000013,-0.000113,-0.000026,  47.194
    66.8,0.000007,0.000013,-0.000109,-0.000026,  47.196
    67.0,0.000005,0.000016,-0.000094,-0.000026,  47.200
    67.2,0.000007,0.000020,-0.000096,0.000000,  47.203
    67.4,0.000010,0.000027,-0.000094,0.000014,  47.205
    67.6,0.000015,0.000033,-0.000094,0.000014,  47.202
    67.8,0.000023,0.000033,-0.000110,0.000027,  47.206
    68.0,0.000022,0.000035,-0.000110,0.000041,  47.206
    68.2,0.000031,0.000032,-0.000110,0.000014,  47.204
    68.4,0.000036,0.000034,-0.000117,0.000014,  47.199
    68.6,0.000035,0.000039,-0.000161,0.000027,  47.196
    68.8,0.000047,0.000035,-0.000231,0.000027,  47.198
    69.0,0.000052,0.000038,-0.000323,0.000027,  47.199
    69.2,0.000049,0.000038,-0.000349,0.000041,  47.198
    69.4,0.000058,0.000041,-0.000362,0.000041,  47.195
    69.6,0.000068,0.000052,-0.000332,0.000041,  47.193
    69.8,0.000079,0.000065,-0.000309,0.000054,  47.197
    70.0,0.000096,0.000072,-0.000307,0.000067,  47.197
    70.2,0.000104,0.000080,-0.000302,0.000067,  47.197
    70.4,0.000106,0.000077,-0.000290,0.000067,  47.204
    70.6,0.000109,0.000080,-0.000489,0.000067,  47.198
    70.8,0.000114,0.000088,-0.000781,0.000067,  47.204
    71.0,0.000122,0.000094,-0.001179,0.000081,  47.204
    71.2,0.000127,0.000101,-0.001159,0.000081,  47.208
    71.4,0.000138,0.000108,-0.000995,0.000067,  47.215
    71.6,0.000146,0.000126,-0.000677,0.000081,  47.217
    71.8,0.000156,0.000134,-0.000535,0.000081,  47.212
    72.0,0.000162,0.000141,-0.000415,0.000081,  47.209
    72.2,0.000167,0.000142,-0.000317,0.000094,  47.211
    72.4,0.000164,0.000143,-0.000247,0.000094,  47.211
    72.6,0.000164,0.000145,-0.000196,0.000094,  47.214
    72.8,0.000161,0.000142,-0.000173,0.000107,  47.211
    73.0,0.000158,0.000144,-0.000120,0.000107,  47.207
    73.2,0.000158,0.000146,-0.000069,0.000107,  47.215
    73.4,0.000152,0.000146,-0.000018,0.000121,  47.212
    73.6,0.000156,0.000151,-0.000018,0.000134,  47.209
    73.8,0.000153,0.000154,-0.000042,0.000134,  47.214
    74.0,0.000144,0.000143,-0.000103,0.000147,  47.215
    74.2,0.000145,0.000132,-0.000080,0.000161,  47.212
    74.4,0.000140,0.000122,-0.000037,0.000134,  47.217
    74.6,0.000120,0.000114,0.000024,0.000134,  47.215
    74.8,0.000113,0.000112,0.000015,0.000134,  47.210
    75.0,0.000108,0.000104,-0.000030,0.000121,  47.213
    75.2,0.000099,0.000097,-0.000099,0.000107,  47.217
    75.4,0.000103,0.000093,-0.000092,0.000094,  47.219
    75.6,0.000103,0.000090,-0.000068,0.000081,  47.215
    75.8,0.000100,0.000085,-0.000021,0.000081,  47.219
    76.0,0.000097,0.000085,-0.000042,0.000054,  47.224
    76.2,0.000095,0.000085,-0.000082,0.000054,  47.222
    76.4,0.000092,0.000083,-0.000151,0.000067,  47.216
    76.6,0.000080,0.000081,-0.000149,0.000054,  47.217
    76.8,0.000084,0.000079,-0.000127,0.000054,  47.214
    77.0,0.000080,0.000079,-0.000082,0.000067,  47.214
    77.2,0.000080,0.000077,-0.000052,0.000054,  47.212
    77.4,0.000083,0.000079,-0.000030,0.000054,  47.213
    77.6,0.000079,0.000079,-0.000020,0.000067,  47.208
    77.8,0.000083,0.000077,0.000003,0.000054,  47.214
    78.0,0.000083,0.000075,0.000020,0.000054,  47.214
    78.2,0.000074,0.000072,0.000042,0.000067,  47.211
    78.4,0.000072,0.000072,0.000051,0.000054,  47.218
    78.6,0.000062,0.000066,0.000058,0.000054,  47.214
    78.8,0.000050,0.000056,0.000049,0.000054,  47.212
    79.0,0.000051,0.000055,0.000041,0.000067,  47.214
    79.2,0.000046,0.000051,0.000025,0.000054,  47.214
    79.4,0.000037,0.000045,0.000010,0.000054,  47.217
    79.6,0.000041,0.000042,-0.000020,0.000054,  47.220
    79.8,0.000041,0.000042,-0.000020,0.000041,  47.223
    80.0,0.000042,0.000040,-0.000025,0.000041,  47.225
    80.2,0.000054,0.000040,-0.000030,0.000041,  47.226
    80.4,0.000065,0.000150,0.000218,0.000054,  47.224
    80.6,0.000191,0.000318,0.000580,0.000041,  47.224
    80.8,0.000382,0.000532,0.001072,0.000041,  47.223
    81.0,0.000632,0.000809,0.001252,0.000054,  47.219
    81.2,0.000713,0.000894,0.001341,0.000041,  47.224
    81.4,0.000751,0.000937,0.001337,0.000094,  47.217
    81.6,0.000730,0.000936,0.001337,0.000187,  47.222
    81.8,0.011541,0.001126,0.001280,0.000281,  47.220
    82.0,0.028280,0.001396,0.001186,0.000361,  47.220
    82.2,0.051625,0.001742,0.016311,0.000455,  47.218
    82.4,0.073853,0.022000,0.040052,0.000521,  47.212
    82.6,0.099337,0.054137,0.073881,0.000548,  47.218
    82.8,0.128591,0.100943,0.098416,0.000548,  47.216
    83.0,0.180826,0.145858,0.123010,0.000508,  47.215
    83.2,0.254121,0.199410,0.147585,0.012417,  47.216
    83.4,0.359996,0.264511,0.198439,0.030924,  47.220
    83.6,0.421966,0.330340,0.269865,0.056884,  47.214
    83.8,0.465225,0.404412,0.372870,0.079769,  47.215
    84.0,0.482952,0.489447,0.434405,0.105151,  47.219
    84.2,0.471908,0.561432,0.479038,0.133432,  47.228
    84.4,0.520530,0.625397,0.500360,0.183184,  47.232
    84.6,0.582505,0.675244,0.560918,0.251742,  47.230
    84.8,0.663484,0.737256,0.636205,0.348580,  47.226
    85.0,0.729644,0.796531,0.733314,0.402793,  47.220
    85.2,0.794789,0.850359,0.806335,0.438253,  47.214
    85.4,0.856469,0.829408,0.869222,0.449606,  47.216
    85.6,0.843768,0.768895,0.914910,0.501826,  47.214
    85.8,0.789261,0.682824,0.941295,0.568547,  47.211
    86.0,0.706277,0.688936,0.942090,0.656274,  47.208
    86.2,0.678966,0.722968,0.917286,0.723745,  47.207
    86.4,0.659573,0.792385,0.847641,0.785937,  47.207
    86.6,0.647105,0.778455,0.760136,0.838580,  47.212
    86.8,0.635780,0.739565,0.665376,0.868554,  47.211
    87.0,0.628093,0.681738,0.625283,0.874513,  19.382
    87.2,0.623829,0.659197,0.597777,0.855725,  29.374
    87.4,0.617950,0.642054,0.580723,0.833238,  39.918
    87.6,0.612974,0.629726,0.572999,0.798896,  42.059
    87.8,0.608845,0.617923,0.555863,0.755479,  18.572
    88.0,0.605032,0.608498,0.540605,0.705580,  33.225
    88.2,0.601759,0.601310,0.527055,0.681971,  41.702
    88.4,0.599033,0.594801,0.516860,0.662392,  46.404
    88.6,0.596693,0.589644,0.508912,0.646252,  44.149
    88.8,0.594787,0.585805,0.503049,0.632863,  23.855
    89.0,0.593327,0.582146,0.497492,0.621993,  35.042
    89.2,0.591928,0.579209,0.493077,0.613632,  45.177
    89.4,0.590775,0.576972,0.489784,0.606057,  46.900
    89.6,0.589863,0.575054,0.486769,0.599956,  41.009
    89.8,0.589061,0.573643,0.484446,0.595253,  19.956
    90.0,0.588407,0.572732,0.482784,0.590999,  41.213
    90.2,0.587932,0.572324,0.481138,0.587577,  46.339
    90.4,0.587368,0.571319,0.479790,0.585019,  47.129
    90.6,0.586840,0.570355,0.478744,0.582664,  47.236
    90.8,0.586355,0.569462,0.477996,0.580829,  47.234
    91.0,0.586897,0.569357,0.477503,0.579458,  47.232
    91.2,0.587966,0.569681,0.477265,0.578092,  47.229
    91.4,0.589575,0.570420,0.477450,0.577032,  47.224
    91.6,0.589981,0.570751,0.478006,0.576227,  47.223
    91.8,0.590053,0.571093,0.478838,0.575422,  47.225
    92.0,0.589795,0.571433,0.478684,0.574670,  47.223
    92.2,0.589419,0.571158,0.478218,0.574018,  47.228
    92.4,0.588818,0.570551,0.477407,0.574569,  47.229
    92.6,0.587997,0.569650,0.476894,0.575724,  47.236
    92.8,0.587556,0.569108,0.476351,0.577537,  47.239
    93.0,0.587181,0.568574,0.475803,0.577789,  47.256
    93.2,0.586905,0.568066,0.475345,0.577436,  47.257
    93.4,0.586686,0.567608,0.474904,0.576629,  47.255
    93.6,0.586302,0.567171,0.474485,0.576176,  47.248
    93.8,0.585910,0.566773,0.474186,0.575472,  47.250
    94.0,0.585482,0.566490,0.473949,0.574720,  47.243
    94.2,0.585231,0.566272,0.473785,0.574269,  47.245
    94.4,0.585064,0.566140,0.473555,0.573768,  47.250
    94.6,0.584982,0.565912,0.473309,0.573368,  47.251
    94.8,0.584799,0.565670,0.473074,0.572933,  47.247
    95.0,0.584585,0.565425,0.473572,0.572534,  47.255
    95.2,0.584368,0.566366,0.474411,0.572185,  47.260
    95.4,0.585288,0.567890,0.475605,0.571900,  47.256
    95.6,0.586758,0.570016,0.476168,0.571701,  47.258
    95.8,0.588808,0.570506,0.476564,0.571637,  47.260
    96.0,0.589161,0.570473,0.476854,0.571637,  47.256
    96.2,0.588972,0.569911,0.476975,0.571736,  47.259
    96.4,0.588192,0.569397,0.476652,0.571850,  47.262
    96.6,0.587679,0.568621,0.476094,0.572135,  47.273
    96.8,0.587024,0.567600,0.475268,0.573033,  47.273
    97.0,0.586212,0.566997,0.474778,0.574133,  47.278
    97.2,0.585682,0.566472,0.474284,0.575487,  47.277
    97.4,0.585196,0.566030,0.473832,0.575638,  47.282
    97.6,0.584775,0.565640,0.473475,0.575236,  47.276
    97.8,0.584490,0.565326,0.473166,0.574334,  47.277
    98.0,0.584280,0.565077,0.472905,0.573833,  47.279
    98.2,0.584165,0.564930,0.472764,0.573183,  47.283
    98.4,0.584083,0.564862,0.472728,0.572484,  47.288
    98.6,0.584057,0.564890,0.472781,0.572035,  47.283
    98.8,0.584104,0.564997,0.472755,0.571537,  47.287
    99.0,0.584043,0.564962,0.472776,0.571089,  47.289
    99.2,0.583935,0.564902,0.472791,0.570890,  47.294
    99.4,0.583809,0.564842,0.473225,0.570791,  47.292
    99.6,0.584931,0.565757,0.473875,0.570841,  47.292
    99.8,0.586676,0.567171,0.474742,0.570791,  47.295
   100.0,0.589024,0.569074,0.475563,0.570791,  47.292
   100.2,0.589764,0.569915,0.476442,0.570791,  47.304
   100.4,0.589981,0.570463,0.477436,0.570940,  47.303
   100.6,0.589688,0.570720,0.477663,0.571040,  47.311
   100.8,0.589524,0.570702,0.477546,0.571189,  47.310
   101.0,0.589147,0.570378,0.477096,0.572384,  47.315
   101.2,0.588598,0.569769,0.476948,0.573983,  47.322
   101.4,0.588373,0.569553,0.476785,0.576090,  47.324
   101.6,0.588212,0.569392,0.476564,0.576694,  47.333
   101.8,0.588126,0.569267,0.476479,0.576644,  47.331
   102.0,0.588106,0.569143,0.476431,0.576040,  47.331
   102.2,0.588034,0.569057,0.476410,0.575839,  47.331
   102.4,0.587993,0.568988,0.476494,0.575538,  47.335
   102.6,0.587962,0.569077,0.476621,0.575086,  47.335
   102.8,0.588075,0.569252,0.476796,0.574935,  47.338
   103.0,0.588243,0.569530,0.476975,0.574785,  47.340
   103.2,0.588506,0.569688,0.477169,0.574684,  47.337
   103.4,0.588773,0.569832,0.477385,0.574684,  47.338
   103.6,0.589055,0.569973,0.478423,0.574634,  47.334
   103.8,0.589380,0.571401,0.479894,0.574684,  47.338
   104.0,0.590657,0.573465,0.481814,0.574835,  47.340
   104.2,0.592419,0.576188,0.482411,0.574935,  47.344
   104.4,0.594679,0.576976,0.482565,0.575136,  47.343
   104.6,0.595294,0.577106,0.482283,0.575789,  47.339
   104.8,0.595340,0.576587,0.482305,0.576644,  47.340
   105.0,0.594804,0.576382,0.482224,0.577703,  47.346
   105.2,0.594606,0.575998,0.482110,0.578613,  47.354
   105.4,0.594283,0.575442,0.481881,0.579524,  47.362
   105.6,0.593849,0.575197,0.481783,0.580438,  47.361
   105.8,0.593620,0.575011,0.481670,0.581389,  47.360
   106.0,0.593427,0.574884,0.481604,0.581542,  47.355
   106.2,0.593288,0.574775,0.481492,0.581389,  47.358
   106.4,0.593267,0.574695,0.481354,0.580931,  47.355
   106.6,0.593323,0.574644,0.481211,0.580677,  47.354
   106.8,0.593468,0.574695,0.481312,0.580423,  47.358
   107.0,0.593603,0.574814,0.481493,0.580067,  47.357
   107.2,0.593784,0.574992,0.481797,0.579813,  47.355
   107.4,0.594013,0.575235,0.481999,0.579611,  47.359
   107.6,0.594211,0.575384,0.482180,0.579458,  47.360
   107.8,0.594419,0.575537,0.482383,0.579458,  47.361
   108.0,0.594654,0.575686,0.483185,0.579560,  47.362
   108.2,0.596114,0.577055,0.484253,0.579813,  47.381
   108.4,0.598177,0.579037,0.485641,0.579981,  47.381
   108.6,0.600890,0.581642,0.486319,0.580098,  47.380
   108.8,0.601757,0.582653,0.486742,0.580301,  47.380
   109.0,0.601983,0.583178,0.486961,0.580723,  47.380
   109.2,0.601592,0.583196,0.487183,0.581283,  47.380
   109.4,0.601486,0.583169,0.487261,0.582016,  47.384
   109.6,0.601211,0.582878,0.487223,0.583446,  47.383
   109.8,0.600736,0.582306,0.487302,0.585189,  47.391
   110.0,0.600609,0.582180,0.487349,0.587300,  47.392
   110.2,0.600556,0.582136,0.487402,0.587920,  47.394
   110.4,0.600577,0.582167,0.487498,0.587920,  47.392
   110.6,0.600588,0.582170,0.487627,0.587300,  47.390
   110.8,0.600634,0.582198,0.487734,0.587145,  47.390
   111.0,0.600725,0.582244,0.487950,0.586939,  47.390
   111.2,0.600831,0.582450,0.488220,0.586630,  47.389
   111.4,0.601063,0.582739,0.488540,0.586526,  47.389
   111.6,0.601349,0.583134,0.488833,0.586526,  47.391
   111.8,0.601698,0.583446,0.489120,0.586526,  47.392
   112.0,0.602195,0.583765,0.489429,0.586630,  47.392
   112.2,0.602789,0.584094,0.490736,0.586784,  47.393
   112.4,0.603490,0.585639,0.492556,0.586939,  47.392
   112.6,0.604820,0.587809,0.494896,0.587197,  47.392
   112.8,0.606523,0.590616,0.495706,0.587455,  47.393
   113.0,0.608604,0.591421,0.496015,0.587765,  47.399
   113.2,0.609185,0.591537,0.495822,0.588748,  47.395
   113.4,0.609185,0.590951,0.495844,0.590044,  47.399
   113.6,0.608632,0.590757,0.495712,0.591710,  47.403
   113.8,0.608460,0.590430,0.495397,0.592701,  47.408
   114.0,0.608202,0.589944,0.494934,0.593591,  47.416
   114.2,0.607847,0.589766,0.494846,0.594289,  47.418
   114.4,0.607708,0.589684,0.494764,0.594850,  47.416
   114.6,0.607611,0.589674,0.494725,0.594902,  47.411
   114.8,0.607568,0.589689,0.494676,0.594639,  47.417
   115.0,0.607654,0.589757,0.494681,0.594062,  47.410
   115.2,0.607804,0.589874,0.494681,0.593853,  47.411
   115.4,0.608051,0.590081,0.494874,0.593591,  47.415
   115.6,0.608288,0.590355,0.495138,0.593381,  47.415
   115.8,0.608556,0.590710,0.495507,0.593224,  47.414
   116.0,0.608858,0.590944,0.495750,0.593120,  47.413
   116.2,0.609245,0.591148,0.495977,0.593015,  47.415
   116.4,0.609676,0.591331,0.496164,0.593120,  47.411
   116.6,0.610161,0.591484,0.497187,0.593329,  47.412
   116.8,0.611621,0.593109,0.498618,0.593643,  47.405
   117.0,0.613585,0.595309,0.500482,0.593905,  47.404
   117.2,0.616061,0.598104,0.501420,0.594167,  47.403
   117.4,0.616827,0.599053,0.502091,0.594377,  47.406
   117.6,0.616981,0.599360,0.502534,0.595060,  47.405
   117.8,0.616521,0.599012,0.502702,0.596007,  47.405
   118.0,0.616466,0.598954,0.502607,0.597061,  47.411
   118.2,0.616302,0.598708,0.502265,0.598383,  47.413
   118.4,0.616017,0.598277,0.502321,0.599868,  47.419
   118.6,0.615984,0.598193,0.502405,0.601518,  47.410
   118.8,0.616039,0.598177,0.502556,0.601998,  47.413
   119.0,0.616137,0.598239,0.502730,0.601945,  47.409
   119.2,0.616258,0.598365,0.502915,0.601305,  47.404
   119.4,0.616427,0.598573,0.503117,0.601251,  47.404
   119.6,0.616641,0.598850,0.503453,0.601092,  47.403
   119.8,0.616882,0.599207,0.503909,0.600985,  47.401
   120.0,0.617211,0.599646,0.504415,0.601038,  47.399
   120.2,0.617595,0.600160,0.504843,0.601092,  47.401
   120.4,0.618034,0.600690,0.505243,0.601198,  47.401
   120.6,0.621277,0.601262,0.505655,0.601447,  47.400
   120.8,0.625974,0.601878,0.510336,0.601714,  47.395
   121.0,0.632174,0.607007,0.517219,0.602087,  47.402
   121.2,0.637094,0.614517,0.526415,0.602497,  47.400
   121.4,0.642118,0.624537,0.530765,0.602871,  47.403
   121.6,0.647235,0.629129,0.533730,0.603210,  47.402
   121.8,0.650077,0.632130,0.535276,0.609465,  47.398
   122.0,0.651808,0.633528,0.537057,0.618798,  47.399
   122.2,0.652366,0.635344,0.538229,0.631410,  47.403
   122.4,0.653378,0.636551,0.538794,0.636178,  47.405
   122.6,0.654034,0.637152,0.539624,0.638436,  47.408
   122.8,0.654321,0.638048,0.540327,0.638088,  47.400
   123.0,0.654859,0.638781,0.540835,0.639192,  47.405
   123.2,0.655314,0.639351,0.541202,0.639657,  47.400
   123.4,0.655709,0.639989,0.541766,0.639541,  47.395
   123.6,0.656177,0.640565,0.542312,0.638785,  47.392
   123.8,0.656615,0.641090,0.542834,0.638843,  47.392
   124.0,0.657059,0.641583,0.543375,0.638901,  47.392
   124.2,0.657444,0.642029,0.543948,0.638901,  47.393
   124.4,0.657787,0.642437,0.544502,0.639017,  47.388
   124.6,0.658106,0.642948,0.544996,0.639134,  47.388
   124.8,0.658806,0.643501,0.545466,0.639250,  47.391
   125.0,0.659657,0.644094,0.545842,0.639483,  47.392
   125.2,0.660705,0.645441,0.547499,0.639716,  47.391
   125.4,0.662333,0.647193,0.549762,0.639890,  47.391
   125.6,0.664327,0.649344,0.552639,0.640123,  47.391
   125.8,0.666711,0.651906,0.553798,0.640298,  47.392
   126.0,0.667338,0.652524,0.554359,0.640415,  47.395
   126.2,0.667258,0.652602,0.554351,0.641525,  47.392
   126.4,0.666478,0.652150,0.554426,0.643048,  47.389
   126.6,0.666085,0.651754,0.554224,0.644929,  47.398
   126.8,0.665551,0.651116,0.553751,0.646287,  47.408
   127.0,0.664847,0.650240,0.553700,0.647590,  47.409
   127.2,0.664443,0.649742,0.553689,0.648658,  47.408
   127.4,0.664107,0.649319,0.553784,0.648718,  47.407
   127.6,0.663844,0.648960,0.553854,0.648302,  47.404
   127.8,0.663612,0.648662,0.553930,0.647175,  47.402
   128.0,0.663435,0.648421,0.554056,0.646642,  47.401
   128.2,0.663307,0.648235,0.554283,0.646110,  47.398
   128.4,0.663234,0.648196,0.554598,0.645519,  47.401
   128.6,0.663228,0.648270,0.554988,0.645047,  47.398
   128.8,0.663283,0.648451,0.562051,0.644576,  47.404
   129.0,0.663393,0.653261,0.572688,0.644164,  47.404
   129.2,0.667831,0.660561,0.587146,0.643987,  47.402
   129.4,0.674100,0.670457,0.593257,0.643811,  47.401
   129.6,0.682304,0.676428,0.596890,0.643811,  47.401
   129.8,0.687379,0.681667,0.597861,0.643987,  47.401
   130.0,0.691784,0.686127,0.599259,0.644223,  47.396
   130.2,0.695531,0.688359,0.599550,0.644576,  47.403
   130.4,0.697347,0.689054,0.598722,0.649253,  47.406
   130.6,0.697809,0.688189,0.598386,0.656274,  47.405
   130.8,0.696926,0.688104,0.597682,0.665692,  47.405
   131.0,0.696846,0.687617,0.596673,0.669978,  47.412
   131.2,0.696504,0.686730,0.596167,0.672797,  47.416
   131.4,0.695873,0.686377,0.595722,0.674056,  47.415
   131.6,0.695649,0.686080,0.595328,0.675192,  47.411
   131.8,0.695492,0.685845,0.595022,0.675508,  47.410
   132.0,0.695387,0.685803,0.594789,0.674876,  47.401
   132.2,0.695387,0.685887,0.594662,0.673426,  47.404
   132.4,0.695472,0.686104,0.594579,0.673111,  47.405
   132.6,0.695643,0.686367,0.594656,0.672609,  47.402
   132.8,0.695801,0.686720,0.594828,0.671981,  47.404
   133.0,0.695992,0.687157,0.595106,0.671542,  47.399
   133.2,0.696221,0.687908,0.595461,0.671166,  47.396
   133.4,0.697157,0.688854,0.595900,0.670764,  47.396
   133.6,0.698458,0.689997,0.596422,0.670603,  47.396
   133.8,0.700133,0.691819,0.598654,0.670603,  47.397
   134.0,0.702089,0.694089,0.601725,0.670639,  47.398
   134.2,0.704389,0.696800,0.605765,0.670541,  47.397
   134.4,0.707031,0.699979,0.607041,0.670416,  47.395
   134.6,0.707584,0.700805,0.607320,0.670228,  47.390
   134.8,0.707247,0.700941,0.606659,0.671667,  47.389
   135.0,0.706034,0.700396,0.606232,0.673867,  47.389
   135.2,0.705429,0.699994,0.605436,0.676838,  47.395
   135.4,0.704697,0.699304,0.604278,0.678299,  47.397
   135.6,0.703826,0.698336,0.631490,0.679446,  47.400
   135.8,0.668633,0.711989,0.676244,0.680085,  47.398
   136.0,0.620961,0.733675,0.744547,0.679829,  47.397
   136.2,0.564776,0.764639,0.707827,0.678808,  46.752
   136.4,0.539055,0.723870,0.635905,0.677091,  46.424
   136.6,0.520672,0.659631,0.543695,0.676267,  47.243
   136.8,0.508770,0.581273,0.508055,0.675508,  47.359
   137.0,0.497369,0.547862,0.482151,0.674686,  47.377
   137.2,0.489117,0.523426,0.464485,0.643929,  47.372
   137.4,0.483800,0.506616,0.448236,0.601767,  47.372
   137.6,0.481361,0.491321,0.436103,0.551475,  47.368
   137.8,0.476916,0.479978,0.427734,0.527316,  47.368
   138.0,0.473350,0.472279,0.421669,0.509395,  47.368
   138.2,0.470666,0.465401,0.418436,0.497056,  47.369
   138.4,0.468426,0.460610,0.417973,0.485315,  47.365
   138.6,0.466825,0.457836,0.414604,0.476388,  47.369
   138.8,0.465864,0.453982,0.411171,0.470078,  47.366
   139.0,0.464234,0.450582,0.407692,0.465336,  47.460
   139.2,0.462587,0.447632,0.404914,0.462539,  37.699
   139.4,0.460930,0.445216,0.402426,0.461649,  37.302
   139.6,0.459784,0.443286,0.400247,0.459260,  39.958
   139.8,0.458854,0.441824,0.398562,0.457036,  45.903
   140.0,0.458169,0.440550,0.397282,0.455014,  47.117
   140.2,0.457583,0.439591,0.396357,0.453343,  47.312
   140.4,0.457151,0.438963,0.395598,0.451942,  47.333
   140.6,0.456885,0.438406,0.395113,0.450848,  24.810
   140.8,0.456711,0.438040,0.394880,0.449944,  37.314
   141.0,0.456644,0.437875,0.394910,0.449042,  45.745
   141.2,0.456712,0.437722,0.394852,0.448180,  47.149
   141.4,0.456773,0.437679,0.394904,0.447431,  47.349
   141.6,0.456880,0.437753,0.395062,0.446870,  47.368
   141.8,0.457046,0.438083,0.395511,0.446385,  47.382
   142.0,0.457782,0.438610,0.396119,0.446087,  47.382
   142.2,0.458826,0.439323,0.396909,0.445937,  47.378
   142.4,0.460190,0.440150,0.399254,0.445863,  47.379
   142.6,0.461345,0.441134,0.402441,0.445937,  47.378
   142.8,0.462550,0.442274,0.406519,0.445975,  47.376
   143.0,0.463817,0.443563,0.407849,0.446049,  47.377
   143.2,0.464118,0.443821,0.408179,0.446124,  47.376
   143.4,0.463956,0.443751,0.407545,0.447169,  47.377
   143.6,0.463340,0.443353,0.407413,0.448667,  47.383
   143.8,0.463148,0.443153,0.406999,0.450659,  47.380
   144.0,0.462940,0.442888,0.406328,0.451491,  47.388
   144.2,0.462708,0.442553,0.406078,0.452020,  47.389
   144.4,0.462608,0.442418,0.405929,0.452209,  47.385
   144.6,0.462556,0.442347,0.405846,0.452136,  47.381
   144.8,0.462554,0.442340,0.405888,0.451834,  47.379
   145.0,0.462639,0.442379,0.406050,0.451265,  47.376
   145.2,0.462786,0.442471,0.406319,0.451076,  47.373
   145.4,0.462994,0.442617,0.406637,0.450925,  47.370
   145.6,0.463155,0.442790,0.407032,0.450737,  47.373
   145.8,0.463311,0.442994,0.407513,0.450662,  47.371
   146.0,0.463494,0.443236,0.408342,0.450624,  47.373
   146.2,0.463671,0.444012,0.409372,0.450624,  47.371
   146.4,0.464921,0.445070,0.410622,0.450737,  47.365
   146.6,0.466584,0.446427,0.412749,0.450888,  47.367
   146.8,0.468691,0.447354,0.415382,0.451114,  47.366
   147.0,0.469572,0.448203,0.418567,0.451340,  47.368
   147.2,0.470056,0.448986,0.419529,0.451529,  47.365
   147.4,0.470134,0.449117,0.419640,0.451756,  47.363
   147.6,0.470080,0.448874,0.418887,0.453042,  47.366
   147.8,0.469759,0.448275,0.418752,0.454827,  47.368
   148.0,0.469174,0.448075,0.418535,0.457115,  47.375
   148.2,0.468956,0.447896,0.418209,0.457766,  47.380
   148.4,0.468776,0.447733,0.418135,0.457804,  47.382
   148.6,0.468644,0.447711,0.418148,0.457268,  47.377
   148.8,0.468589,0.447765,0.418216,0.457154,  47.371
   149.0,0.468583,0.447899,0.418364,0.456962,  47.373
   149.2,0.468653,0.448062,0.418567,0.456698,  47.369
   149.4,0.468817,0.448269,0.418844,0.456351,  47.371
   149.6,0.469059,0.448541,0.419177,0.456198,  47.370
   149.8,0.469377,0.448825,0.419677,0.456046,  47.370
   150.0,0.469650,0.449134,0.420244,0.455931,  47.372
   150.2,0.469931,0.449481,0.420923,0.455855,  47.376
   150.4,0.470213,0.450312,0.421946,0.455817,  47.373
   150.6,0.471371,0.451397,0.423214,0.455779,  47.370
   150.8,0.472981,0.452738,0.424679,0.455931,  47.376
   151.0,0.475040,0.453619,0.426807,0.456198,  47.374
   151.2,0.476045,0.454400,0.429361,0.456466,  47.374
   151.4,0.476751,0.455067,0.432375,0.456771,  47.375
   151.6,0.477148,0.455635,0.433496,0.457154,  47.377
   151.8,0.477307,0.455873,0.433873,0.457498,  47.378
   152.0,0.477180,0.455910,0.433512,0.458799,  47.387
   152.2,0.476781,0.455751,0.433250,0.460530,  47.390
   152.4,0.476757,0.455769,0.432661,0.462655,  47.402
   152.6,0.476767,0.455776,0.431750,0.463427,  47.410
   152.8,0.476821,0.455763,0.431864,0.463699,  47.402
   153.0,0.476892,0.455842,0.432318,0.463427,  47.404
   153.2,0.476989,0.455964,0.433133,0.463353,  47.399
   153.4,0.477100,0.456113,0.433598,0.463197,  47.397
   153.6,0.477315,0.456303,0.434056,0.462923,  47.398
   153.8,0.477601,0.456534,0.434518,0.462810,  47.399
   154.0,0.477935,0.456809,0.435089,0.462771,  47.397
   154.2,0.478182,0.457078,0.435700,0.462768,  47.396
   154.4,0.478407,0.457375,0.436343,0.462810,  47.399
   154.6,0.478628,0.457694,0.437565,0.462926,  47.402
   154.8,0.478827,0.458724,0.439100,0.463039,  47.400
   155.0,0.480201,0.460128,0.440957,0.463197,  47.402
   155.2,0.482037,0.461912,0.442934,0.463508,  47.408
   155.4,0.484364,0.462777,0.445136,0.463815,  47.410
   155.6,0.485196,0.463361,0.447567,0.464129,  47.411
   155.8,0.485498,0.463677,0.448307,0.464557,  47.410
   156.0,0.485302,0.463733,0.448326,0.465021,  47.409
   156.2,0.485229,0.463512,0.447561,0.466233,  47.416
   156.4,0.484947,0.463036,0.447516,0.467877,  47.416
   156.6,0.484477,0.462912,0.447460,0.469995,  47.423
   156.8,0.484348,0.462823,0.447375,0.470744,  47.424
   157.0,0.484277,0.462788,0.447279,0.470945,  47.425
   157.2,0.484277,0.462810,0.447392,0.470748,  47.424
   157.4,0.484269,0.462879,0.447564,0.470034,  47.421
   157.6,0.484277,0.463002,0.447815,0.469881,  47.424
   157.8,0.484317,0.463151,0.447979,0.469605,  47.420
   158.0,0.484454,0.463324,0.448174,0.469330,  47.421
   158.2,0.484640,0.463538,0.448335,0.469212,  47.423
   158.4,0.484883,0.463720,0.448705,0.469133,  47.420
   158.6,0.485134,0.463896,0.449170,0.469094,  47.420
   158.8,0.485417,0.464085,0.449753,0.469054,  47.422
   159.0,0.485733,0.464269,0.451000,0.469015,  47.416
   159.2,0.487137,0.465354,0.452636,0.469050,  47.419
   159.4,0.489109,0.466804,0.454664,0.469133,  47.417
   159.6,0.491656,0.468627,0.456700,0.469330,  47.408
   159.8,0.492593,0.469598,0.458922,0.469566,  47.408
   160.0,0.492997,0.470323,0.461334,0.469999,  47.413
   160.2,0.492865,0.470788,0.462144,0.470472,  47.407
   160.4,0.492840,0.470956,0.462246,0.471064,  47.406
   160.6,0.492585,0.470847,0.461619,0.472369,  47.413
   160.8,0.492124,0.470453,0.461558,0.474036,  47.411
   161.0,0.492001,0.470396,0.461380,0.476068,  47.419
   161.2,0.491919,0.470367,0.461126,0.476708,  47.421
   161.4,0.491894,0.470360,0.461121,0.476828,  47.412
   161.6,0.491927,0.470400,0.461202,0.476428,  47.405
   161.8,0.492009,0.470473,0.461345,0.476308,  47.406
   162.0,0.492139,0.470589,0.461473,0.476148,  47.397
   162.2,0.492278,0.470780,0.461659,0.475829,  47.394
   162.4,0.492476,0.471027,0.461885,0.475709,  47.389
   162.6,0.492682,0.471333,0.462232,0.475669,  47.385
   162.8,0.492929,0.471615,0.462682,0.475669,  47.383
   163.0,0.493258,0.471920,0.463203,0.475709,  47.383
   163.2,0.493630,0.472230,0.464547,0.475789,  47.382
   163.4,0.494051,0.473358,0.466354,0.475909,  47.380
   163.6,0.495391,0.474905,0.468569,0.476108,  47.378
   163.8,0.497203,0.476883,0.470251,0.476348,  47.379
   164.0,0.499511,0.477711,0.471871,0.476548,  47.378
   164.2,0.500282,0.478171,0.473429,0.477028,  47.379
   164.4,0.500510,0.478264,0.473837,0.477629,  47.379
   164.6,0.500208,0.478299,0.473585,0.478271,  47.385
   164.8,0.500133,0.478117,0.472706,0.479437,  47.390
   165.0,0.499907,0.477718,0.472470,0.480889,  47.391
   165.2,0.499530,0.477647,0.472240,0.482589,  47.402
   165.4,0.499438,0.477618,0.471989,0.483198,  47.402
   165.6,0.499405,0.477655,0.471926,0.483401,  47.396
   165.8,0.499438,0.477733,0.471942,0.483198,  47.397
   166.0,0.499497,0.477872,0.472067,0.482548,  47.397
   166.2,0.499580,0.478054,0.472249,0.482386,  47.392
   166.4,0.499706,0.478254,0.472365,0.482224,  47.395
   166.6,0.499898,0.478487,0.472487,0.482022,  47.394
   166.8,0.500133,0.478754,0.472629,0.481981,  47.394
   167.0,0.500409,0.478992,0.472901,0.481981,  47.394
   167.2,0.500728,0.479220,0.473189,0.481981,  47.392
   167.4,0.501089,0.479436,0.473555,0.482022,  47.398
   167.6,0.501492,0.480256,0.474866,0.482103,  47.398
   167.8,0.502965,0.481388,0.476668,0.482184,  47.404
   168.0,0.505001,0.482814,0.478970,0.482346,  47.404
   168.2,0.507607,0.484555,0.480752,0.482548,  47.403
   168.4,0.508469,0.485319,0.482530,0.482832,  47.403
   168.6,0.508719,0.485859,0.484279,0.483401,  47.409
   168.8,0.508367,0.486189,0.484832,0.484011,  47.412
   169.0,0.508264,0.486255,0.484755,0.484784,  47.412
   169.2,0.507985,0.486074,0.484086,0.486050,  47.414
   169.4,0.507531,0.485658,0.483844,0.487606,  47.420
   169.6,0.507369,0.485558,0.483496,0.489456,  47.427
   169.8,0.507269,0.485482,0.483052,0.490033,  47.425
   170.0,0.507233,0.485451,0.482887,0.490075,  47.424
   170.2,0.507258,0.485493,0.482785,0.489621,  47.422
   170.4,0.507337,0.485581,0.482785,0.489539,  47.423
   170.6,0.507497,0.485728,0.482828,0.489374,  47.418
   170.8,0.507718,0.485942,0.482903,0.489044,  47.417
   171.0,0.507993,0.486221,0.483049,0.488962,  47.422
   171.2,0.508343,0.486552,0.483290,0.488921,  47.424
   171.4,0.508676,0.486877,0.483591,0.488921,  47.424
   171.6,0.509046,0.487222,0.483983,0.488962,  47.419
   171.8,0.509437,0.487590,0.485408,0.489044,  47.418
   172.0,0.509857,0.488741,0.487374,0.489168,  47.421
   172.2,0.511169,0.490286,0.489914,0.489333,  47.424
   172.4,0.512839,0.492239,0.491189,0.489580,  47.424
   172.6,0.514879,0.492976,0.492052,0.489945,  47.421
   172.8,0.515504,0.493297,0.492594,0.490529,  47.426
   173.0,0.515599,0.493216,0.492523,0.491314,  47.428
   173.2,0.515166,0.493222,0.491931,0.492302,  47.428
   173.4,0.515070,0.493068,0.490872,0.493346,  47.435
   173.6,0.514879,0.492761,0.490442,0.494512,  47.439
   173.8,0.514594,0.492693,0.490099,0.495841,  47.441
   174.0,0.514507,0.492659,0.489805,0.496343,  47.444
   174.2,0.514455,0.492672,0.489599,0.496434,  47.442
   174.4,0.514438,0.492733,0.489414,0.496182,  47.441
   174.6,0.514455,0.492829,0.489295,0.495632,  47.432
   174.8,0.514498,0.492959,0.489197,0.495513,  47.440
   175.0,0.514568,0.493161,0.489192,0.495346,  47.434
   175.2,0.514767,0.493428,0.489246,0.495138,  47.434
   175.4,0.515036,0.493734,0.489381,0.495096,  47.433
   175.6,0.515382,0.494057,0.489582,0.495096,  47.433
   175.8,0.515886,0.494416,0.489832,0.495179,  47.433
   176.0,0.516486,0.494811,0.490158,0.495263,  47.432
   176.2,0.517208,0.495738,0.491768,0.495305,  47.431
   176.4,0.518543,0.496957,0.494042,0.495346,  47.437
   176.6,0.520250,0.498461,0.497009,0.495555,  47.433
   176.8,0.522326,0.500261,0.498406,0.495806,  47.433
   177.0,0.523023,0.500868,0.499317,0.496141,  47.440
   177.2,0.523208,0.501163,0.499791,0.496894,  47.436
   177.4,0.522890,0.501151,0.499924,0.497859,  47.437
   177.6,0.522890,0.501183,0.499635,0.498995,  47.442
   177.8,0.522785,0.501085,0.498900,0.500049,  47.445
   178.0,0.522573,0.500853,0.498656,0.501191,  47.448
   178.2,0.522564,0.500855,0.498428,0.502335,  47.449
   178.4,0.522617,0.500896,0.498201,0.502760,  47.449
   178.6,0.522720,0.500982,0.498057,0.502802,  47.445
   178.8,0.522861,0.501130,0.497918,0.502547,  47.442
   179.0,0.523041,0.501331,0.497858,0.502590,  47.439
   179.2,0.523285,0.501580,0.497946,0.502590,  47.438
   179.4,0.523515,0.501881,0.498113,0.502505,  47.433
   179.6,0.523771,0.502234,0.498362,0.502590,  47.435
   179.8,0.524055,0.502640,0.498645,0.502717,  47.433
   180.0,0.524356,0.503105,0.498962,0.502802,  47.433
   180.2,0.524985,0.503618,0.499301,0.502972,  47.436
   180.4,0.525772,0.504182,0.500794,0.503227,  47.433
   180.6,0.526688,0.505351,0.502904,0.503440,  47.435
   180.8,0.527928,0.506846,0.505593,0.503738,  47.436
   181.0,0.529395,0.508664,0.506678,0.504079,  47.433
   181.2,0.531091,0.509289,0.507283,0.504420,  47.431
   181.4,0.531523,0.509467,0.507351,0.505316,  47.433
   181.6,0.531433,0.509195,0.507074,0.506471,  47.432
   181.8,0.530804,0.509134,0.506367,0.507802,  47.433
   182.0,0.530633,0.508954,0.505215,0.508748,  47.441
   182.2,0.530426,0.508665,0.504680,0.509654,  47.440
   182.4,0.530184,0.508600,0.504257,0.510431,  47.445
   182.6,0.530112,0.508580,0.503909,0.510691,  47.447
   182.8,0.530097,0.508626,0.503650,0.510691,  47.446
   183.0,0.530160,0.508674,0.503347,0.510388,  47.444
   183.2,0.530169,0.508741,0.503016,0.509783,  47.441
   183.4,0.530160,0.508833,0.502730,0.509654,  47.442
   183.6,0.530157,0.509025,0.502584,0.509481,  47.438
   183.8,0.530346,0.509283,0.502478,0.509308,  47.442
   184.0,0.530624,0.509598,0.502438,0.509265,  47.440
   184.2,0.530984,0.509964,0.502517,0.509352,  47.439
   184.4,0.531704,0.510381,0.502646,0.509438,  47.438
   184.6,0.532626,0.510857,0.502853,0.509481,  47.436
   184.8,0.533774,0.511380,0.504663,0.509567,  47.438
   185.0,0.534943,0.512641,0.507272,0.509654,  47.435
   185.2,0.536218,0.514215,0.510771,0.509826,  47.438
   185.4,0.537610,0.516121,0.511760,0.510085,  47.428
   185.6,0.538076,0.516740,0.511891,0.510388,  47.434
   185.8,0.538125,0.516876,0.511170,0.511384,  47.437
   186.0,0.537766,0.516528,0.510781,0.512686,  47.431
   186.2,0.537683,0.516479,0.510136,0.514297,  47.442
   186.4,0.537540,0.516326,0.509208,0.515257,  47.444
   186.6,0.537336,0.516073,0.508657,0.515958,  47.447
   186.8,0.537309,0.516037,0.508185,0.516396,  47.448
   187.0,0.537336,0.516061,0.507754,0.516615,  47.445
   187.2,0.537425,0.516141,0.507493,0.516571,  47.442
   187.4,0.537562,0.516290,0.507329,0.516220,  47.438
   187.6,0.537744,0.516493,0.507227,0.516177,  47.439
   187.8,0.537964,0.516765,0.507159,0.516089,  47.438
   188.0,0.538174,0.517054,0.507136,0.516045,  47.440
   188.2,0.538412,0.517379,0.507125,0.516089,  47.436
   188.4,0.538668,0.517743,0.507261,0.516177,  47.437
   188.6,0.538933,0.518318,0.507442,0.516264,  47.440
   188.8,0.539758,0.519024,0.507692,0.516440,  47.433
   189.0,0.540806,0.519851,0.509140,0.516659,  47.439
   189.2,0.542086,0.521042,0.511222,0.516878,  47.439
   189.4,0.543269,0.522462,0.513934,0.517186,  47.443
   189.6,0.544513,0.524139,0.514815,0.517493,  47.443
   189.8,0.545823,0.524664,0.515115,0.517801,  47.444
   190.0,0.546140,0.524737,0.514814,0.518814,  47.448
   190.2,0.545984,0.524353,0.514653,0.520094,  47.443
   190.4,0.545367,0.524290,0.514279,0.521777,  47.449
   190.6,0.545219,0.524167,0.513692,0.522621,  47.456
   190.8,0.545045,0.523981,0.512848,0.523289,  47.457
   191.0,0.544894,0.523992,0.512332,0.523690,  47.464
   191.2,0.544903,0.524065,0.511834,0.523868,  47.463
   191.4,0.544986,0.524199,0.511284,0.523868,  47.461
   191.6,0.545151,0.524330,0.510982,0.523690,  47.465
   191.8,0.545250,0.524486,0.510816,0.523333,  47.459
   192.0,0.545361,0.524665,0.510713,0.523244,  47.463
   192.2,0.545473,0.524944,0.510611,0.523155,  47.464
   192.4,0.545715,0.525271,0.510582,0.523066,  47.463
   192.6,0.546022,0.525655,0.510594,0.523111,  47.465
   192.8,0.546397,0.526143,0.510685,0.523244,  47.465
   193.0,0.547314,0.526718,0.510868,0.523422,  47.469
   193.2,0.548539,0.527370,0.511101,0.523645,  47.469
   193.4,0.550075,0.528102,0.513072,0.523824,  47.464
   193.6,0.551270,0.529381,0.515975,0.524002,  47.465
   193.8,0.552440,0.530925,0.519778,0.524270,  47.469
   194.0,0.553584,0.532734,0.520753,0.524538,  47.472
   194.2,0.553954,0.533302,0.520747,0.524806,  47.471
   194.4,0.553916,0.533386,0.519784,0.525969,  47.470
   194.6,0.553471,0.532978,0.519225,0.527541,  47.475
   194.8,0.553392,0.532906,0.518369,0.529569,  47.478
   195.0,0.553269,0.532762,0.517220,0.530519,  47.485
   195.2,0.553108,0.532555,0.516496,0.531108,  47.504
   195.4,0.553086,0.532540,0.515802,0.531381,  47.501
   195.6,0.553104,0.532577,0.515207,0.531517,  47.500
   195.8,0.553164,0.532665,0.514740,0.531335,  47.502
   196.0,0.553278,0.532811,0.514389,0.530972,  47.498
   196.2,0.553448,0.533002,0.514107,0.530927,  47.498
   196.4,0.553676,0.533234,0.513912,0.530836,  47.496
   196.6,0.553884,0.533518,0.513814,0.530791,  47.499
   196.8,0.554131,0.533847,0.513780,0.530836,  47.500
   197.0,0.554368,0.534223,0.514073,0.530927,  47.505
   197.2,0.554643,0.534931,0.514540,0.531018,  47.503
   197.4,0.555632,0.535826,0.515174,0.531199,  47.509
   197.6,0.556919,0.536915,0.516711,0.531471,  47.507
   197.8,0.558497,0.538079,0.518807,0.531744,  47.508
   198.0,0.559609,0.539382,0.521452,0.532062,  47.511
   198.2,0.560648,0.540815,0.522319,0.532335,  47.510
   198.4,0.561593,0.541229,0.522565,0.532608,  47.510
   198.6,0.561795,0.541202,0.522212,0.533610,  47.509
   198.8,0.561573,0.540732,0.521517,0.534934,  47.512
   199.0,0.560947,0.540638,0.520307,0.536585,  47.513
   199.2,0.560773,0.540501,0.518659,0.537458,  47.515
   199.4,0.560610,0.540347,0.517996,0.538057,  47.520
   199.6,0.560456,0.540380,0.517597,0.538379,  47.517
   199.8,0.560465,0.540475,0.517431,0.538564,  47.521
   200.0,0.560542,0.540652,0.517527,0.538564,  47.515
   200.2,0.560696,0.540779,0.517285,0.538333,  47.517
   200.4,0.560812,0.540916,0.517054,0.537872,  47.515
   200.6,0.560927,0.541062,0.516846,0.537780,  47.517
   200.8,0.561053,0.541339,0.516708,0.537688,  47.515
   201.0,0.561284,0.541678,0.516644,0.537596,  47.511
   201.2,0.561554,0.542083,0.516593,0.537642,  47.511
   201.4,0.561873,0.542847,0.516877,0.537780,  47.514
   201.6,0.562939,0.543822,0.517352,0.537918,  47.512
   201.8,0.564403,0.545007,0.517991,0.538103,  47.511
   202.0,0.566262,0.545930,0.519981,0.538333,  47.511
   202.2,0.567297,0.546833,0.522727,0.538564,  47.513
   202.4,0.568110,0.547698,0.526252,0.538795,  47.508
   202.6,0.568714,0.548540,0.527165,0.539072,  47.510
   202.8,0.568926,0.548840,0.527135,0.539395,  47.504
   203.0,0.568808,0.548899,0.526135,0.540691,  47.509
   203.2,0.568380,0.548725,0.525556,0.542503,  47.508
   203.4,0.568273,0.548691,0.524729,0.544790,  47.509
   203.6,0.568165,0.548602,0.523598,0.545680,  47.511
   203.8,0.568057,0.548449,0.522840,0.546008,  47.510
   204.0,0.568028,0.548458,0.522160,0.545821,  47.507
   204.2,0.568028,0.548515,0.521498,0.545821,  47.509
   204.4,0.568057,0.548621,0.520977,0.545633,  47.508
   204.6,0.568194,0.548760,0.520580,0.545258,  47.503
   204.8,0.568371,0.548950,0.520229,0.545118,  47.506
   205.0,0.568606,0.549185,0.519961,0.545024,  47.506
   205.2,0.568812,0.549485,0.519798,0.544930,  47.504
   205.4,0.569047,0.549839,0.519681,0.544977,  47.503
   205.6,0.569273,0.550250,0.520049,0.545024,  47.502
   205.8,0.569535,0.551099,0.520680,0.545071,  47.497
   206.0,0.570552,0.552217,0.521574,0.545258,  47.500
   206.2,0.571884,0.553586,0.522912,0.545446,  47.500
   206.4,0.573537,0.554637,0.524554,0.545727,  47.496
   206.6,0.574530,0.555667,0.526540,0.546055,  47.499
   206.8,0.575326,0.556668,0.527085,0.546431,  47.500
   207.0,0.575944,0.556955,0.527032,0.546854,  47.497
   207.2,0.576093,0.556860,0.526397,0.547795,  47.497
   207.4,0.575904,0.556385,0.525882,0.548928,  47.498
   207.6,0.575386,0.556317,0.525114,0.550395,  47.502
   207.8,0.575276,0.556256,0.524093,0.551154,  47.500
   208.0,0.575196,0.556211,0.523510,0.551677,  47.499
   208.2,0.575157,0.556287,0.523027,0.551962,  47.504
   208.4,0.575186,0.556425,0.522604,0.552153,  47.498
   208.6,0.575266,0.556621,0.522282,0.552200,  47.496
   208.8,0.575396,0.556729,0.521830,0.552010,  47.494
   209.0,0.575485,0.556831,0.521385,0.551724,  47.500
   209.2,0.575585,0.556923,0.520941,0.551724,  47.496
   209.4,0.575671,0.557185,0.520754,0.551677,  47.496
   209.6,0.575894,0.557541,0.520649,0.551582,  47.498
   209.8,0.576183,0.557987,0.520649,0.551677,  47.498
   210.0,0.576539,0.558978,0.521210,0.551772,  47.497
   210.2,0.577813,0.560286,0.522071,0.551915,  47.496
   210.4,0.579599,0.561912,0.523251,0.552153,  47.493
   210.6,0.581888,0.562740,0.524824,0.552343,  47.495
   210.8,0.582688,0.563342,0.526728,0.552534,  47.494
   211.0,0.583002,0.563685,0.528980,0.552915,  47.498
   211.2,0.582809,0.563792,0.529523,0.553344,  47.495
   211.4,0.582830,0.563944,0.529332,0.553822,  47.494
   211.6,0.582708,0.563961,0.528427,0.555018,  47.496
   211.8,0.582435,0.563854,0.527880,0.556602,  47.495
   212.0,0.582384,0.563906,0.527167,0.558578,  47.505
   212.2,0.582374,0.563970,0.526272,0.559158,  47.502
   212.4,0.582404,0.564048,0.525699,0.559304,  47.496
   212.6,0.582475,0.564176,0.525202,0.558965,  47.491
   212.8,0.582576,0.564326,0.524807,0.558917,  47.493
   213.0,0.582728,0.564508,0.524465,0.558868,  47.491
   213.2,0.582941,0.564754,0.524229,0.558723,  47.487
   213.4,0.583195,0.565029,0.524017,0.558723,  47.487
   213.6,0.583489,0.565353,0.523894,0.558772,  47.492
   213.8,0.583743,0.565705,0.523841,0.558723,  47.484
   214.0,0.583986,0.566083,0.523847,0.558868,  47.488
   214.2,0.584240,0.566505,0.524536,0.559013,  47.488
   214.4,0.584484,0.567473,0.525598,0.559207,  47.481
   214.6,0.585482,0.568739,0.527007,0.559449,  47.485
   214.8,0.586769,0.570292,0.528427,0.559691,  47.486
   215.0,0.588367,0.571283,0.530042,0.559933,  47.485
   215.2,0.589271,0.572133,0.531826,0.560369,  47.486
   215.4,0.589960,0.572836,0.532228,0.560855,  47.484
   215.6,0.590455,0.573049,0.532042,0.561389,  47.482
   215.8,0.590631,0.572947,0.531238,0.562265,  47.482
   216.0,0.590527,0.572534,0.530699,0.563339,  47.487
   216.2,0.590146,0.572537,0.529999,0.564610,  47.487
   216.4,0.590115,0.572588,0.529091,0.565297,  47.480
   216.6,0.590136,0.572697,0.528620,0.565689,  47.486
   216.8,0.590167,0.572837,0.528228,0.565921,  47.488
   217.0,0.590249,0.573011,0.528009,0.566118,  47.488
   217.2,0.590373,0.573229,0.527849,0.566167,  47.487
   217.4,0.590527,0.573374,0.527416,0.566082,  47.483
   217.6,0.590631,0.573494,0.526947,0.565921,  47.481
   217.8,0.590723,0.573605,0.526455,0.565935,  47.482
   218.0,0.590806,0.573866,0.526212,0.565970,  47.482
   218.2,0.591085,0.574205,0.526076,0.565970,  47.481
   218.4,0.591446,0.574597,0.526052,0.566082,  47.481
   218.6,0.591901,0.575744,0.526971,0.566230,  47.476
   218.8,0.593145,0.577316,0.528390,0.566413,  47.478
   219.0,0.594846,0.579305,0.530334,0.566623,  47.479
   219.2,0.596982,0.580090,0.531561,0.566771,  47.480
   219.4,0.597615,0.580482,0.532676,0.566954,  47.472
   219.6,0.597736,0.580468,0.533685,0.567411,  47.470
   219.8,0.597317,0.580066,0.533853,0.568053,  47.473
   220.0,0.597290,0.580109,0.533481,0.568794,  47.474
   220.2,0.597202,0.580092,0.532639,0.569784,  47.477
   220.4,0.597045,0.580020,0.532153,0.570926,  47.475
   220.6,0.597039,0.580107,0.531572,0.572270,  47.478
   220.8,0.597059,0.580228,0.530944,0.572719,  47.477
   221.0,0.597112,0.580398,0.530489,0.572869,  47.474
   221.2,0.597231,0.580563,0.530023,0.572619,  47.472
   221.4,0.597405,0.580756,0.529634,0.572669,  47.472
   221.6,0.597611,0.580972,0.529377,0.572619,  47.471
   221.8,0.597856,0.581245,0.529192,0.572569,  47.475
   222.0,0.598145,0.581567,0.529090,0.572669,  47.474
   222.2,0.598460,0.581934,0.529108,0.572719,  47.472
   222.4,0.598776,0.582307,0.529168,0.572819,  47.473
   222.6,0.599095,0.582707,0.529324,0.573018,  47.472
   222.8,0.599438,0.583126,0.530458,0.573218,  47.470
   223.0,0.599775,0.584090,0.532142,0.573418,  47.474
   223.2,0.600708,0.585352,0.534326,0.573718,  47.471
   223.4,0.601871,0.586897,0.535829,0.573968,  47.468
   223.6,0.603281,0.587819,0.537277,0.574269,  47.467
   223.8,0.604093,0.588555,0.538618,0.574870,  47.473
   224.0,0.604722,0.589120,0.538838,0.575573,  47.467
   224.2,0.605154,0.589339,0.538435,0.576428,  47.471
   224.4,0.605330,0.589287,0.537419,0.577284,  47.466
   224.6,0.605293,0.588960,0.536825,0.578244,  47.472
   224.8,0.605011,0.588994,0.536092,0.579205,  47.470
   225.0,0.604984,0.589079,0.535259,0.579712,  47.473
   225.2,0.604979,0.589199,0.534746,0.580067,  47.474
   225.4,0.604979,0.589367,0.534324,0.580118,  47.471
   225.6,0.605069,0.589571,0.534035,0.580220,  47.468
   225.8,0.605225,0.589819,0.533644,0.580270,  47.469
   226.0,0.605428,0.590000,0.533301,0.580220,  47.469
   226.2,0.605571,0.590166,0.532929,0.580067,  47.467
   226.4,0.605737,0.590314,0.532611,0.580118,  47.470
   226.6,0.605908,0.590613,0.532437,0.580118,  47.465
   226.8,0.606265,0.590975,0.532317,0.580169,  47.466
   227.0,0.606742,0.591394,0.532275,0.580270,  47.466
   227.2,0.607306,0.592632,0.533525,0.580423,  47.463
   227.4,0.608534,0.594322,0.535455,0.580575,  47.469
   227.6,0.610139,0.596452,0.538099,0.580778,  47.467
   227.8,0.612118,0.597118,0.539427,0.581033,  47.462
   228.0,0.612719,0.597279,0.540372,0.581287,  47.466
   228.2,0.612817,0.596925,0.540982,0.581898,  47.467
   228.4,0.612404,0.596991,0.541055,0.582715,  47.458
   228.6,0.612398,0.597013,0.540633,0.583686,  47.462
   228.8,0.612355,0.596999,0.539748,0.584660,  47.467
   229.0,0.612274,0.596930,0.539224,0.585687,  47.471
   229.2,0.612300,0.597049,0.538676,0.586665,  47.475
   229.4,0.612365,0.597217,0.538043,0.587077,  47.473
   229.6,0.612480,0.597436,0.537594,0.587232,  47.470
   229.8,0.612637,0.597651,0.537243,0.587026,  47.465
   230.0,0.612821,0.597897,0.536922,0.587077,  47.470
   230.2,0.613045,0.598154,0.536746,0.587129,  47.466
   230.4,0.613299,0.598477,0.536668,0.587026,  47.466
   230.6,0.613599,0.598850,0.536649,0.587077,  47.468
   230.8,0.613910,0.599262,0.536679,0.587181,  47.468
   231.0,0.614415,0.599705,0.536793,0.587284,  47.468
   231.2,0.615043,0.600191,0.536931,0.587490,  47.469
   231.4,0.615764,0.600700,0.538317,0.587697,  47.464
   231.6,0.616453,0.601573,0.540366,0.588007,  47.469
   231.8,0.617170,0.602654,0.543084,0.588369,  47.468
   232.0,0.617916,0.603928,0.544687,0.588628,  47.469
   232.2,0.618708,0.604758,0.546047,0.588938,  47.471
   232.4,0.619319,0.605445,0.547200,0.589664,  47.471
   232.6,0.619859,0.606020,0.547343,0.590599,  47.471
   232.8,0.620351,0.606314,0.546860,0.591693,  47.473
   233.0,0.620566,0.606392,0.545758,0.592580,  47.476
   233.2,0.620610,0.606267,0.545158,0.593365,  47.483
   233.4,0.620495,0.606396,0.544486,0.594098,  47.483
   233.6,0.620522,0.606537,0.543696,0.594517,  47.479
   233.8,0.620533,0.606702,0.543222,0.594727,  47.477
   234.0,0.620528,0.606932,0.542872,0.594780,  47.484
   234.2,0.620665,0.607207,0.542607,0.594832,  47.482
   234.4,0.620875,0.607525,0.542269,0.594832,  47.483
   234.6,0.621169,0.607764,0.541931,0.594780,  47.484
   234.8,0.621351,0.607984,0.541623,0.594832,  47.482
   235.0,0.621539,0.608201,0.541297,0.594938,  47.482
   235.2,0.621712,0.608602,0.541125,0.594990,  47.485
   235.4,0.622227,0.609091,0.540997,0.595095,  47.480
   235.6,0.622915,0.609676,0.540937,0.595253,  47.481
   235.8,0.623767,0.610810,0.542619,0.595410,  47.481
   236.0,0.624786,0.612252,0.545183,0.595568,  47.485
   236.2,0.625988,0.614042,0.548684,0.595831,  47.482
   236.4,0.627373,0.614596,0.549896,0.596042,  47.489
   236.6,0.627850,0.614675,0.550366,0.596253,  47.491
   236.8,0.627935,0.614299,0.550135,0.596991,  47.486
   237.0,0.627654,0.614358,0.549910,0.598048,  47.489
   237.2,0.627704,0.614418,0.549341,0.599266,  47.497
   237.4,0.627733,0.614462,0.548374,0.600010,  47.496
   237.6,0.627733,0.614494,0.547788,0.600701,  47.500
   237.8,0.627794,0.614633,0.547227,0.601180,  47.504
   238.0,0.627879,0.614796,0.546629,0.601411,  47.501
   238.2,0.627969,0.615004,0.546183,0.601518,  47.498
   238.4,0.628153,0.615271,0.545836,0.601411,  47.503
   238.6,0.628407,0.615575,0.545508,0.601429,  47.500
   238.8,0.628711,0.615927,0.545379,0.601429,  47.498
   239.0,0.628987,0.616291,0.545434,0.601465,  47.502
   239.2,0.629286,0.616675,0.545558,0.601571,  47.500
   239.4,0.629602,0.617097,0.545701,0.601678,  47.503
   239.6,0.630076,0.617638,0.545893,0.601785,  47.500
   239.8,0.630624,0.618242,0.546130,0.601998,  47.500
   240.0,0.631264,0.618930,0.547619,0.602265,  47.501
   240.2,0.631989,0.619684,0.549738,0.602586,  47.506
   240.4,0.632721,0.620521,0.552521,0.602960,  47.503
   240.6,0.633512,0.621424,0.554084,0.603282,  47.503
   240.8,0.634333,0.622060,0.555348,0.603603,  47.504
   241.0,0.634840,0.622613,0.556336,0.604515,  47.507
   241.2,0.635235,0.623064,0.556336,0.605590,  47.509
   241.4,0.635487,0.623365,0.555683,0.606992,  47.510
   241.6,0.635641,0.623536,0.554404,0.607857,  47.507
   241.8,0.635704,0.623585,0.553817,0.608453,  47.517
   242.0,0.635658,0.623788,0.553263,0.608941,  47.515
   242.2,0.635744,0.624008,0.552734,0.609267,  47.516
   242.4,0.635876,0.624237,0.552382,0.609321,  47.519
   242.6,0.636013,0.624551,0.552131,0.609213,  47.520
   242.8,0.636202,0.624894,0.551955,0.609267,  47.520
   243.0,0.636426,0.625278,0.551879,0.609267,  47.519
   243.2,0.636667,0.625610,0.551528,0.609231,  47.521
   243.4,0.636924,0.625933,0.551163,0.609213,  47.521
   243.6,0.637200,0.626246,0.550748,0.609375,  47.519
   243.8,0.637498,0.626836,0.550742,0.609484,  47.519
   244.0,0.638263,0.627559,0.550881,0.609647,  47.521
   244.2,0.639242,0.628419,0.551196,0.609756,  47.523
   244.4,0.640473,0.629243,0.553428,0.609864,  47.522
   244.6,0.641417,0.630106,0.556703,0.609973,  47.514
   244.8,0.642322,0.631029,0.561053,0.610245,  47.519
   245.0,0.643213,0.632000,0.562383,0.610517,  47.518
   245.2,0.643602,0.632344,0.562672,0.610790,  47.518
   245.4,0.643731,0.632473,0.561952,0.611807,  47.518
   245.6,0.643597,0.632381,0.561566,0.613174,  47.516
   245.8,0.643672,0.632518,0.560771,0.614821,  47.518
   246.0,0.643707,0.632664,0.559625,0.615627,  47.522
   246.2,0.643714,0.632797,0.558929,0.616068,  47.524
   246.4,0.643766,0.632959,0.558204,0.616143,  47.520
   246.6,0.643812,0.633143,0.557531,0.616308,  47.524
   246.8,0.643877,0.633322,0.557047,0.616418,  47.523
   247.0,0.644034,0.633576,0.556647,0.616308,  47.520
   247.2,0.644256,0.633876,0.556353,0.616308,  47.513
   247.4,0.644530,0.634218,0.556246,0.616363,  47.517
   247.6,0.644816,0.634573,0.556240,0.616308,  47.521
   247.8,0.645150,0.634970,0.556393,0.616363,  47.522
   248.0,0.645519,0.635401,0.556621,0.616474,  47.522
   248.2,0.646128,0.636067,0.556937,0.616529,  47.520
   248.4,0.646873,0.636877,0.557361,0.616750,  47.519
   248.6,0.647772,0.637835,0.558858,0.617026,  47.521
   248.8,0.648797,0.638530,0.560951,0.617302,  47.520
   249.0,0.649464,0.639171,0.563640,0.617690,  47.521
   249.2,0.650073,0.639746,0.565180,0.618022,  47.523
   249.4,0.650605,0.640257,0.566419,0.618354,  47.524
   249.6,0.650990,0.640706,0.567376,0.619298,  47.522
   249.8,0.651281,0.641075,0.567376,0.620522,  47.522
   250.0,0.651435,0.641381,0.566751,0.622029,  47.524
   250.2,0.651560,0.641610,0.565497,0.622868,  47.527
   250.4,0.651625,0.641780,0.564844,0.623485,  47.532
   250.6,0.651601,0.642005,0.564217,0.623821,  47.526
   250.8,0.651666,0.642209,0.563586,0.624102,  47.528
   251.0,0.651744,0.642413,0.563225,0.624158,  47.531
   251.2,0.651827,0.642689,0.562982,0.623934,  47.526
   251.4,0.651940,0.643004,0.562853,0.623990,  47.522
   251.6,0.652082,0.643337,0.562827,0.623934,  47.524
   251.8,0.652225,0.643648,0.562473,0.623990,  47.523
   252.0,0.652433,0.643964,0.562027,0.623934,  47.517
   252.2,0.652659,0.644284,0.561530,0.623990,  47.516
   252.4,0.652939,0.644998,0.561658,0.624102,  47.511
   252.6,0.653850,0.645923,0.562023,0.624215,  47.511
   252.8,0.655105,0.647048,0.562661,0.624271,  47.511
   253.0,0.656694,0.647710,0.564844,0.624383,  47.513
   253.2,0.657445,0.648253,0.567928,0.624327,  47.511
   253.4,0.657969,0.648646,0.571923,0.624496,  47.512
   253.6,0.658216,0.648918,0.572839,0.624721,  47.509
   253.8,0.658463,0.649276,0.572634,0.625002,  47.514
   254.0,0.658590,0.649583,0.571277,0.626129,  47.509
   254.2,0.658578,0.649842,0.570737,0.627599,  47.515
   254.4,0.658656,0.650111,0.570020,0.629586,  47.518
   254.6,0.658699,0.650358,0.569127,0.630326,  47.526
   254.8,0.658723,0.650592,0.568527,0.630497,  47.526
   255.0,0.658765,0.650804,0.567962,0.630269,  47.521
   255.2,0.658813,0.650990,0.567419,0.630383,  47.522
   255.4,0.658837,0.651168,0.567121,0.630383,  47.518
   255.6,0.659024,0.651464,0.566960,0.630269,  47.515
   255.8,0.659290,0.651807,0.566907,0.630212,  47.516
   256.0,0.659634,0.652189,0.566870,0.630212,  47.516
   256.2,0.659889,0.652551,0.566937,0.630155,  47.513
   256.4,0.660112,0.652930,0.567067,0.630212,  47.513
   256.6,0.660336,0.653318,0.567556,0.630269,  47.515
   256.8,0.660549,0.654169,0.568233,0.630383,  47.515
   257.0,0.661622,0.655254,0.569121,0.630611,  47.513
   257.2,0.663016,0.656579,0.570640,0.630896,  47.515
   257.4,0.664750,0.657278,0.572511,0.631182,  47.508
   257.6,0.665552,0.657789,0.574794,0.631524,  47.512
   257.8,0.666048,0.658093,0.576306,0.631867,  47.507
   258.0,0.666220,0.658504,0.577556,0.632211,  47.508
   258.2,0.666447,0.658879,0.578629,0.633242,  47.511
   258.4,0.666564,0.659210,0.578704,0.634506,  47.510
   258.6,0.666540,0.659383,0.578170,0.636005,  47.517
   258.8,0.666497,0.659458,0.577045,0.636929,  47.519
   259.0,0.666398,0.659431,0.576439,0.637624,  47.518
   259.2,0.666202,0.659573,0.575797,0.638030,  47.517
   259.4,0.666196,0.659759,0.575130,0.638262,  47.519
   259.6,0.666245,0.659976,0.574812,0.638262,  47.521
   259.8,0.666349,0.660233,0.574648,0.638088,  47.520
   260.0,0.666441,0.660512,0.574642,0.637624,  47.517
   260.2,0.666552,0.660845,0.574758,0.637450,  47.517
   260.4,0.666693,0.661178,0.574540,0.637277,  47.516
   260.6,0.666884,0.661506,0.574302,0.637103,  47.515
   260.8,0.667105,0.661862,0.574017,0.637103,  47.519
   261.0,0.667357,0.662753,0.574488,0.637161,  47.521
   261.2,0.668522,0.663922,0.575350,0.637277,  47.522
   261.4,0.670154,0.665372,0.576560,0.637335,  47.521
   261.6,0.672260,0.666144,0.579067,0.637335,  47.521
   261.8,0.673238,0.666728,0.582449,0.637370,  47.522
   262.0,0.673850,0.667097,0.586712,0.637566,  47.522
   262.2,0.674131,0.667273,0.587687,0.637856,  47.527
   262.4,0.674425,0.667737,0.587360,0.638240,  47.526
   262.6,0.674550,0.668202,0.585782,0.639541,  47.526
   262.8,0.674506,0.668662,0.585239,0.641349,  47.526
   263.0,0.674663,0.669137,0.584540,0.643611,  47.536
   263.2,0.674844,0.669599,0.583713,0.644458,  47.539
   263.4,0.675026,0.670070,0.582984,0.644812,  47.542
   263.6,0.675020,0.670319,0.582229,0.644729,  47.539
   263.8,0.674938,0.670465,0.581454,0.644870,  47.538
   264.0,0.674750,0.670487,0.581073,0.644870,  47.541
   264.2,0.674844,0.670737,0.580879,0.644788,  47.540
   264.4,0.675038,0.671037,0.580814,0.644753,  47.533
   264.6,0.675327,0.671396,0.580766,0.644576,  47.537
   264.8,0.675515,0.671714,0.580756,0.644376,  47.537
   265.0,0.675684,0.672051,0.580827,0.644340,  47.538
   265.2,0.675879,0.672388,0.581573,0.644340,  47.544
   265.4,0.676042,0.673287,0.582699,0.644376,  47.541
   265.6,0.677117,0.674480,0.584173,0.644458,  47.545
   265.8,0.678573,0.675948,0.585603,0.644753,  47.563
   266.0,0.680371,0.676790,0.587202,0.645083,  47.561
   266.2,0.681342,0.677457,0.588934,0.645401,  47.565
   266.4,0.682086,0.677946,0.590227,0.645814,  47.567
   266.6,0.682590,0.678505,0.591298,0.646263,  47.566
   266.8,0.683068,0.678996,0.592212,0.647175,  47.567
   267.0,0.683413,0.679436,0.592190,0.648421,  47.573
   267.2,0.683636,0.679718,0.591612,0.649884,  47.575
   267.4,0.683630,0.679890,0.590452,0.650863,  47.577
   267.6,0.683464,0.679959,0.589964,0.651820,  47.576
   267.8,0.683113,0.680135,0.589498,0.652575,  47.577
   268.0,0.683043,0.680312,0.589065,0.652899,  47.576
   268.2,0.683017,0.680488,0.588683,0.653019,  47.578
   268.4,0.683036,0.680720,0.588464,0.652875,  47.578
   268.6,0.683043,0.680980,0.588311,0.652815,  47.574
   268.8,0.683055,0.681249,0.588229,0.652599,  47.575
   269.0,0.683100,0.681524,0.588115,0.652359,  47.573
   269.2,0.683234,0.681827,0.587978,0.652035,  47.570
   269.4,0.683413,0.682139,0.587842,0.652000,  47.572
   269.6,0.683643,0.682900,0.588841,0.651976,  47.573
   269.8,0.684955,0.683896,0.590391,0.652095,  47.569
   270.0,0.686862,0.685123,0.592477,0.652060,  47.570
   270.2,0.689341,0.686585,0.594877,0.651940,  47.572
   270.4,0.690320,0.687301,0.597743,0.651856,  47.573
   270.6,0.690833,0.687849,0.601032,0.652120,  47.571
   270.8,0.690885,0.688227,0.601820,0.652599,  47.569
   271.0,0.691022,0.688619,0.601567,0.653295,  47.571
   271.2,0.690969,0.688941,0.600273,0.654367,  47.573
   271.4,0.690729,0.689173,0.599746,0.655815,  47.567
   271.6,0.690593,0.689381,0.599045,0.657632,  47.577
   271.8,0.690424,0.689552,0.598212,0.658447,  47.580
   272.0,0.690203,0.689665,0.597586,0.658812,  47.577
   272.2,0.690067,0.689783,0.596995,0.658848,  47.571
   272.4,0.689950,0.689854,0.596421,0.658909,  47.568
   272.6,0.689853,0.689910,0.596132,0.658787,  47.563
   272.8,0.689892,0.690191,0.595993,0.658422,  47.564
   273.0,0.690015,0.690562,0.596026,0.658179,  47.559
   273.2,0.690210,0.691020,0.596048,0.657936,  47.557
   273.4,0.690469,0.691439,0.596137,0.657632,  47.558
   273.6,0.690788,0.691872,0.596310,0.657607,  47.560
   273.8,0.691184,0.692325,0.597653,0.657546,  47.555
   274.0,0.691639,0.693477,0.599600,0.657607,  47.560
   274.2,0.692806,0.695010,0.602147,0.657824,  47.562
   274.4,0.694355,0.696890,0.603588,0.657885,  47.560
   274.6,0.696298,0.697842,0.604721,0.658032,  47.563
   274.8,0.697412,0.698509,0.605567,0.658640,  47.568
   275.0,0.698290,0.698882,0.606129,0.659370,  47.561
   275.2,0.698931,0.699363,0.606440,0.660285,  47.562
   275.4,0.699296,0.699722,0.606415,0.661324,  47.564
   275.6,0.699402,0.699984,0.606455,0.662489,  47.566
   275.8,0.699236,0.700203,0.606336,0.663718,  47.571
   276.0,0.699097,0.700343,0.606166,0.664580,  47.573
   276.2,0.698832,0.700406,0.605781,0.665259,  47.568
   276.4,0.698442,0.700489,0.605452,0.665877,  47.564
   276.6,0.698290,0.700561,0.605026,0.666186,  47.567
   276.8,0.698204,0.700591,0.604550,0.666310,  47.567
   277.0,0.698170,0.700732,0.604380,0.666186,  47.566
   277.2,0.698071,0.700931,0.604301,0.665753,  47.564
   277.4,0.697998,0.701155,0.604312,0.665506,  47.558
   277.6,0.697893,0.701443,0.604346,0.665136,  47.559
   277.8,0.698111,0.701774,0.604386,0.664765,  47.557
   278.0,0.698474,0.702145,0.604505,0.664704,  47.554
   278.2,0.698990,0.703093,0.606056,0.664580,  47.550
   278.4,0.700536,0.704371,0.608304,0.664642,  47.549
   278.6,0.702686,0.705958,0.611323,0.664580,  47.543
   278.8,0.705432,0.707871,0.613563,0.664334,  47.548
   279.0,0.706421,0.708728,0.615787,0.664087,  47.541
   279.2,0.706805,0.709353,0.617974,0.664642,  47.525
   279.4,0.706616,0.709740,0.618437,0.665444,  47.524
   279.6,0.706597,0.709974,0.617940,0.666620,  47.525
   279.8,0.706360,0.709994,0.616573,0.667923,  47.524
   280.0,0.705916,0.709825,0.616037,0.669479,  47.526
   280.2,0.705601,0.709860,0.615444,0.671229,  47.532
   280.4,0.705211,0.709885,0.614828,0.671855,  47.537
   280.6,0.704795,0.709919,0.614300,0.672106,  47.525
   280.8,0.704574,0.709943,0.613773,0.671855,  47.522
   281.0,0.704413,0.709932,0.613292,0.671730,  47.516
   281.2,0.704339,0.709921,0.613148,0.671479,  47.510
   281.4,0.704413,0.710140,0.613142,0.670978,  47.505
   281.6,0.704587,0.710458,0.613287,0.670666,  47.500
   281.8,0.704889,0.710871,0.613431,0.670291,  47.503
   282.0,0.705171,0.711230,0.613634,0.669854,  47.499
   282.2,0.705520,0.711609,0.613929,0.669729,  47.494
   282.4,0.705923,0.711997,0.615695,0.669604,  47.494
   282.6,0.706374,0.713292,0.618251,0.669542,  47.492
   282.8,0.707716,0.715054,0.621624,0.669604,  47.488
   283.0,0.709455,0.717273,0.623042,0.669666,  47.487
   283.2,0.711576,0.718357,0.623794,0.669791,  47.486
   283.4,0.712784,0.719113,0.623959,0.670541,  47.487
   283.6,0.713742,0.719509,0.624671,0.671542,  47.488
   283.8,0.714414,0.720023,0.625290,0.672860,  47.487
   284.0,0.714682,0.720400,0.625885,0.673957,  47.487
   284.2,0.714627,0.720669,0.625974,0.675093,  47.492
   284.4,0.714235,0.720746,0.625784,0.676168,  47.495
   284.6,0.713886,0.720659,0.625278,0.676993,  47.491
   284.8,0.713380,0.720419,0.624530,0.677691,  47.488
   285.0,0.712743,0.720408,0.624168,0.678228,  47.489
   285.2,0.712491,0.720419,0.623818,0.678645,  47.489
   285.4,0.712327,0.720464,0.623433,0.678582,  47.490
   285.6,0.712292,0.720490,0.623255,0.678136,  47.492
   285.8,0.712041,0.720531,0.623142,0.677536,  47.486
   286.0,0.711727,0.720561,0.623059,0.677190,  47.485
   286.2,0.711365,0.720698,0.622941,0.676810,  47.484
   286.4,0.711645,0.720877,0.622822,0.676267,  47.485
   286.6,0.712232,0.721106,0.622675,0.676014,  47.485
   286.8,0.713140,0.721385,0.624808,0.675887,  47.485
   287.0,0.715039,0.723277,0.628059,0.675761,  47.486
   287.2,0.717615,0.725836,0.632512,0.675444,  47.485
   287.4,0.720868,0.729095,0.634810,0.675065,  47.491
   287.6,0.721851,0.730359,0.636608,0.674659,  47.486
   287.8,0.722018,0.730970,0.637886,0.675381,  47.486
   288.0,0.721355,0.730909,0.637923,0.676647,  47.492
   288.2,0.721014,0.730905,0.637089,0.678525,  47.495
   288.4,0.720444,0.730613,0.635403,0.680085,  47.499
   288.6,0.719624,0.730009,0.634850,0.681878,  47.509
   288.8,0.719035,0.729744,0.634388,0.683842,  47.515
   289.0,0.718459,0.729495,0.634038,0.684258,  47.513
   289.2,0.717864,0.729235,0.633668,0.684065,  47.507
   289.4,0.717554,0.729116,0.633268,0.683198,  47.497
   289.6,0.717394,0.729075,0.632875,0.682713,  47.496
   289.8,0.717353,0.729085,0.632941,0.682199,  47.499
   290.0,0.717325,0.729303,0.633158,0.681464,  47.494
   290.2,0.717374,0.729650,0.633558,0.680916,  47.496
   290.4,0.717505,0.730142,0.633837,0.680404,  47.500
   290.6,0.717698,0.730632,0.634140,0.679928,  47.496
   290.8,0.718370,0.731159,0.634438,0.679701,  47.497
   291.0,0.719277,0.731756,0.636600,0.679574,  47.497
   291.2,0.720402,0.733228,0.639725,0.679673,  47.500
   291.4,0.721789,0.735182,0.643802,0.679637,  47.493
   291.6,0.723410,0.737601,0.645377,0.679701,  47.498
   291.8,0.725263,0.738895,0.646176,0.679737,  47.500
   292.0,0.726496,0.739852,0.646165,0.680660,  47.496
   292.2,0.727548,0.740479,0.646841,0.682199,  47.499
   292.4,0.728389,0.740959,0.647435,0.684229,  47.499
   292.6,0.728510,0.741183,0.647973,0.685292,  47.503
   292.8,0.728148,0.741151,0.648073,0.686134,  47.511
   293.0,0.727342,0.740976,0.647848,0.686882,  47.508
   293.2,0.726799,0.740596,0.647421,0.687532,  47.509
   293.4,0.726171,0.740019,0.646676,0.688212,  47.505
   293.6,0.725430,0.739844,0.646364,0.688668,  47.501
   293.8,0.725087,0.739780,0.646031,0.689095,  47.504
   294.0,0.724904,0.739812,0.645725,0.688799,  47.501
   294.2,0.724854,0.739701,0.645538,0.688248,  47.501
   294.4,0.724525,0.739557,0.645408,0.687337,  47.495
   294.6,0.724104,0.739376,0.645340,0.686847,  47.495
   294.8,0.723619,0.739680,0.645340,0.686393,  47.495
   295.0,0.724174,0.740206,0.645371,0.686039,  47.489
   295.2,0.725213,0.740953,0.645496,0.685680,  47.492
   295.4,0.726741,0.742417,0.648315,0.685421,  47.491
   295.6,0.728715,0.744345,0.652512,0.685198,  47.492
   295.8,0.731160,0.746761,0.658127,0.684839,  47.492
   296.0,0.734114,0.749659,0.660184,0.684452,  47.496
   296.2,0.734668,0.750400,0.661115,0.684036,  47.494
   296.4,0.734257,0.750551,0.660915,0.685033,  47.496
   296.6,0.732887,0.750112,0.660619,0.686717,  47.494
   296.8,0.732294,0.749824,0.659711,0.689095,  47.496
   297.0,0.731615,0.749330,0.658206,0.690628,  47.505
   297.2,0.730859,0.748623,0.657570,0.692071,  47.513
   297.4,0.730261,0.748168,0.657069,0.693422,  47.515
   297.6,0.729693,0.747705,0.656697,0.693453,  47.512
   297.8,0.729173,0.747248,0.656345,0.692794,  47.506
   298.0,0.728890,0.747136,0.656026,0.691450,  47.499
   298.2,0.728713,0.747179,0.655728,0.690759,  47.497
   298.4,0.728691,0.747380,0.655945,0.690104,  47.494
   298.6,0.728677,0.747560,0.656445,0.689486,  47.494
   298.8,0.728734,0.747794,0.657175,0.688929,  47.491
   299.0,0.728855,0.748094,0.657676,0.688473,  47.491
   299.2,0.729068,0.748762,0.658221,0.688117,  47.485
   299.4,0.730099,0.749633,0.658773,0.687952,  47.485
   299.6,0.731495,0.750734,0.661377,0.687987,  47.486
   299.8,0.733268,0.752440,0.665077,0.688023,  47.478
   300.0,0.734639,0.754560,0.669896,0.688052,  47.474
   300.2,0.735963,0.757105,0.671646,0.688218,  47.477
   300.4,0.737262,0.758488,0.672381,0.688348,  47.477
   300.6,0.738385,0.759471,0.672099,0.689682,  47.471
   300.8,0.739408,0.760077,0.672862,0.691712,  47.470
   301.0,0.740301,0.760441,0.673587,0.694412,  47.469
   301.2,0.740295,0.760484,0.674324,0.695368,  47.472
   301.4,0.739771,0.760198,0.674258,0.695832,  47.478
   301.6,0.738746,0.759825,0.673747,0.695668,  47.471
   301.8,0.738203,0.759250,0.672884,0.696163,  47.469
   302.0,0.737638,0.758461,0.672552,0.696827,  47.457
   302.2,0.737066,0.758194,0.672320,0.697460,  47.461
   302.4,0.736771,0.758088,0.672127,0.697460,  47.463
   302.6,0.736619,0.758125,0.672033,0.697092,  47.454
   302.8,0.736567,0.758025,0.672027,0.696495,  47.449
   303.0,0.736315,0.757910,0.672088,0.695602,  47.448
   303.2,0.736027,0.757799,0.672242,0.695103,  47.447
   303.4,0.735695,0.758365,0.672447,0.694742,  47.446
   303.6,0.736612,0.759250,0.672690,0.694280,  47.444
   303.8,0.738116,0.760470,0.673012,0.693980,  47.443
   304.0,0.740258,0.763288,0.677751,0.693782,  47.442
   304.2,0.742294,0.767080,0.684794,0.693686,  47.441
   304.4,0.744582,0.771889,0.694276,0.693387,  47.440
   304.6,0.747155,0.773301,0.696572,0.693189,  47.420
   304.8,0.747415,0.773504,0.696315,0.692961,  47.423
   305.0,0.746631,0.772470,0.693581,0.694376,  47.421
   305.2,0.744839,0.770238,0.692543,0.696694,  47.425
   305.4,0.744156,0.769587,0.691064,0.699826,  47.428
   305.6,0.743510,0.768820,0.689164,0.701232,  47.443
   305.8,0.742915,0.767979,0.688172,0.702173,  47.462
   306.0,0.742309,0.767339,0.687376,0.702576,  47.468
   306.2,0.741730,0.766760,0.686793,0.702240,  47.460
   306.4,0.741167,0.766228,0.686240,0.701299,  47.460
   306.6,0.740899,0.765914,0.685784,0.699759,  47.453
   306.8,0.740803,0.765745,0.685403,0.699157,  47.453
   307.0,0.740832,0.765688,0.685579,0.698624,  47.450
   307.2,0.740899,0.765783,0.686074,0.698224,  47.452
   307.4,0.741065,0.766014,0.686850,0.697757,  47.459
   307.6,0.741299,0.766382,0.687633,0.697225,  47.458
   307.8,0.742263,0.767390,0.688556,0.696694,  47.457
   308.0,0.743640,0.768767,0.689676,0.696561,  47.461
   308.2,0.745419,0.770560,0.693162,0.696694,  47.459
   308.4,0.747620,0.772319,0.697958,0.696827,  47.460
   308.6,0.748592,0.774228,0.704089,0.696893,  47.462
   308.8,0.749296,0.776334,0.706228,0.697026,  47.463
   309.0,0.749757,0.777710,0.706939,0.697159,  47.465
   309.2,0.750600,0.778808,0.706175,0.698757,  47.468
   309.4,0.751532,0.779628,0.706820,0.701098,  47.472
   309.6,0.752519,0.779713,0.707400,0.704195,  47.476
   309.8,0.752288,0.779300,0.707909,0.705006,  47.490
   310.0,0.751457,0.778387,0.707400,0.704871,  47.490
   310.2,0.750070,0.777732,0.706324,0.703857,  47.490
   310.4,0.749409,0.776938,0.704750,0.704059,  47.492
   310.6,0.748821,0.776020,0.704102,0.704465,  47.491
   310.8,0.748287,0.775581,0.703638,0.705006,  47.488
   311.0,0.747880,0.775299,0.703359,0.704938,  47.495
   311.2,0.747599,0.775199,0.702968,0.704600,  47.499
   311.4,0.747377,0.774811,0.702642,0.703992,  47.501
   311.6,0.746971,0.774327,0.702328,0.703115,  47.501
   311.8,0.746513,0.773790,0.702079,0.702711,  47.502
   312.0,0.746002,0.774774,0.702571,0.702240,  47.504
   312.2,0.747415,0.776501,0.703312,0.701769,  47.504
   312.4,0.749804,0.778945,0.704406,0.701501,  47.508
   312.6,0.753142,0.747859,0.671525,0.701299,  47.512
   312.8,0.728346,0.704332,0.626112,0.701031,  47.515
   313.0,0.692591,0.651920,0.571923,0.700830,  47.520
   313.2,0.648450,0.627673,0.545197,0.700562,  47.525
   313.4,0.626588,0.610022,0.524695,0.700227,  47.527
   313.6,0.609696,0.598226,0.509585,0.692991,  47.527
   313.8,0.597240,0.591842,0.495942,0.682520,  47.535
   314.0,0.586144,0.580604,0.485329,0.668981,  47.543
   314.2,0.577621,0.570663,0.477502,0.648777,  47.553
   314.4,0.571559,0.561939,0.470339,0.624721,  47.561
   314.6,0.565796,0.555244,0.464774,0.597360,  47.558
   314.8,0.561328,0.550066,0.460790,0.581847,  47.561
   315.0,0.558120,0.546325,0.456899,0.569784,  47.563
   315.2,0.555156,0.542878,0.453758,0.560855,  47.565
   315.4,0.552925,0.540279,0.451391,0.552820,  47.565
   315.6,0.551414,0.538501,0.449588,0.546666,  47.568
   315.8,0.549996,0.536819,0.448434,0.542317,  47.567
   316.0,0.548992,0.535587,0.447894,0.538149,  47.573
   316.2,0.548374,0.534802,0.447426,0.534889,  47.578
   316.4,0.548271,0.534533,0.447338,0.532608,  47.580
   316.6,0.548627,0.534756,0.447598,0.530610,  47.584
   316.8,0.549436,0.535445,0.448284,0.529073,  47.608
   317.0,0.550711,0.535620,0.449374,0.528126,  47.608
   317.2,0.550827,0.535788,0.450855,0.527226,  47.611
   317.4,0.550761,0.535933,0.451296,0.526507,  47.615
   317.6,0.550504,0.536201,0.451450,0.526104,  47.622
   317.8,0.550705,0.536521,0.451219,0.526463,  47.620
   318.0,0.551053,0.536883,0.451322,0.527316,  47.625
   318.2,0.551521,0.536906,0.451450,0.528712,  47.631
   318.4,0.551496,0.536770,0.451539,0.528892,  47.639
   318.6,0.551298,0.536481,0.451365,0.528757,  47.642
   318.8,0.550918,0.536397,0.451058,0.528306,  47.643
   319.0,0.550836,0.536337,0.450588,0.528441,  47.643
   319.2,0.550817,0.536301,0.450469,0.528712,  47.648
   319.4,0.550861,0.536357,0.450438,0.529118,  47.650
   319.6,0.550912,0.536483,0.450486,0.529208,  47.657
   319.8,0.551003,0.536663,0.450461,0.529208,  47.661
   320.0,0.551131,0.536732,0.450429,0.529118,  47.659
   320.2,0.551172,0.536786,0.450404,0.528847,  47.661
   320.4,0.551182,0.536801,0.450364,0.528892,  47.661
   320.6,0.551172,0.537576,0.450822,0.528937,  47.664
   320.8,0.552269,0.538724,0.451479,0.528982,  47.664
   321.0,0.553916,0.540236,0.452363,0.529118,  47.668
   321.2,0.556117,0.541309,0.454224,0.529208,  47.673
   321.4,0.557103,0.542350,0.456672,0.529343,  47.677
   321.6,0.557753,0.543352,0.459735,0.529524,  47.676
   321.8,0.558075,0.543717,0.460432,0.529660,  47.681
   322.0,0.558088,0.543744,0.460188,0.529876,  47.686
   322.2,0.557807,0.543433,0.459015,0.531245,  47.690
   322.4,0.557202,0.542774,0.458676,0.533199,  47.688
   322.6,0.557071,0.542713,0.458231,0.535794,  47.702
   322.8,0.557030,0.542675,0.457719,0.536539,  47.709
   323.0,0.557058,0.542673,0.457390,0.536676,  47.727
   323.2,0.557043,0.542668,0.457087,0.536161,  47.732
   323.4,0.557058,0.542686,0.456845,0.535988,  47.731
   323.6,0.557058,0.542711,0.456559,0.535713,  47.735
   323.8,0.557214,0.542848,0.456226,0.535336,  47.734
   324.0,0.557453,0.543058,0.455907,0.535163,  47.739
   324.2,0.557769,0.543326,0.455973,0.535118,  47.741
   324.4,0.558011,0.543579,0.456241,0.535118,  47.745
   324.6,0.558260,0.543868,0.456680,0.535163,  47.750
   324.8,0.558525,0.544178,0.457413,0.535255,  47.751
   325.0,0.559603,0.545129,0.458402,0.535346,  47.752
   325.2,0.561104,0.546423,0.459637,0.535575,  47.754
   325.4,0.563022,0.548046,0.460819,0.535896,  47.759
   325.6,0.563769,0.548768,0.462069,0.536171,  47.762
   325.8,0.564147,0.549214,0.463389,0.536493,  47.762
   326.0,0.564111,0.549372,0.464034,0.536860,  47.767
   326.2,0.563720,0.549901,0.464398,0.537228,  47.773
   326.4,0.564160,0.550472,0.464448,0.538195,  47.771
   326.6,0.564704,0.551089,0.464704,0.539349,  47.778
   326.8,0.565362,0.551289,0.464918,0.540877,  47.783
   327.0,0.565511,0.551303,0.465092,0.541433,  47.789
   327.2,0.565479,0.551126,0.465025,0.541619,  47.793
   327.4,0.565251,0.551153,0.464758,0.541433,  47.791
   327.6,0.565264,0.551183,0.464321,0.541805,  47.786
   327.8,0.565300,0.551218,0.464212,0.542224,  47.793
   328.0,0.565349,0.551344,0.464151,0.542689,  47.800
   328.2,0.565459,0.551512,0.464151,0.542840,  47.802
   328.4,0.565592,0.551715,0.464125,0.542840,  47.806
   328.6,0.565767,0.551842,0.464099,0.542654,  47.807
   328.8,0.565858,0.551934,0.464058,0.542700,  47.813
   329.0,0.565923,0.552010,0.469384,0.542793,  47.810
   329.2,0.565962,0.555905,0.477487,0.542887,  47.814
   329.4,0.570010,0.561751,0.488568,0.542969,  47.814
   329.6,0.576118,0.569647,0.502825,0.543155,  47.818
   329.8,0.584377,0.573973,0.506672,0.543295,  47.815
   330.0,0.588468,0.577475,0.507970,0.543435,  47.823
   330.2,0.591492,0.580147,0.506752,0.547890,  47.839
   330.4,0.593398,0.582210,0.506497,0.554539,  47.838
   330.6,0.595171,0.583533,0.505446,0.563485,  47.841
   330.8,0.596298,0.584119,0.503616,0.568003,  47.841
   331.0,0.596789,0.585065,0.502673,0.571373,  47.847
   331.2,0.597673,0.585823,0.501794,0.573554,  47.851
   331.4,0.598439,0.586404,0.500967,0.575272,  47.851
   331.6,0.599076,0.586780,0.500319,0.576126,  47.856
   331.8,0.599649,0.587350,0.499729,0.576212,  47.855
   332.0,0.600134,0.587866,0.499300,0.576680,  47.857
   332.2,0.600530,0.588333,0.499005,0.576931,  47.857
   332.4,0.601020,0.588862,0.498827,0.576967,  47.856
   332.6,0.601517,0.589396,0.498783,0.577183,  47.859
   332.8,0.602015,0.589932,0.498777,0.577436,  47.857
   333.0,0.602453,0.590404,0.498888,0.577673,  47.858
   333.2,0.602873,0.590839,0.499066,0.577890,  47.860
   333.4,0.603256,0.591249,0.499934,0.578143,  47.857
   333.6,0.604323,0.592384,0.501190,0.578431,  47.863
   333.8,0.605720,0.593854,0.502813,0.578749,  47.868
   334.0,0.607454,0.595676,0.503841,0.579104,  47.861
   334.2,0.608162,0.596375,0.504758,0.579443,  47.864
   334.4,0.608521,0.596685,0.505582,0.579915,  47.860
   334.6,0.608532,0.596601,0.506163,0.580423,  47.863
   334.8,0.608194,0.597110,0.506548,0.580966,  47.861
   335.0,0.608672,0.597731,0.506723,0.581796,  47.864
   335.2,0.609259,0.598461,0.506865,0.582817,  47.864
   335.4,0.609983,0.598702,0.506899,0.583926,  47.866
   335.6,0.610182,0.598749,0.506757,0.584403,  47.866
   335.8,0.610203,0.598602,0.506553,0.584660,  47.866
   336.0,0.610015,0.598683,0.506265,0.584644,  47.869
   336.2,0.610085,0.598787,0.505841,0.584968,  47.872
   336.4,0.610203,0.598895,0.505728,0.585430,  47.867
   336.6,0.610350,0.599067,0.505661,0.585928,  47.868
   336.8,0.610516,0.599292,0.505683,0.586047,  47.869
   337.0,0.610706,0.599558,0.505655,0.586150,  47.868
   337.2,0.610929,0.599716,0.505649,0.586134,  47.871
   337.4,0.611117,0.599843,0.505615,0.586253,  47.865
   337.6,0.611279,0.599944,0.506271,0.586459,  47.862
   337.8,0.611435,0.601118,0.507278,0.586597,  47.866
   338.0,0.612860,0.602827,0.508623,0.586752,  47.863
   338.2,0.614934,0.605058,0.510315,0.586871,  47.862
   338.4,0.617643,0.606027,0.512277,0.587026,  47.860
   338.6,0.618527,0.606625,0.514558,0.587164,  47.860
   338.8,0.618813,0.606853,0.517176,0.587594,  47.860
   339.0,0.618512,0.606947,0.517623,0.588198,  47.864
   339.2,0.618439,0.606798,0.517141,0.588870,  47.859
   339.4,0.618186,0.606395,0.515740,0.590184,  47.855
   339.6,0.617764,0.606415,0.515296,0.591902,  47.861
   339.8,0.617648,0.606505,0.514875,0.594028,  47.863
   340.0,0.617604,0.606671,0.514466,0.594570,  47.864
   340.2,0.617643,0.606765,0.514046,0.594605,  47.862
   340.4,0.617703,0.606862,0.513643,0.594064,  47.859
   340.6,0.617830,0.606964,0.513223,0.593976,  47.860
   340.8,0.618012,0.607066,0.513114,0.593907,  47.861
   341.0,0.618237,0.607309,0.513073,0.593750,  47.862
   341.2,0.618512,0.607603,0.513171,0.593714,  47.854
   341.4,0.618853,0.607963,0.513332,0.593750,  47.854
   341.6,0.619221,0.608285,0.513516,0.593802,  47.854
   341.8,0.619618,0.608623,0.513780,0.593924,  47.847
   342.0,0.620065,0.608962,0.515059,0.594116,  47.851
   342.2,0.620965,0.609966,0.516828,0.594326,  47.850
   342.4,0.622106,0.611295,0.519164,0.594605,  47.846
   342.6,0.623512,0.612961,0.520231,0.594815,  47.847
   342.8,0.624052,0.613589,0.520891,0.595078,  47.844
   343.0,0.624274,0.613868,0.521189,0.595621,  47.840
   343.2,0.624192,0.613781,0.521698,0.596305,  47.844
   343.4,0.624515,0.614279,0.522114,0.597149,  47.839
   343.6,0.624905,0.614892,0.522432,0.597889,  47.841
   343.8,0.625335,0.615623,0.522508,0.598630,  47.845
   344.0,0.625822,0.615890,0.522460,0.599372,  47.850
   344.2,0.625961,0.615991,0.522224,0.599850,  47.847
   344.4,0.626012,0.615907,0.522072,0.600063,  47.843
   344.6,0.625940,0.616071,0.521879,0.600063,  47.842
   344.8,0.626079,0.616275,0.521622,0.600382,  47.839
   345.0,0.626287,0.616512,0.521523,0.600754,  47.838
   345.2,0.626533,0.616740,0.521499,0.601127,  47.842
   345.4,0.626718,0.616989,0.521464,0.601340,  47.840
   345.6,0.626914,0.617266,0.521411,0.601447,  47.833
   345.8,0.627105,0.617483,0.521377,0.601500,  47.834
   346.0,0.627413,0.617696,0.521342,0.601660,  47.831
   346.2,0.627790,0.617890,0.522274,0.601874,  47.831
   346.4,0.628228,0.619219,0.523678,0.602087,  47.830
   346.6,0.629608,0.621112,0.525566,0.602247,  47.828
   346.8,0.631514,0.623570,0.527942,0.602408,  47.830
   347.0,0.633912,0.624413,0.529699,0.602568,  47.828
   347.2,0.634659,0.624714,0.531523,0.602621,  47.833
   347.4,0.634830,0.624496,0.533396,0.603210,  47.827
   347.6,0.634413,0.656030,0.533613,0.604014,  47.828
   347.8,0.589113,0.707881,0.533030,0.605034,  47.826
   348.0,0.528867,0.788192,0.531637,0.606165,  47.832
   348.2,0.459640,0.622594,0.438286,0.607460,  47.836
   348.4,0.371398,0.438556,0.327825,0.608868,  47.834
   348.6,0.281235,0.267326,0.214174,0.609302,  47.842
   348.8,0.192899,0.204902,0.164590,0.609357,  47.838
   349.0,0.148758,0.163514,0.129279,0.608922,  47.864
   349.2,0.117012,0.138185,0.105290,0.501064,  46.882
   349.4,0.095335,0.126370,0.083431,0.377237,  46.325
   349.6,0.075431,0.102698,0.067033,0.253126,  47.599
   349.8,0.060420,0.082329,0.055526,0.195697,  47.779
   350.0,0.049848,0.064873,0.044771,0.152635,  47.797
   350.2,0.039899,0.051707,0.036563,0.120627,  47.810
   350.4,0.032237,0.041646,0.030762,0.094800,  47.815
   350.6,0.026768,0.034483,0.025125,0.075539,  47.816
   350.8,0.021562,0.027697,0.020722,0.062058,  47.855
   351.0,0.017504,0.022443,0.017489,0.049476,  42.094
   351.2,0.014590,0.018669,0.014461,0.039830,  46.930
   351.4,0.011942,0.015060,0.012104,0.032971,  43.721
   351.6,0.009976,0.012248,0.010406,0.026432,  29.664
   351.8,0.008678,0.010218,0.008770,0.021411,  45.195
   352.0,0.008046,0.008270,0.007477,0.017829,  47.420
   352.2,0.006737,0.006744,0.006537,0.014331,  47.760
   352.4,0.005547,0.005642,0.005651,0.011649,  47.799
   352.6,0.004495,0.004579,0.004946,0.009728,  47.819
   352.8,0.003675,0.003749,0.004445,0.007826,  47.819
   353.0,0.003023,0.003153,0.003946,0.006361,  47.817
   353.2,0.002560,0.002573,0.003532,0.005341,  47.815
   353.4,0.002110,0.002122,0.003209,0.004293,  47.812
   353.6,0.001750,0.001800,0.002938,0.003512,  47.809
   353.8,0.001501,0.001487,0.002725,0.002969,  47.814
   354.0,0.001257,0.001237,0.002571,0.002397,  47.809
   354.2,0.001059,0.001064,0.002390,0.001967,  47.812
   354.4,0.000925,0.000891,0.002216,0.001668,  47.808
   354.6,0.000790,0.000755,0.002047,0.001337,  47.806
   354.8,0.000677,0.000656,0.001947,0.001096,  47.808
   355.0,0.000604,0.000559,0.001889,0.000923,  47.804
   355.2,0.000524,0.000483,0.001862,0.000762,  47.801
   355.4,0.000460,0.000424,0.001870,0.000606,  47.803
   355.6,0.000415,0.000371,0.001849,0.000575,  47.799
   355.8,0.000372,0.000326,0.001836,0.000521,  47.796
   356.0,0.000341,0.000296,0.001825,0.000441,  47.798
   356.2,0.000320,0.000265,0.001821,0.000361,  47.801
   356.4,0.000302,0.000241,0.001824,0.000294,  47.797
   356.6,0.000282,0.000222,0.001832,0.000254,  47.797
   356.8,0.000281,0.000208,0.001811,0.000201,  47.802
   357.0,0.000275,0.000200,0.001781,0.000174,  47.812
   357.2,0.000267,0.000198,0.001749,0.000161,  47.798
   357.4,0.000267,0.000201,0.001764,0.000134,  47.792
   357.6,0.000265,0.000203,0.001788,0.000121,  47.786
   357.8,0.000262,0.000200,0.001834,0.000107,  47.783
   358.0,0.000266,0.000195,0.001856,0.000094,  47.780
   358.2,0.000266,0.000193,0.001879,0.000081,  47.778
   358.4,0.000266,0.000194,0.001895,0.000081,  47.775
   358.6,0.000266,0.000195,0.001903,0.000067,  47.756
   358.8,0.000263,0.000195,0.001912,0.000103,  47.757
   359.0,0.000260,0.000193,0.001925,0.000081,  47.750
   359.2,0.000255,0.000189,0.001932,0.000081,  47.750
   359.4,0.000253,0.000186,0.001932,0.000116,  47.751
   359.6,0.000241,0.000178,0.001937,0.000094,  47.751
   359.8,0.000236,0.000176,0.001946,0.000103,  14.834
   360.0,0.000236,0.000174,0.001960,0.000125,  39.383
   360.2,0.000229,0.000172,0.001968,0.000103,  46.470
   360.4,0.000233,0.000167,0.001968,0.000125,  47.580
   360.6,0.000233,0.000165,0.001954,0.000125,  47.746
   360.8,0.000230,0.000164,0.001932,0.000103,  47.763
   361.0,0.000233,0.000167,0.001925,0.000103,  47.763
   361.2,0.000230,0.000165,0.001919,0.000103,  47.761
   361.4,0.000230,0.000157,0.001925,0.000081,  47.757
   361.6,0.000224,0.000159,0.001925,0.000081,  47.753
   361.8,0.000228,0.000163,0.001912,0.000103,  47.751
   362.0,0.000221,0.000160,0.001896,0.000081,  47.746
   362.2,0.000221,0.000166,0.001866,0.000081,  47.749
   362.4,0.000224,0.000168,0.001821,0.000103,  47.748
   362.6,0.000221,0.000165,0.001766,0.000081,  47.747
   362.8,0.000227,0.000166,0.001759,0.000081,  47.745
   363.0,0.000224,0.000164,0.001760,0.000103,  47.740
   363.2,0.000215,0.000159,0.001790,0.000081,  47.746
   363.4,0.000221,0.000160,0.001797,0.000081,  47.737
   363.6,0.000221,0.000156,0.001798,0.000103,  47.739
   363.8,0.000207,0.000148,0.001804,0.000103,  47.738
   364.0,0.000206,0.000145,0.001797,0.000081,  47.740
   364.2,0.000198,0.000143,0.001805,0.000081,  47.742
   364.4,0.000189,0.000135,0.001813,0.000103,  47.740
   364.6,0.000186,0.000133,0.001834,0.000067,  47.742
   364.8,0.000186,0.000133,0.001805,0.000103,  47.737
   365.0,0.000182,0.000133,0.001774,0.000089,  47.746
   365.2,0.000182,0.000137,0.001715,0.000054,  47.752
   365.4,0.000189,0.000142,0.001695,0.000054,  47.764
   365.6,0.000194,0.000137,0.001695,0.000076,  47.757
   365.8,0.000194,0.000139,0.001716,0.000041,  47.761
   366.0,0.000207,0.000137,0.001725,0.000054,  47.752
   366.2,0.000209,0.000137,0.001726,0.000076,  47.755
   366.4,0.000203,0.000140,0.001735,0.000054,  47.751
   366.6,0.000207,0.000138,0.001797,0.000054,  47.754
   366.8,0.000207,0.000140,0.001869,0.000089,  47.748
   367.0,0.000200,0.000140,0.001965,0.000067,  47.757
   367.2,0.000207,0.000139,0.001960,0.000067,  47.752
   367.4,0.000198,0.000141,0.001929,0.000081,  47.753
   367.6,0.000195,0.000137,0.001851,0.000094,  47.756
   367.8,0.000190,0.000131,0.001830,0.000081,  47.756
   368.0,0.000181,0.000129,0.001828,0.000067,  47.759
   368.2,0.000184,0.000128,0.001834,0.000081,  47.754
   368.4,0.000182,0.000127,0.001827,0.000067,  47.755
   368.6,0.000182,0.000128,0.001813,0.000054,  47.756
   368.8,0.000179,0.000128,0.001806,0.000054,  47.760
   369.0,0.000182,0.000130,0.001813,0.000041,  47.756
   369.2,0.000179,0.000127,0.001807,0.000027,  47.756
   369.4,0.000176,0.000120,0.001807,0.000027,  47.767
   369.6,0.000176,0.000119,0.001776,0.000027,  47.766
   369.8,0.000176,0.000113,0.001711,0.000027,  47.764
   370.0,0.000169,0.000110,0.001634,0.000027,  47.763
   370.2,0.000169,0.000111,0.001597,0.000027,  47.762
   370.4,0.000173,0.000109,0.001568,0.000027,  47.761
   370.6,0.000167,0.000109,0.001552,0.000027,  47.761
   370.8,0.000176,0.000109,0.001514,0.000027,  47.766
   371.0,0.000179,0.000111,0.001454,0.000027,  47.768
   371.2,0.000173,0.000113,0.001399,0.000027,  47.775
   371.4,0.000179,0.000114,0.001392,0.000027,  47.769
   371.6,0.000176,0.000116,0.001401,0.000027,  47.768
   371.8,0.000174,0.000113,0.001433,0.000027,  47.769
   372.0,0.000171,0.000113,0.001480,0.000027,  47.767
   372.2,0.000175,0.000111,0.001503,0.000027,  47.769
   372.4,0.000172,0.000110,0.001524,0.000027,  47.771
   372.6,0.000158,0.000109,0.001544,0.000027,  47.772
   372.8,0.000159,0.000107,0.001551,0.000027,  47.773
   373.0,0.000153,0.000100,0.001544,0.000027,  47.778
   373.2,0.000153,0.000098,0.001535,0.000027,  47.793
   373.4,0.000153,0.000098,0.001539,0.000014,  47.796
   373.6,0.000153,0.000094,0.001564,0.000000,  47.801
   373.8,0.000158,0.000096,0.001602,0.000000,  47.809
   374.0,0.000167,0.000100,0.001589,0.000000,  47.813
   374.2,0.000169,0.000100,0.001566,0.000000,  47.814
   374.4,0.000166,0.000100,0.001534,0.000000,  47.810
   374.6,0.000172,0.000105,0.001513,0.000014,  47.810
   374.8,0.000175,0.000103,0.001483,0.000014,  47.807
   375.0,0.000171,0.000103,0.001446,0.000014,  47.807
   375.2,0.000180,0.000105,0.001438,0.000027,  47.802
   375.4,0.000180,0.000105,0.001430,0.000049,  47.810
   375.6,0.000174,0.000105,0.001423,0.000014,  47.809
   375.8,0.000177,0.000109,0.001430,0.000027,  47.812
   376.0,0.000180,0.000113,0.001439,0.000049,  47.813
   376.2,0.000171,0.000111,0.001442,0.000014,  47.811
   376.4,0.000172,0.000112,0.001443,0.000027,  47.811
   376.6,0.000172,0.000112,0.001456,0.000049,  47.813
   376.8,0.000161,0.000110,0.001460,0.000014,  47.815
   377.0,0.000159,0.000106,0.001462,0.000027,  47.814
   377.2,0.000156,0.000106,0.001470,0.000049,  47.822
   377.4,0.000159,0.000104,0.001480,0.000014,  47.821
   377.6,0.000156,0.000100,0.001474,0.000027,  47.821
   377.8,0.000159,0.000102,0.001474,0.000049,  47.825
   378.0,0.000155,0.000104,0.001467,0.000014,  47.830
   378.2,0.000153,0.000104,0.001476,0.000027,  47.832
   378.4,0.000153,0.000101,0.001470,0.000049,  47.832
   378.6,0.000146,0.000103,0.001470,0.000014,  47.826
   378.8,0.000153,0.000105,0.001458,0.000027,  47.829
   379.0,0.000153,0.000105,0.001449,0.000049,  47.831
   379.2,0.000146,0.000103,0.001426,0.000014,  47.828
   379.4,0.000155,0.000106,0.001414,0.000027,  47.826
   379.6,0.000158,0.000114,0.001419,0.000049,  47.826
   379.8,0.000154,0.000116,0.001426,0.000014,  47.829
   380.0,0.000163,0.000114,0.001426,0.000027,  47.827
   380.2,0.000166,0.000113,0.001421,0.000049,  47.832
   380.4,0.000162,0.000117,0.001432,0.000049,  47.829
   380.6,0.000166,0.000117,0.001425,0.000027,  47.829
   380.8,0.000163,0.000114,0.001438,0.000027,  47.826
   381.0,0.000163,0.000106,0.001443,0.000063,  47.830
   381.2,0.000158,0.000104,0.001442,0.000027,  47.826
   381.4,0.000159,0.000108,0.001443,0.000063,  47.833
   381.6,0.000159,0.000107,0.001459,0.000063,  47.826
   381.8,0.000155,0.000113,0.001474,0.000027,  47.829
   382.0,0.000162,0.000117,0.001469,0.000027,  47.836
   382.2,0.000164,0.000117,0.001467,0.000049,  47.837
   382.4,0.000166,0.000123,0.001466,0.000014,  47.849
   382.6,0.000177,0.000128,0.001443,0.000027,  47.847
   382.8,0.000183,0.000129,0.001397,0.000049,  47.849
   383.0,0.000182,0.000132,0.001341,0.000014,  47.846
   383.2,0.000191,0.000134,0.001343,0.000027,  47.841
   383.4,0.000196,0.000136,0.001374,0.000049,  47.838
   383.6,0.000192,0.000136,0.001433,0.000014,  47.836
   383.8,0.000199,0.000136,0.001419,0.000027,  47.834
   384.0,0.000195,0.000140,0.001397,0.000063,  47.832
   384.2,0.000195,0.000138,0.001363,0.000027,  47.833
   384.4,0.000198,0.000140,0.001338,0.000027,  47.835
   384.6,0.000191,0.000142,0.001314,0.000063,  47.831
   384.8,0.000192,0.000143,0.001269,0.000027,  47.834
   385.0,0.000187,0.000140,0.001292,0.000041,  47.830
   385.2,0.000181,0.000137,0.001344,0.000076,  47.832
   385.4,0.000187,0.000136,0.001412,0.000041,  47.832
   385.6,0.000184,0.000131,0.001429,0.000054,  47.828
   385.8,0.000184,0.000125,0.001438,0.000076,  47.829
   386.0,0.000184,0.000127,0.001436,0.000041,  47.831
   386.2,0.000184,0.000131,0.001453,0.000041,  47.834
   386.4,0.000184,0.000131,0.001476,0.000063,  47.840
   386.6,0.000181,0.000128,0.001513,0.000027,  47.846
   386.8,0.000184,0.000132,0.001507,0.000027,  47.847
   387.0,0.000184,0.000132,0.001491,0.000063,  47.848
   387.2,0.000184,0.000128,0.001460,0.000027,  47.846
   387.4,0.000187,0.000129,0.001460,0.000027,  47.842
   387.6,0.000191,0.000177,0.001462,0.000063,  47.843
   387.8,0.000193,0.000244,0.001483,0.000027,  47.843
   388.0,0.000187,0.000335,0.001481,0.000041,  47.851
   388.2,0.000193,0.000341,0.001460,0.000076,  47.852
   388.4,0.000196,0.000307,0.001445,0.000054,  47.856
   388.6,0.000190,0.000243,0.001429,0.000054,  47.851
   388.8,0.000199,0.000223,0.001415,0.000089,  47.849
   389.0,0.000199,0.000206,0.001392,0.000089,  47.854
   389.2,0.000190,0.000194,0.001375,0.000067,  47.855
   389.4,0.000191,0.000178,0.001399,0.000054,  47.855
   389.6,0.000188,0.000172,0.001450,0.000089,  47.860
   389.8,0.000185,0.000162,0.001517,0.000054,  47.857
   390.0,0.000186,0.000155,0.001539,0.000089,  47.859
   390.2,0.000186,0.000153,0.001555,0.000089,  47.862
   390.4,0.000192,0.000155,0.001548,0.000054,  47.858
   390.6,0.000197,0.000152,0.001554,0.000054,  47.868
   390.8,0.000202,0.000156,0.001545,0.000076,  47.874
   391.0,0.000201,0.000158,0.001530,0.000041,  47.879
   391.2,0.000201,0.000167,0.001535,0.000054,  47.881
   391.4,0.000207,0.000183,0.001535,0.000076,  47.873
   391.6,0.000203,0.000205,0.001528,0.000041,  47.869
   391.8,0.000212,0.000239,0.001508,0.000054,  47.870
   392.0,0.000211,0.000235,0.001500,0.000076,  47.866
   392.2,0.000216,0.000226,0.001477,0.000041,  47.866
   392.4,0.000219,0.000205,0.001487,0.000054,  47.869
   392.6,0.000215,0.000195,0.001524,0.000076,  47.865
   392.8,0.000221,0.000193,0.001576,0.000041,  47.864
   393.0,0.000221,0.000187,0.001561,0.000054,  47.865
   393.2,0.000213,0.000178,0.001522,0.000076,  47.867
   393.4,0.000214,0.000173,0.001466,0.000041,  47.863
   393.6,0.000206,0.000171,0.001480,0.000054,  47.869
   393.8,0.000197,0.000167,0.001511,0.000076,  47.866
   394.0,0.000198,0.000160,0.001572,0.000041,  47.866
   394.2,0.000190,0.000154,0.001595,0.000054,  47.867
   394.4,0.000181,0.000150,0.001605,0.000076,  47.864
   394.6,0.000187,0.000144,0.001606,0.000041,  47.868
   394.8,0.000184,0.000140,0.001615,0.000041,  47.873
   395.0,0.000184,0.000138,0.001602,0.000063,  47.879
   395.2,0.000187,0.000134,0.001592,0.000027,  47.873
   395.4,0.000190,0.000136,0.001599,0.000027,  47.876
   395.6,0.000192,0.000136,0.001586,0.000063,  47.876
   395.8,0.000189,0.000131,0.001585,0.000027,  47.876
   396.0,0.000195,0.000131,0.001585,0.000027,  47.874
   396.2,0.000195,0.000133,0.001572,0.000049,  47.879
   396.4,0.000191,0.000133,0.001564,0.000014,  47.878
   396.6,0.000198,0.000135,0.001556,0.000027,  47.883
   396.8,0.000198,0.000134,0.001542,0.000063,  47.886
   397.0,0.000191,0.000136,0.001532,0.000027,  47.888
   397.2,0.000198,0.000136,0.001547,0.000041,  47.883
   397.4,0.000198,0.000136,0.001549,0.000076,  47.888
   397.6,0.000189,0.000133,0.001585,0.000027,  47.888
   397.8,0.000190,0.000133,0.001593,0.000049,  47.888
   398.0,0.000182,0.000126,0.001607,0.000058,  47.892
   398.2,0.000176,0.000122,0.001616,0.000058,  47.891
   398.4,0.000173,0.000117,0.001636,0.000036,  47.891
   398.6,0.000170,0.000112,0.001643,0.000071,  47.891
   398.8,0.000161,0.000116,0.001629,0.000085,  47.892
   399.0,0.000168,0.000120,0.001616,0.000063,  47.894
   399.2,0.000171,0.000116,0.001617,0.000085,  47.899
   399.4,0.000165,0.000119,0.001626,0.000049,  47.921
   399.6,0.000171,0.000122,0.001634,0.000014,  47.924
   399.8,0.000174,0.000126,0.001634,0.000027,  47.928
   400.0,0.000170,0.000124,0.001613,0.000049,  47.920
   400.2,0.000176,0.000126,0.001592,0.000014,  47.921
   400.4,0.000176,0.000122,0.001555,0.000041,  47.918
   400.6,0.000173,0.000124,0.001510,0.000076,  47.917
   400.8,0.000179,0.000122,0.001455,0.000041,  47.912
   401.0,0.000176,0.000122,0.001487,0.000054,  47.911
   401.2,0.000168,0.000120,0.001559,0.000076,  47.916
   401.4,0.000174,0.000119,0.001676,0.000054,  47.912
   401.6,0.000174,0.000119,0.001653,0.000054,  47.916
   401.8,0.000165,0.000119,0.001589,0.000089,  47.913
   402.0,0.000166,0.000115,0.001459,0.000054,  47.912
   402.2,0.000163,0.000113,0.001424,0.000041,  47.917
   402.4,0.000154,0.000110,0.001422,0.000063,  47.915
   402.6,0.000155,0.000101,0.001431,0.000027,  47.909
   402.8,0.000150,0.000098,0.001418,0.000027,  47.911
   403.0,0.000147,0.000096,0.001411,0.000049,  47.908
   403.2,0.000147,0.000094,0.001397,0.000014,  47.915
   403.4,0.000147,0.000100,0.001398,0.000014,  47.917
   403.6,0.000147,0.000100,0.001392,0.000036,  47.919
   403.8,0.000144,0.000098,0.001407,0.000000,  47.922
   404.0,0.000144,0.000098,0.001409,0.000014,  47.921
   404.2,0.000144,0.000096,0.001425,0.000049,  47.918
   404.4,0.000140,0.000100,0.001434,0.000000,  47.913
   404.6,0.000149,0.000099,0.001381,0.000000,  47.913
   404.8,0.000155,0.000101,0.001296,0.000023,  47.913
   405.0,0.000152,0.000104,0.001187,-0.000013,  47.913
   405.2,0.000163,0.000111,0.001173,-0.000013,  47.916
   405.4,0.000161,0.000111,0.001189,0.000036,  47.915
   405.6,0.000157,0.000111,0.001242,0.000014,  47.915
   405.8,0.000166,0.000113,0.001258,0.000027,  47.913
   406.0,0.000169,0.000117,0.001281,0.000049,  47.911
   406.2,0.000169,0.000117,0.001296,0.000049,  47.912
   406.4,0.000161,0.000114,0.001325,0.000027,  47.909
   406.6,0.000159,0.000114,0.001349,0.000014,  47.906
   406.8,0.000153,0.000114,0.001384,0.000049,  47.906
   407.0,0.000153,0.000107,0.001421,0.000027,  47.910
   407.2,0.000153,0.000105,0.001408,0.000049,  47.909
   407.4,0.000146,0.000104,0.001391,0.000049,  47.908
   407.6,0.000155,0.000108,0.001353,0.000014,  47.912
   407.8,0.000158,0.000110,0.001333,0.000027,  47.915
   408.0,0.000163,0.000106,0.001333,0.000049,  47.923
   408.2,0.000169,0.000115,0.001347,0.000014,  47.920
   408.4,0.000183,0.000118,0.001356,0.000027,  47.920
   408.6,0.000179,0.000121,0.001371,0.000049,  47.921
   408.8,0.000184,0.000125,0.001392,0.000014,  47.916
   409.0,0.000184,0.000128,0.001370,0.000027,  47.915
   409.2,0.000181,0.000129,0.001315,0.000063,  47.908
   409.4,0.000190,0.000130,0.001237,0.000027,  47.914
   409.6,0.000190,0.000131,0.001245,0.000027,  47.914
   409.8,0.000186,0.000133,0.001282,0.000063,  47.912
   410.0,0.000192,0.000134,0.001343,0.000027,  47.915
   410.2,0.000190,0.000134,0.001365,0.000041,  47.916
   410.4,0.000187,0.000132,0.001380,0.000076,  47.917
   410.6,0.000182,0.000131,0.001378,0.000041,  47.916
   410.8,0.000180,0.000134,0.001394,0.000054,  47.917
   411.0,0.000177,0.000132,0.001416,0.000076,  47.918
   411.2,0.000171,0.000133,0.001425,0.000041,  47.920
   411.4,0.000177,0.000124,0.001435,0.000041,  47.922
   411.6,0.000177,0.000117,0.001459,0.000063,  47.927
   411.8,0.000177,0.000117,0.001475,0.000027,  47.927
   412.0,0.000177,0.000112,0.001467,0.000027,  47.927
   412.2,0.000175,0.000111,0.001452,0.000049,  47.936
   412.4,0.000177,0.000113,0.001419,0.000014,  47.930
   412.6,0.000171,0.000120,0.001397,0.000027,  47.931
   412.8,0.000180,0.000122,0.001381,0.000063,  47.929
   413.0,0.000176,0.000124,0.001351,0.000027,  47.931
   413.2,0.000176,0.000125,0.001315,0.000027,  47.933
   413.4,0.000176,0.000125,0.001276,0.000049,  47.933
   413.6,0.000173,0.000129,0.001235,0.000027,  47.934
   413.8,0.000182,0.000131,0.001252,0.000041,  47.936
   414.0,0.000182,0.000130,0.001298,0.000089,  47.936
   414.2,0.000178,0.000133,0.001360,0.000054,  47.937
   414.4,0.000184,0.000130,0.001397,0.000054,  47.937
   414.6,0.000187,0.000128,0.001414,0.000076,  47.932
   414.8,0.000184,0.000127,0.001441,0.000076,  47.936
   415.0,0.000176,0.000122,0.001448,0.000041,  47.938
   415.2,0.000172,0.000119,0.001470,0.000054,  47.938
   415.4,0.000169,0.000113,0.001506,0.000076,  47.940
   415.6,0.000161,0.000114,0.001528,0.000041,  47.937
   415.8,0.000162,0.000112,0.001530,0.000076,  47.944
   416.0,0.000162,0.000114,0.001524,0.000076,  47.943
   416.2,0.000158,0.000114,0.001503,0.000041,  47.948
   416.4,0.000162,0.000114,0.001483,0.000041,  47.952
   416.6,0.000155,0.000114,0.001456,0.000049,  47.961
   416.8,0.000158,0.000108,0.001441,0.000014,  47.960
   417.0,0.000158,0.000106,0.001425,0.000027,  47.956
   417.2,0.000154,0.000108,0.001395,0.000049,  47.953
   417.4,0.000161,0.000108,0.001371,0.000014,  47.949
   417.6,0.000163,0.000108,0.001359,0.000027,  47.947
   417.8,0.000163,0.000112,0.001351,0.000049,  47.949
   418.0,0.000163,0.000113,0.001339,0.000014,  47.947
   418.2,0.000167,0.000113,0.001333,0.000027,  47.947
   418.4,0.000167,0.000109,0.001333,0.000049,  47.946
   418.6,0.000164,0.000109,0.001332,0.000014,  47.949
   418.8,0.000165,0.000105,0.001339,0.000027,  47.944
   419.0,0.000162,0.000096,0.001342,0.000049,  47.946
   419.2,0.000154,0.000094,0.001357,0.000014,  47.946
   419.4,0.000151,0.000089,0.001312,0.000027,  47.948
   419.6,0.000148,0.000083,0.001230,0.000049,  47.952
   419.8,0.000139,0.000073,0.001129,0.000014,  47.947
   420.0,0.000146,0.000071,0.001107,0.000014,  47.947
   420.2,0.000140,0.000071,0.001108,0.000036,  47.951
   420.4,0.000140,0.000071,0.001131,0.000000,  47.956
   420.6,0.000134,0.000080,0.001146,0.000000,  47.958
   420.8,0.000140,0.000083,0.001170,0.000036,  47.959
   421.0,0.000143,0.000081,0.001209,0.000000,  47.960
   421.2,0.000137,0.000083,0.001173,0.000000,  47.958
   421.4,0.000146,0.000087,0.001127,0.000036,  47.956
   421.6,0.000148,0.000092,0.001057,0.000000,  47.954
   421.8,0.000145,0.000093,0.001066,0.000000,  47.955
   422.0,0.000156,0.000094,0.001098,0.000036,  47.951
   422.2,0.000159,0.000097,0.001159,0.000000,  47.961
   422.4,0.000162,0.000102,0.001182,0.000000,  47.960
   422.6,0.000170,0.000101,0.001203,0.000036,  47.963
   422.8,0.000173,0.000103,0.001196,0.000000,  47.961
   423.0,0.000173,0.000110,0.001211,0.000000,  47.963
   423.2,0.000170,0.000107,0.001247,0.000036,  47.963
   423.4,0.000168,0.000108,0.001262,0.000036,  47.955
   423.6,0.000156,0.000102,0.001291,0.000014,  47.958
   423.8,0.000148,0.000098,0.001298,0.000000,  47.963
   424.0,0.000148,0.000098,0.001295,0.000049,  47.963
   424.2,0.000139,0.000094,0.001279,0.000027,  47.962
   424.4,0.000146,0.000095,0.001288,0.000049,  47.964
   424.6,0.000145,0.000104,0.001310,0.000049,  47.967
   424.8,0.000147,0.000114,0.001327,0.000014,  47.973
   425.0,0.000153,0.000117,0.001284,0.000027,  47.973
   425.2,0.000158,0.000120,0.001235,0.000049,  47.979
   425.4,0.000163,0.000119,0.001149,0.000014,  47.975
   425.6,0.000172,0.000122,0.001142,0.000027,  47.971
   425.8,0.000177,0.000126,0.001158,0.000049,  47.969
   426.0,0.000176,0.000131,0.001197,0.000014,  47.970
   426.2,0.000185,0.000131,0.001227,0.000014,  47.968
   426.4,0.000191,0.000129,0.001257,0.000036,  47.964
   426.6,0.000187,0.000135,0.001281,0.000000,  47.964
   426.8,0.000193,0.000136,0.001296,0.000014,  47.967
   427.0,0.000190,0.000135,0.001318,0.000063,  47.965
   427.2,0.000190,0.000138,0.001325,0.000027,  47.964
   427.4,0.000192,0.000140,0.001332,0.000027,  47.964
   427.6,0.000189,0.000137,0.001337,0.000063,  47.965
   427.8,0.000195,0.000138,0.001349,0.000027,  47.968
   428.0,0.000195,0.000136,0.001340,0.000041,  47.965
   428.2,0.000198,0.000136,0.001329,0.000076,  47.964
   428.4,0.000198,0.000134,0.001290,0.000041,  47.967
   428.6,0.000201,0.000145,0.001306,0.000054,  47.968
   428.8,0.000204,0.000147,0.001344,0.000076,  47.973
   429.0,0.000204,0.000148,0.001404,0.000041,  47.973
   429.2,0.000204,0.000147,0.001433,0.000054,  47.980
   429.4,0.000204,0.000148,0.001448,0.000076,  47.977
   429.6,0.000203,0.000146,0.001455,0.000041,  47.972
   429.8,0.000203,0.000148,0.001470,0.000054,  47.971
   430.0,0.000203,0.000148,0.001477,0.000076,  47.970
   430.2,0.000199,0.000151,0.001477,0.000041,  47.971
   430.4,0.000208,0.000154,0.001465,0.000054,  47.971
   430.6,0.000206,0.000154,0.001462,0.000076,  47.970
   430.8,0.000199,0.000152,0.001431,0.000041,  47.974
   431.0,0.000208,0.000152,0.001402,0.000054,  47.977
   431.2,0.000208,0.000154,0.001387,0.000076,  47.976
   431.4,0.000202,0.000149,0.001370,0.000041,  47.975
   431.6,0.000205,0.000147,0.001384,0.000054,  47.974
   431.8,0.000202,0.000147,0.001401,0.000076,  47.971
   432.0,0.000190,0.000139,0.001438,0.000076,  47.973
   432.2,0.000191,0.000138,0.001490,0.000054,  47.972
   432.4,0.000184,0.000136,0.001491,0.000054,  47.971
   432.6,0.000173,0.000129,0.001497,0.000089,  47.972
   432.8,0.000176,0.000121,0.001489,0.000054,  47.971
   433.0,0.000171,0.000120,0.001483,0.000076,  47.971
   433.2,0.000165,0.000123,0.001484,0.000063,  47.976
   433.4,0.000171,0.000123,0.001477,0.000027,  47.981
   433.6,0.000171,0.000123,0.001466,0.000027,  47.983
   433.8,0.000174,0.000120,0.001467,0.000063,  47.982
   434.0,0.000174,0.000124,0.001467,0.000027,  47.980
   434.2,0.000180,0.000124,0.001424,0.000027,  47.980
   434.4,0.000183,0.000124,0.001364,0.000063,  47.982
   434.6,0.000176,0.000120,0.001306,0.000027,  47.978
   434.8,0.000183,0.000126,0.001292,0.000027,  47.980
   435.0,0.000183,0.000127,0.001295,0.000063,  47.978
   435.2,0.000176,0.000128,0.001333,0.000027,  47.984
   435.4,0.000180,0.000125,0.001357,0.000041,  47.980
   435.6,0.000177,0.000128,0.001374,0.000076,  47.981
   435.8,0.000166,0.000127,0.001397,0.000041,  47.978
   436.0,0.000169,0.000128,0.001374,0.000054,  47.979
   436.2,0.000169,0.000128,0.001334,0.000076,  47.984
   436.4,0.000163,0.000127,0.001262,0.000041,  47.979
   436.6,0.000167,0.000124,0.001255,0.000054,  47.982
   436.8,0.000167,0.000121,0.001272,0.000076,  47.982
   437.0,0.000163,0.000115,0.001305,0.000041,  47.984
   437.2,0.000167,0.000113,0.001275,0.000041,  47.985
   437.4,0.000167,0.000116,0.001228,0.000049,  47.987
   437.6,0.000167,0.000119,0.001152,0.000014,  47.991
   437.8,0.000161,0.000117,0.001117,0.000027,  47.992
   438.0,0.000161,0.000119,0.001114,0.000049,  47.994
   438.2,0.000152,0.000117,0.001107,0.000014,  47.993
   438.4,0.000158,0.000114,0.001117,0.000027,  47.992
   438.6,0.000158,0.000107,0.001148,0.000063,  47.990
   438.8,0.000154,0.000105,0.001187,0.000027,  47.990
   439.0,0.000163,0.000106,0.001196,0.000027,  47.993
   439.2,0.000166,0.000106,0.001204,0.000049,  47.991
   439.4,0.000169,0.000106,0.001196,0.000014,  47.992
   439.6,0.000169,0.000113,0.001206,0.000027,  47.999
   439.8,0.000172,0.000116,0.001230,0.000063,  48.011
   440.0,0.000175,0.000110,0.001261,0.000063,  48.015
   440.2,0.000169,0.000111,0.001291,0.000027,  48.013
   440.4,0.000172,0.000110,0.001306,0.000027,  48.011
   440.6,0.000172,0.000110,0.001336,0.000063,  48.012
   440.8,0.000161,0.000109,0.001350,0.000063,  48.011
   441.0,0.000159,0.000109,0.001343,0.000049,  48.014
   441.2,0.000159,0.000107,0.001333,0.000085,  48.012
   441.4,0.000155,0.000111,0.001303,0.000049,  48.010
   441.6,0.000162,0.000114,0.001303,0.000085,  48.014
   441.8,0.000164,0.000112,0.001305,0.000071,  48.017
   442.0,0.000163,0.000116,0.001312,0.000023,  48.025
   442.2,0.000172,0.000116,0.001281,0.000058,  48.031
   442.4,0.000169,0.000116,0.001221,0.000058,  48.027
   442.6,0.000171,0.000116,0.001143,0.000023,  48.029
   442.8,0.000174,0.000121,0.001128,0.000058,  48.025
   443.0,0.000170,0.000123,0.001129,0.000071,  48.026
   443.2,0.000179,0.000123,0.001143,0.000049,  48.017
   443.4,0.000179,0.000122,0.001158,0.000098,  48.025
   443.6,0.000176,0.000119,0.001168,0.000085,  48.018
   443.8,0.000184,0.000121,0.001182,0.000049,  48.023
   444.0,0.000179,0.000126,0.001182,0.000098,  48.021
   444.2,0.000173,0.000129,0.001180,0.000098,  48.024
   444.4,0.000179,0.000123,0.001163,0.000063,  48.020
   444.6,0.000176,0.000124,0.001179,0.000111,  48.019
   444.8,0.000168,0.000119,0.001216,0.000111,  48.021
   445.0,0.000171,0.000117,0.001254,0.000076,  48.021
   445.2,0.000166,0.000116,0.001278,0.000125,  48.023
   445.4,0.000166,0.000114,0.001301,0.000111,  48.021
   445.6,0.000163,0.000112,0.001310,0.000076,  48.024
   445.8,0.000172,0.000117,0.001310,0.000125,  48.025
   446.0,0.000169,0.000121,0.001281,0.000111,  48.025
   446.2,0.000167,0.000119,0.001250,0.000076,  48.028
   446.4,0.000164,0.000116,0.001258,0.000111,  48.031
   446.6,0.000170,0.000116,0.001286,0.000098,  48.027
   446.8,0.000170,0.000116,0.001318,0.000063,  48.026
   447.0,0.000164,0.000111,0.001318,0.000111,  48.025
   447.2,0.000162,0.000109,0.001288,0.000111,  48.021
   447.4,0.000155,0.000105,0.001250,0.000076,  48.027
   447.6,0.000158,0.000104,0.001235,0.000125,  48.023
   447.8,0.000158,0.000108,0.001227,0.000111,  48.030
   448.0,0.000158,0.000110,0.001220,0.000076,  48.027
   448.2,0.000158,0.000108,0.001213,0.000125,  48.034
   448.4,0.000164,0.000110,0.001207,0.000111,  48.028
   448.6,0.000155,0.000108,0.001214,0.000111,  48.026
   448.8,0.000150,0.000104,0.001228,0.000076,  48.030
   449.0,0.000145,0.000100,0.001243,0.000089,  48.026
   449.2,0.000136,0.000098,0.001250,0.000076,  48.030
   449.4,0.000137,0.000092,0.001264,0.000076,  48.026
   449.6,0.000134,0.000087,0.001267,0.000076,  48.023
   449.8,0.000137,0.000087,0.001274,0.000098,  48.024
   450.0,0.000142,0.000090,0.001282,0.000063,  48.028
   450.2,0.000154,0.000090,0.001277,0.000098,  48.024
   450.4,0.000153,0.000092,0.001269,0.000085,  48.029
   450.6,0.000153,0.000092,0.001254,0.000049,  48.038
   450.8,0.000153,0.000094,0.001245,0.000098,  48.038
   451.0,0.000149,0.000096,0.001224,0.000085,  48.035
   451.2,0.000161,0.000098,0.001209,0.000049,  48.036
   451.4,0.000161,0.000102,0.001172,0.000098,  48.038
   451.6,0.000154,0.000108,0.001134,0.000085,  48.031
   451.8,0.000163,0.000107,0.001080,0.000049,  48.029
   452.0,0.000161,0.000104,0.001066,0.000098,  48.033
   452.2,0.000161,0.000104,0.001060,0.000085,  48.027
   452.4,0.000163,0.000107,0.001066,0.000049,  48.034
   452.6,0.000167,0.000110,0.001088,0.000098,  48.033
   452.8,0.000161,0.000110,0.001127,0.000098,  48.036
   453.0,0.000163,0.000109,0.001172,0.000063,  48.036
   453.2,0.000161,0.000109,0.001163,0.000111,  48.037
   453.4,0.000154,0.000106,0.001131,0.000111,  48.034
   453.6,0.000163,0.000102,0.001076,0.000076,  48.032
   453.8,0.000161,0.000100,0.001078,0.000125,  48.037
   454.0,0.000161,0.000103,0.001117,0.000111,  48.032
   454.2,0.000161,0.000103,0.001170,0.000076,  48.033
   454.4,0.000161,0.000102,0.001165,0.000111,  48.039
   454.6,0.000161,0.000104,0.001151,0.000098,  48.041
   454.8,0.000154,0.000103,0.001125,0.000063,  48.047
   455.0,0.000154,0.000100,0.001125,0.000098,  48.041
   455.2,0.000154,0.000096,0.001127,0.000098,  48.039
   455.4,0.000148,0.000098,0.001146,0.000063,  48.034
   455.6,0.000148,0.000101,0.001193,0.000098,  48.037
   455.8,0.000152,0.000105,0.001255,0.000098,  48.035
   456.0,0.000145,0.000098,0.001333,0.000063,  48.038
   456.2,0.000152,0.000102,0.001343,0.000098,  48.038
   456.4,0.000158,0.000104,0.001340,0.000085,  48.037
   456.6,0.000152,0.000106,0.001302,0.000049,  48.040
   456.8,0.000158,0.000111,0.001288,0.000098,  48.042
   457.0,0.000158,0.000113,0.001286,0.000098,  48.042
   457.2,0.000149,0.000109,0.001272,0.000098,  48.041
   457.4,0.000153,0.000111,0.001277,0.000063,  48.032
   457.6,0.000147,0.000109,0.001269,0.000063,  48.032
   457.8,0.000141,0.000100,0.001277,0.000063,  48.033
   458.0,0.000142,0.000099,0.001284,0.000027,  48.029
   458.2,0.000139,0.000099,0.001291,0.000063,  48.029
   458.4,0.000136,0.000093,0.001286,0.000063,  48.025
   458.6,0.000138,0.000095,0.001294,0.000027,  48.028
   458.8,0.000141,0.000097,0.001285,0.000014,  48.030
   459.0,0.000140,0.000093,0.001262,0.000036,  48.031
   459.2,0.000145,0.000095,0.001231,0.000000,  48.036
   459.4,0.000154,0.000093,0.001224,0.000014,  48.033
   459.6,0.000153,0.000098,0.001224,0.000049,  48.026
   459.8,0.000156,0.000100,0.001219,0.000014,  48.025
   460.0,0.000162,0.000108,0.001180,0.000027,  48.023
   460.2,0.000161,0.000105,0.001119,0.000049,  48.020
   460.4,0.000161,0.000110,0.001049,0.000014,  48.021
   460.6,0.000170,0.000110,0.001056,0.000027,  48.020
   460.8,0.000167,0.000109,0.001087,0.000049,  48.017
   461.0,0.000169,0.000111,0.001156,0.000014,  48.018
   461.2,0.000173,0.000115,0.001166,0.000027,  48.018
   461.4,0.000164,0.000112,0.001166,0.000049,  48.017
   461.6,0.000161,0.000115,0.001163,0.000014,  48.015
   461.8,0.000162,0.000111,0.001179,0.000027,  48.014
   462.0,0.000156,0.000107,0.001194,0.000049,  48.018
   462.2,0.000151,0.000111,0.001216,0.000014,  48.020
   462.4,0.000157,0.000109,0.001203,0.000014,  48.015
   462.6,0.000157,0.000107,0.001194,0.000036,  48.019
   462.8,0.000157,0.000110,0.001177,0.000000,  48.014
   463.0,0.000157,0.000108,0.001165,0.000000,  48.021
   463.2,0.000163,0.000108,0.001158,0.000036,  48.023
   463.4,0.000157,0.000108,0.001163,0.000000,  48.026
   463.6,0.000154,0.000108,0.001182,0.000000,  48.023
   463.8,0.000154,0.000109,0.001234,0.000036,  48.017
   464.0,0.000148,0.000105,0.001302,0.000000,  48.016
   464.2,0.000148,0.000102,0.001274,0.000014,  48.017
   464.4,0.000152,0.000102,0.001233,0.000049,  48.015
   464.6,0.000145,0.000099,0.001155,0.000014,  48.013
   464.8,0.000148,0.000102,0.001148,0.000027,  48.012
   465.0,0.000154,0.000101,0.001148,0.000049,  48.013
   465.2,0.000151,0.000097,0.001158,0.000014,  48.013
   465.4,0.000151,0.000106,0.001165,0.000027,  48.015
   465.6,0.000157,0.000103,0.001180,0.000063,  48.011
   465.8,0.000151,0.000097,0.001194,0.000063,  48.013
   466.0,0.000145,0.000097,0.001223,0.000027,  48.010
   466.2,0.000146,0.000095,0.001216,0.000027,  48.007
   466.4,0.000137,0.000094,0.001207,0.000063,  48.005
   466.6,0.000144,0.000098,0.001197,0.000027,  48.001
   466.8,0.000147,0.000100,0.001199,0.000049,  48.002
   467.0,0.000141,0.000095,0.001214,0.000049,  48.001
   467.2,0.000147,0.000098,0.001237,0.000000,  48.007
   467.4,0.000147,0.000095,0.001238,0.000000,  48.009
   467.6,0.000146,0.000097,0.001231,0.000023,  48.011
   467.8,0.000153,0.000099,0.001216,-0.000026,  48.009
   468.0,0.000153,0.000102,0.001219,-0.000026,  48.003
   468.2,0.000155,0.000103,0.001234,0.000023,  48.004
   468.4,0.000158,0.000105,0.001262,0.000000,  48.000
   468.6,0.000162,0.000109,0.001257,0.000014,  47.992
   468.8,0.000162,0.000110,0.001251,0.000049,  47.990
   469.0,0.000158,0.000113,0.001248,0.000014,  47.990
   469.2,0.000164,0.000110,0.001241,0.000049,  47.989
   469.4,0.000158,0.000110,0.001234,0.000045,  47.988
   469.6,0.000158,0.000109,0.001226,0.000023,  47.981
   469.8,0.000158,0.000108,0.001240,0.000071,  47.986
   470.0,0.000149,0.000110,0.001257,0.000085,  47.980
   470.2,0.000153,0.000111,0.001272,0.000063,  47.961
   470.4,0.000150,0.000112,0.001281,0.000111,  47.955
   470.6,0.000150,0.000110,0.001281,0.000085,  47.952
   470.8,0.000150,0.000108,0.001274,0.000049,  47.951
   471.0,0.000153,0.000101,0.001267,0.000098,  47.952
   471.2,0.000150,0.000095,0.001244,0.000085,  47.947
   471.4,0.000146,0.000092,0.001221,0.000049,  47.947
   471.6,0.000146,0.000094,0.001221,0.000098,  47.953
   471.8,0.000146,0.000093,0.001223,0.000085,  47.956
   472.0,0.000140,0.000095,0.001237,0.000049,  47.950
   472.2,0.000140,0.000091,0.001230,0.000098,  47.942
   472.4,0.000144,0.000084,0.001207,0.000085,  47.940
   472.6,0.000135,0.000087,0.001183,0.000049,  47.937
   472.8,0.000132,0.000082,0.000779,0.000098,  47.937
   473.0,0.000138,0.000082,0.000165,0.000098,  47.932
   473.2,0.000135,0.000082,-0.000639,0.000063,  47.929
   473.4,0.000135,0.000088,-0.000782,0.000098,  47.929
   473.6,0.000144,0.000093,-0.000698,0.000085,  47.929
   473.8,0.000137,0.000093,-0.000386,0.000085,  47.932
   474.0,0.000137,0.000096,0.000166,0.000063,  47.929
   474.2,0.000144,0.000101,0.000336,0.000098,  47.934
   474.4,0.000137,0.000102,0.000501,0.000098,  47.926
   474.6,0.000132,0.000096,0.000650,0.000098,  47.925
   474.8,0.000133,0.000092,0.000749,0.000098,  47.924
   475.0,0.000127,0.000089,0.000811,0.000098,  47.926
   475.2,0.000124,0.000083,0.000855,0.000063,  47.924
   475.4,0.000128,0.000083,0.000900,0.000063,  47.924
   475.6,0.000124,0.000085,0.000924,0.000063,  47.924
   475.8,0.000130,0.000083,0.000931,0.000027,  47.930
   476.0,0.000141,0.000090,0.000964,0.000027,  47.936
   476.2,0.000140,0.000092,0.001016,0.000063,  47.951
   476.4,0.000143,0.000096,0.001063,0.000027,  47.946
   476.6,0.000149,0.000101,0.001087,0.000027,  47.941
   476.8,0.000145,0.000102,0.001108,0.000063,  47.942
   477.0,0.000151,0.000107,0.001101,0.000027,  47.940
   477.2,0.000154,0.000113,0.001096,0.000027,  47.943
   477.4,0.000151,0.000112,0.001101,0.000063,  47.936
   477.6,0.000157,0.000110,0.001086,0.000027,  47.936
   477.8,0.000163,0.000118,0.001087,0.000041,  47.936
   478.0,0.000160,0.000119,0.001101,0.000076,  47.934
   478.2,0.000166,0.000113,0.001115,0.000054,  47.930
   478.4,0.000169,0.000110,0.001132,0.000054,  47.934
   478.6,0.000166,0.000112,0.001168,0.000089,  47.931
   478.8,0.000166,0.000108,0.001190,0.000067,  47.934
   479.0,0.000161,0.000106,0.001206,0.000054,  47.932
   479.2,0.000155,0.000101,0.001213,0.000089,  47.930
   479.4,0.000149,0.000099,0.001211,0.000054,  47.932
   479.6,0.000153,0.000103,0.001211,0.000054,  47.929
   479.8,0.000150,0.000098,0.001211,0.000076,  47.929
   480.0,0.000141,0.000097,0.001190,0.000041,  47.933
   480.2,0.000147,0.000100,0.001190,0.000054,  47.940
   480.4,0.000150,0.000099,0.001176,0.000076,  47.943
   480.6,0.000144,0.000100,0.001169,0.000054,  47.937
   480.8,0.000150,0.000101,0.001145,0.000054,  47.935
   481.0,0.000147,0.000101,0.001100,0.000054,  47.930
   481.2,0.000144,0.000103,0.001046,0.000054,  47.922
   481.4,0.000144,0.000101,0.001032,0.000054,  47.923
   481.6,0.000144,0.000099,0.001039,0.000041,  47.921
   481.8,0.000140,0.000103,0.001056,0.000041,  47.922
   482.0,0.000143,0.000103,0.001071,0.000041,  47.919
   482.2,0.000152,0.000105,0.001074,0.000041,  47.921
   482.4,0.000148,0.000110,0.001103,0.000027,  47.924
   482.6,0.000148,0.000112,0.001125,0.000027,  47.919
   482.8,0.000152,0.000114,0.001122,0.000027,  47.918
   483.0,0.000143,0.000108,0.001105,0.000041,  47.917
   483.2,0.000135,0.000106,0.001073,0.000054,  47.912
   483.4,0.000133,0.000104,0.001074,0.000054,  47.917
   483.6,0.000124,0.000094,0.001097,0.000089,  47.913
   483.8,0.000124,0.000092,0.001127,0.000054,  47.912
   484.0,0.000130,0.000095,0.001155,0.000076,  47.917
   484.2,0.000124,0.000094,0.001183,0.000085,  47.914
   484.4,0.000127,0.000101,0.001217,0.000049,  47.924
   484.6,0.000130,0.000102,0.001201,0.000098,  47.939
   484.8,0.000127,0.000104,0.001158,0.000085,  47.938
   485.0,0.000132,0.000102,0.001091,0.000049,  47.931
   485.2,0.000141,0.000103,0.001093,0.000098,  47.931
   485.4,0.000140,0.000104,0.001110,0.000085,  47.923
   485.6,0.000143,0.000102,0.001142,0.000049,  47.921
   485.8,0.000149,0.000111,0.001152,0.000111,  47.925
   486.0,0.000145,0.000114,0.001146,0.000111,  47.921
   486.2,0.000151,0.000112,0.001146,0.000076,  47.921
   486.4,0.000154,0.000116,0.001146,0.000125,  47.923
   486.6,0.000148,0.000116,0.001146,0.000111,  47.921
   486.8,0.000151,0.000116,0.001139,0.000076,  47.921
   487.0,0.000154,0.000112,0.001146,0.000125,  47.924
   487.2,0.000152,0.000112,0.001153,0.000111,  47.922
   487.4,0.000152,0.000106,0.001175,0.000076,  47.919
   487.6,0.000143,0.000104,0.001175,0.000125,  47.923
   487.8,0.000146,0.000104,0.001161,0.000111,  47.923
   488.0,0.000140,0.000106,0.001138,0.000076,  47.925
   488.2,0.000137,0.000109,0.001101,0.000111,  47.929
   488.4,0.000144,0.000112,0.001047,0.000085,  47.931
   488.6,0.000135,0.000112,0.000985,0.000049,  47.938
   488.8,0.000135,0.000108,0.000994,0.000098,  47.948
   489.0,0.000144,0.000110,0.001018,0.000085,  47.947
   489.2,0.000137,0.000107,0.001071,0.000049,  47.942
   489.4,0.000144,0.000107,0.001081,0.000085,  47.948
   489.6,0.000147,0.000102,0.001088,0.000071,  47.946
   489.8,0.000144,0.000100,0.001080,0.000036,  47.944
   490.0,0.000144,0.000105,0.001080,0.000085,  47.940
   490.2,0.000144,0.000104,0.001074,0.000085,  47.943
   490.4,0.000140,0.000105,0.001073,0.000085,  47.945
   490.6,0.000140,0.000104,0.001059,0.000049,  47.942
   490.8,0.000146,0.000104,0.001067,0.000120,  47.950
   491.0,0.000143,0.000105,0.001083,0.000107,  47.953
   491.2,0.000143,0.000101,0.001107,0.000107,  47.954
   491.4,0.000140,0.000103,0.001130,0.000107,  47.950
   491.6,0.000131,0.000101,0.001145,0.000107,  47.949
   491.8,0.000135,0.000104,0.001170,0.000071,  47.953
   492.0,0.000138,0.000102,0.001183,0.000085,  47.955
   492.2,0.000132,0.000106,0.001176,0.000120,  47.954
   492.4,0.000132,0.000105,0.001159,0.000085,  47.958
   492.6,0.000137,0.000105,0.001145,0.000098,  47.956
   492.8,0.000134,0.000107,0.001131,0.000120,  47.960
   493.0,0.000143,0.000101,0.001103,0.000085,  47.972
   493.2,0.000145,0.000105,0.001097,0.000098,  47.978
   493.4,0.000142,0.000107,0.001097,0.000098,  47.976
   493.6,0.000148,0.000107,0.001111,0.000063,  47.973
   493.8,0.000152,0.000111,0.001111,0.000098,  47.970
   494.0,0.000148,0.000116,0.001097,0.000098,  47.965
   494.2,0.000148,0.000111,0.001083,0.000063,  47.970
   494.4,0.000157,0.000115,0.001067,0.000098,  47.967
   494.6,0.000153,0.000119,0.001038,0.000098,  47.967
   494.8,0.000156,0.000117,0.001012,0.000063,  47.966
   495.0,0.000165,0.000123,0.001013,0.000111,  47.964
   495.2,0.000161,0.000123,0.001036,0.000111,  47.965
   495.4,0.000159,0.000121,0.001080,0.000076,  47.967
   495.6,0.000162,0.000126,0.001118,0.000125,  47.966
   495.8,0.000162,0.000124,0.001168,0.000111,  47.970
   496.0,0.000162,0.000120,0.001219,0.000076,  47.971
   496.2,0.000157,0.000117,0.001234,0.000125,  47.972
   496.4,0.000161,0.000117,0.001227,0.000111,  47.969
   496.6,0.000154,0.000113,0.001204,0.000076,  47.970
   496.8,0.000157,0.000113,0.001159,0.000125,  47.973
   497.0,0.000160,0.000114,0.001105,0.000111,  47.975
   497.2,0.000156,0.000114,0.001022,0.000076,  47.985
   497.4,0.000156,0.000119,0.000999,0.000125,  47.986
   497.6,0.000160,0.000123,0.001006,0.000111,  47.982
   497.8,0.000156,0.000118,0.001022,0.000076,  47.982
   498.0,0.000153,0.000116,0.001037,0.000125,  47.983
   498.2,0.000157,0.000116,0.001062,0.000111,  47.983
   498.4,0.000153,0.000114,0.001093,0.000076,  47.983
   498.6,0.000151,0.000108,0.001086,0.000125,  47.973
   498.8,0.000157,0.000108,0.001056,0.000111,  47.979
   499.0,0.000153,0.000113,0.001023,0.000111,  47.974
   499.2,0.000153,0.000119,0.001023,0.000076,  47.974
   499.4,0.000162,0.000123,0.001040,0.000125,  47.972
   499.6,0.000156,0.000120,0.001063,0.000111,  47.974
   499.8,0.000151,0.000120,0.001101,0.000111,  47.968
   500.0,0.000152,0.000118,0.001118,0.000111,  47.966
   500.2,0.000143,0.000114,0.001145,0.000111,  47.960
   500.4,0.000140,0.000109,0.001173,0.000089,  47.960
   500.6,0.000137,0.000109,0.001168,0.000125,  47.958
   500.8,0.000131,0.000102,0.001159,0.000125,  47.953
   501.0,0.000140,0.000106,0.001129,0.000089,  47.954
   501.2,0.000143,0.000103,0.001110,0.000111,  47.954
   501.4,0.000142,0.000105,0.001107,0.000098,  47.961
   501.6,0.000153,0.000111,0.001098,0.000063,  47.968
   501.8,0.000160,0.000115,0.001086,0.000098,  47.968
   502.0,0.000159,0.000118,0.001091,0.000098,  47.967
   502.2,0.000161,0.000124,0.001098,0.000063,  47.960
   502.4,0.000170,0.000130,0.001098,0.000111,  47.957
   502.6,0.000167,0.000129,0.001091,0.000111,  47.955
   502.8,0.000178,0.000129,0.001083,0.000089,  47.954
   503.0,0.000184,0.000130,0.001097,0.000125,  47.950
   503.2,0.000181,0.000132,0.001105,0.000125,  47.949
   503.4,0.000183,0.000134,0.001125,0.000103,  47.954
   503.6,0.000186,0.000143,0.001141,0.000125,  47.953
   503.8,0.000182,0.000144,0.001156,0.000125,  47.955
   504.0,0.000180,0.000143,0.001177,0.000103,  47.953
   504.2,0.000183,0.000143,0.001193,0.000125,  47.959
   504.4,0.000180,0.000141,0.001221,0.000125,  47.961
   504.6,0.000182,0.000143,0.001243,0.000103,  47.958
   504.8,0.000189,0.000138,0.001251,0.000138,  47.959
   505.0,0.000191,0.000138,0.001264,0.000151,  47.965
   505.2,0.000194,0.000146,0.001264,0.000129,  47.959
   505.4,0.000188,0.000148,0.001258,0.000151,  47.965
   505.6,0.000197,0.000147,0.001255,0.000138,  47.971
   505.8,0.000201,0.000156,0.001240,0.000116,  47.975
   506.0,0.000206,0.000158,0.001224,0.000151,  47.978
   506.2,0.000221,0.000155,0.001213,0.000138,  47.977
   506.4,0.000217,0.000163,0.001180,0.000116,  47.975
   506.6,0.000217,0.000165,0.001187,0.000151,  47.971
   506.8,0.000212,0.000165,0.001208,0.000138,  47.975
   507.0,0.000205,0.000171,0.001245,0.000116,  47.973
   507.2,0.000212,0.000169,0.001247,0.000151,  47.973
   507.4,0.000212,0.000169,0.001244,0.000138,  47.974
   507.6,0.000205,0.000177,0.001234,0.000116,  47.974
   507.8,0.000217,0.000179,0.001255,0.000116,  47.978
   508.0,0.000226,0.000178,0.001286,0.000116,  47.982
   508.2,0.000220,0.000185,0.001331,0.000129,  47.984
   508.4,0.000217,0.000185,0.001391,0.000107,  47.983
   508.6,0.000218,0.000183,0.001421,0.000094,  47.982
   508.8,0.000212,0.000188,0.001449,0.000129,  47.980
   509.0,0.000218,0.000191,0.001469,0.000107,  47.981
   509.2,0.000224,0.000196,0.001506,0.000143,  47.979
   509.4,0.000221,0.000193,0.001544,0.000143,  47.981
   509.6,0.000232,0.000199,0.001595,0.000107,  47.980
   509.8,0.000240,0.000199,0.001585,0.000129,  47.986
   510.0,0.000239,0.000197,0.001538,0.000138,  47.994
   510.2,0.000245,0.000204,0.001466,0.000116,  48.001
   510.4,0.000248,0.000203,0.001473,0.000151,  48.005
   510.6,0.000242,0.000199,0.001483,0.000151,  48.003
   510.8,0.000248,0.000201,0.001515,0.000129,  47.999
   511.0,0.000245,0.000203,0.001507,0.000165,  47.998
   511.2,0.000236,0.000194,0.001483,0.000178,  48.001
   511.4,0.000240,0.000194,0.001429,0.000143,  47.999
   511.6,0.000240,0.000196,0.001437,0.000178,  48.004
   511.8,0.000236,0.000192,0.001469,0.000178,  48.000
   512.0,0.000231,0.000187,0.001515,0.000143,  48.000
   512.2,0.000228,0.000194,0.001507,0.000165,  48.003
   512.4,0.000220,0.000194,0.001483,0.000174,  48.008
   512.6,0.000214,0.000191,0.001436,0.000151,  48.007
   512.8,0.000213,0.000187,0.001446,0.000151,  48.008
   513.0,0.000207,0.000188,0.001479,0.000187,  48.013
   513.2,0.000201,0.000186,0.001547,0.000165,  48.027
   513.4,0.000198,0.000178,0.001541,0.000165,  48.032
   513.6,0.000196,0.000176,0.001513,0.000165,  48.031
   513.8,0.000189,0.000174,0.001467,0.000143,  48.037
   514.0,0.000196,0.000170,0.001469,0.000178,  48.038
   514.2,0.000193,0.000168,0.001486,0.000165,  48.042
   514.4,0.000184,0.000162,0.001503,0.000143,  48.049
   514.6,0.000188,0.000159,0.001503,0.000165,  48.047
   514.8,0.000189,0.000150,0.001482,0.000151,  48.045
   515.0,0.000182,0.000145,0.001457,0.000129,  48.048
   515.2,0.000177,0.000147,0.001445,0.000151,  48.045
   515.4,0.000181,0.000143,0.001431,0.000138,  48.044
   515.6,0.000175,0.000139,0.001424,0.000116,  48.047
   515.8,0.000169,0.000139,0.001416,0.000151,  48.050
   516.0,0.000170,0.000139,0.001411,0.000138,  48.052
   516.2,0.000161,0.000135,0.001416,0.000138,  48.051
   516.4,0.000168,0.000133,0.001411,0.000116,  48.055
   516.6,0.000174,0.000129,0.001412,0.000151,  48.059
   516.8,0.000162,0.000125,0.001414,0.000138,  48.062
   517.0,0.000161,0.000126,0.001415,0.000138,  48.064
   517.2,0.000153,0.000122,0.001408,0.000138,  48.059
   517.4,0.000150,0.000116,0.001392,0.000138,  48.063
   517.6,0.000147,0.000115,0.001368,0.000116,  48.065
   517.8,0.000151,0.000113,0.001349,0.000151,  48.063
   518.0,0.000147,0.000115,0.001347,0.000138,  48.065
   518.2,0.000150,0.000113,0.001346,0.000103,  48.070
   518.4,0.000155,0.000119,0.001347,0.000138,  48.075
   518.6,0.000154,0.000125,0.001354,0.000111,  48.081
   518.8,0.000162,0.000126,0.001361,0.000076,  48.086
   519.0,0.000165,0.000132,0.001409,0.000125,  48.084
   519.2,0.000167,0.000140,0.001487,0.000111,  48.081
   519.4,0.000169,0.000137,0.001579,0.000089,  48.078
   519.6,0.000181,0.000141,0.001574,0.000125,  48.078
   519.8,0.000188,0.000145,0.001536,0.000125,  48.080
   520.0,0.000201,0.000149,0.001458,0.000103,  48.078
   520.2,0.000223,0.000154,0.001418,0.000138,  48.075
   520.4,0.000220,0.000156,0.001378,0.000138,  48.080
   520.6,0.000212,0.000155,0.001323,0.000116,  48.074
   520.8,0.000205,0.000158,0.001323,0.000151,  48.074
   521.0,0.000193,0.000158,0.001346,0.000151,  48.074
   521.2,0.000185,0.000153,0.001397,0.000129,  48.077
   521.4,0.000183,0.000151,0.001412,0.000151,  48.073
   521.6,0.000181,0.000147,0.001421,0.000151,  48.072
   521.8,0.000176,0.000145,0.001428,0.000129,  48.070
   522.0,0.000169,0.000141,0.001422,0.000151,  48.070
   522.2,0.000173,0.000139,0.001408,0.000151,  48.072
   522.4,0.000164,0.000135,0.001378,0.000129,  48.075
   522.6,0.000161,0.000133,0.001351,0.000151,  48.074
   522.8,0.000162,0.000129,0.001329,0.000151,  48.081
   523.0,0.000156,0.000130,0.001298,0.000129,  48.086
   523.2,0.000153,0.000131,0.001269,0.000151,  48.081
   523.4,0.000160,0.000124,0.001254,0.000151,  48.081
   523.6,0.000153,0.000126,0.001230,0.000129,  48.077
   523.8,0.000153,0.000126,0.001193,0.000151,  48.073
   524.0,0.000154,0.000122,0.001148,0.000151,  48.073
   524.2,0.000148,0.000126,0.001095,0.000129,  48.069
   524.4,0.000151,0.000122,0.001175,0.000151,  48.070
   524.6,0.000154,0.000118,0.001330,0.000138,  48.071
   524.8,0.000148,0.000124,0.001531,0.000125,  48.075
   525.0,0.000154,0.000122,0.001568,0.000103,  48.078
   525.2,0.000155,0.000116,0.001569,0.000138,  48.078
   525.4,0.000144,0.000116,0.001506,0.000138,  48.079
   525.6,0.000145,0.000112,0.001394,0.000138,  48.078
   525.8,0.000134,0.000106,0.001374,0.000138,  48.076
   526.0,0.000125,0.000102,0.001342,0.000138,  48.072
   526.2,0.000131,0.000098,0.001327,0.000116,  48.071
   526.4,0.000131,0.000098,0.001315,0.000138,  48.073
   526.6,0.000128,0.000098,0.001293,0.000125,  48.070
   526.8,0.000133,0.000102,0.001274,0.000089,  48.073
   527.0,0.000136,0.000106,0.001245,0.000111,  48.075
   527.2,0.000135,0.000103,0.001216,0.000098,  48.081
   527.4,0.000140,0.000111,0.001172,0.000063,  48.082
   527.6,0.000152,0.000116,0.001122,0.000098,  48.078
   527.8,0.000151,0.000123,0.001084,0.000098,  48.073
   528.0,0.000153,0.000123,0.001052,0.000063,  48.066
   528.2,0.000162,0.000124,0.001077,0.000111,  48.066
   528.4,0.000161,0.000128,0.001146,0.000111,  48.060
   528.6,0.000164,0.000132,0.001253,0.000076,  48.064
   528.8,0.000173,0.000133,0.001268,0.000125,  48.061
   529.0,0.000167,0.000129,0.001267,0.000111,  48.063
   529.2,0.000167,0.000130,0.001214,0.000089,  48.062
   529.4,0.000168,0.000134,0.001199,0.000125,  48.058
   529.6,0.000156,0.000134,0.001190,0.000125,  48.060
   529.8,0.000153,0.000127,0.001173,0.000103,  48.058
   530.0,0.000154,0.000134,0.001166,0.000125,  48.053
   530.2,0.000148,0.000130,0.001159,0.000125,  48.061
   530.4,0.000148,0.000125,0.001152,0.000103,  48.060
   530.6,0.000152,0.000118,0.001117,0.000125,  48.058
   530.8,0.000149,0.000112,0.001086,0.000125,  48.053
   531.0,0.000149,0.000117,0.001052,0.000103,  48.060
   531.2,0.000146,0.000123,0.001046,0.000125,  48.063
   531.4,0.000153,0.000118,0.001057,0.000125,  48.066
   531.6,0.000152,0.000119,0.001103,0.000103,  48.064
   531.8,0.000158,0.000121,0.001118,0.000125,  48.064
   532.0,0.000161,0.000120,0.001132,0.000125,  48.063
   532.2,0.000157,0.000120,0.001132,0.000103,  48.058
   532.4,0.000157,0.000123,0.001094,0.000125,  48.058
   532.6,0.000157,0.000125,0.001032,0.000125,  48.050
   532.8,0.000153,0.000122,0.000940,0.000089,  48.052
   533.0,0.000153,0.000122,0.000927,0.000111,  48.051
   533.2,0.000160,0.000125,0.000943,0.000133,  48.047
   533.4,0.000156,0.000129,0.000988,0.000098,  48.048
   533.6,0.000153,0.000131,0.001011,0.000111,  48.055
   533.8,0.000157,0.000130,0.001035,0.000111,  48.053
   534.0,0.000148,0.000124,0.001071,0.000111,  48.053
   534.2,0.000146,0.000115,0.001108,0.000076,  48.052
   534.4,0.000142,0.000114,0.001125,0.000125,  48.046
   534.6,0.000136,0.000109,0.001139,0.000111,  48.040
   534.8,0.000136,0.000108,0.001153,0.000111,  48.041
   535.0,0.000138,0.000108,0.001155,0.000111,  48.037
   535.2,0.000135,0.000112,0.001156,0.000111,  48.040
   535.4,0.000132,0.000113,0.001142,0.000076,  48.047
   535.6,0.000138,0.000113,0.001121,0.000111,  48.054
   535.8,0.000135,0.000112,0.001105,0.000098,  48.058
   536.0,0.000141,0.000117,0.001087,0.000063,  48.054
   536.2,0.000150,0.000114,0.001080,0.000098,  48.047
   536.4,0.000149,0.000114,0.001086,0.000098,  48.045
   536.6,0.000158,0.000117,0.001094,0.000063,  48.041
   536.8,0.000163,0.000120,0.001064,0.000111,  48.039
   537.0,0.000169,0.000120,0.001023,0.000111,  48.032
   537.2,0.000169,0.000119,0.000954,0.000089,  48.035
   537.4,0.000175,0.000125,0.000948,0.000125,  48.034
   537.6,0.000177,0.000127,0.000985,0.000125,  48.033
   537.8,0.000169,0.000127,0.001039,0.000103,  48.030
   538.0,0.000172,0.000134,0.001070,0.000138,  48.030
   538.2,0.000169,0.000131,0.001100,0.000138,  48.030
   538.4,0.000166,0.000128,0.001129,0.000116,  48.031
   538.6,0.000163,0.000132,0.001129,0.000151,  48.028
   538.8,0.000160,0.000126,0.001112,0.000138,  48.024
   539.0,0.000163,0.000125,0.001060,0.000116,  48.030
   539.2,0.000163,0.000124,0.001062,0.000138,  48.024
   539.4,0.000163,0.000120,0.001079,0.000125,  48.025
   539.6,0.000166,0.000124,0.001103,0.000103,  48.029
   539.8,0.000166,0.000125,0.001113,0.000125,  48.029
   540.0,0.000169,0.000125,0.001128,0.000125,  48.039
   540.2,0.000165,0.000133,0.001142,0.000103,  48.032
   540.4,0.000171,0.000135,0.001158,0.000125,  48.025
   540.6,0.000174,0.000136,0.001173,0.000125,  48.023
   540.8,0.000170,0.000147,0.001199,0.000103,  48.020
   541.0,0.000179,0.000149,0.001204,0.000125,  48.019
   541.2,0.000182,0.000148,0.001197,0.000125,  48.015
   541.4,0.000181,0.000153,0.001194,0.000103,  48.016
   541.6,0.000190,0.000154,0.001194,0.000125,  48.013
   541.8,0.000192,0.000156,0.001200,0.000125,  48.013
   542.0,0.000189,0.000158,0.001214,0.000089,  48.010
   542.2,0.000192,0.000161,0.001230,0.000098,  48.013
   542.4,0.000190,0.000161,0.001252,0.000107,  48.019
   542.6,0.000183,0.000163,0.001282,0.000107,  48.012
   542.8,0.000181,0.000152,0.001319,0.000085,  48.010
   543.0,0.000173,0.000150,0.001340,0.000133,  48.006
   543.2,0.000167,0.000145,0.001347,0.000147,  47.992
   543.4,0.000169,0.000141,0.001347,0.000147,  47.994
   543.6,0.000173,0.000139,0.001337,0.000147,  47.989
   543.8,0.000167,0.000139,0.001301,0.000147,  47.991
   544.0,0.000172,0.000143,0.001245,0.000125,  48.001
   544.2,0.000178,0.000145,0.001214,0.000125,  48.009
   544.4,0.000172,0.000144,0.001190,0.000125,  48.031
   544.6,0.000175,0.000145,0.001159,0.000103,  48.024
   544.8,0.000172,0.000143,0.001160,0.000125,  48.023
   545.0,0.000166,0.000138,0.001183,0.000125,  48.017
   545.2,0.000175,0.000140,0.001216,0.000103,  48.017
   545.4,0.000178,0.000144,0.001226,0.000125,  48.011
   545.6,0.000172,0.000188,0.001234,0.000125,  48.015
   545.8,0.000175,0.000255,0.001241,0.000103,  48.008
   546.0,0.000178,0.000335,0.001251,0.000116,  47.994
   546.2,0.000172,0.000335,0.001274,0.000129,  47.989
   546.4,0.000175,0.000305,0.001289,0.000107,  47.987
   546.6,0.000178,0.000246,0.001289,0.000094,  47.988
   546.8,0.000172,0.000223,0.001288,0.000116,  47.991
   547.0,0.000169,0.000201,0.001278,0.000094,  47.987
   547.2,0.000170,0.000188,0.001271,0.000081,  47.991
   547.4,0.000164,0.000174,0.001276,0.000103,  47.991
   547.6,0.000164,0.000162,0.001278,0.000067,  47.993
   547.8,0.000170,0.000155,0.001241,0.000103,  47.995
   548.0,0.000173,0.000152,0.001194,0.000111,  47.994
   548.2,0.000173,0.000146,0.001132,0.000076,  47.998
   548.4,0.000169,0.000151,0.001134,0.000125,  48.011
   548.6,0.000176,0.000147,0.001151,0.000111,  48.030
   548.8,0.000172,0.000144,0.001203,0.000076,  48.025
   549.0,0.000175,0.000141,0.001204,0.000125,  48.028
   549.2,0.000175,0.000139,0.001182,0.000111,  48.023
   549.4,0.000171,0.000137,0.001156,0.000076,  48.023
   549.6,0.000175,0.000141,0.001172,0.000125,  48.024
   549.8,0.000175,0.000143,0.001196,0.000111,  48.028
   550.0,0.000171,0.000143,0.001234,0.000076,  48.028
   550.2,0.000177,0.000143,0.001226,0.000125,  48.028
   550.4,0.000177,0.000145,0.001201,0.000111,  48.029
   550.6,0.000174,0.000145,0.001141,0.000076,  48.032
   550.8,0.000177,0.000145,0.001146,0.000125,  48.034
   551.0,0.000181,0.000143,0.001155,0.000111,  48.042
   551.2,0.000175,0.000142,0.001190,0.000111,  48.035
   551.4,0.000169,0.000140,0.001234,0.000089,  48.038
   551.6,0.000170,0.000142,0.001265,0.000138,  48.037
   551.8,0.000164,0.000142,0.001288,0.000138,  48.041
   552.0,0.000167,0.000143,0.001319,0.000138,  48.038
   552.2,0.000173,0.000144,0.001319,0.000125,  48.046
   552.4,0.000167,0.000148,0.001289,0.000111,  48.046
   552.6,0.000178,0.000144,0.001250,0.000089,  48.058
   552.8,0.000184,0.000144,0.001258,0.000125,  48.068
   553.0,0.000181,0.000143,0.001276,0.000125,  48.068
   553.2,0.000192,0.000146,0.001315,0.000103,  48.067
   553.4,0.000195,0.000153,0.001309,0.000125,  48.055
   553.6,0.000197,0.000157,0.001301,0.000125,  48.057
   553.8,0.000199,0.000157,0.001284,0.000103,  48.058
   554.0,0.000205,0.000159,0.001330,0.000125,  48.059
   554.2,0.000204,0.000160,0.001400,0.000125,  48.057
   554.4,0.000204,0.000156,0.001506,0.000103,  48.058
   554.6,0.000204,0.000158,0.001520,0.000125,  48.055
   554.8,0.000197,0.000158,0.001489,0.000125,  48.054
   555.0,0.000198,0.000154,0.001432,0.000103,  48.057
   555.2,0.000190,0.000155,0.001432,0.000125,  48.053
   555.4,0.000182,0.000153,0.001441,0.000125,  48.056
   555.6,0.000185,0.000151,0.001469,0.000103,  48.053
   555.8,0.000180,0.000147,0.001476,0.000138,  48.057
   556.0,0.000177,0.000145,0.001476,0.000138,  48.056
   556.2,0.000168,0.000143,0.001462,0.000116,  48.054
   556.4,0.000177,0.000139,0.001448,0.000138,  48.062
   556.6,0.000175,0.000142,0.001425,0.000125,  48.060
   556.8,0.000171,0.000142,0.001395,0.000103,  48.069
   557.0,0.000175,0.000141,0.001395,0.000125,  48.073
   557.2,0.000172,0.000143,0.001391,0.000125,  48.073
   557.4,0.000166,0.000138,0.001407,0.000089,  48.069
   557.6,0.000172,0.000133,0.001377,0.000125,  48.064
   557.8,0.000169,0.000131,0.001330,0.000111,  48.062
   558.0,0.000163,0.000131,0.001268,0.000076,  48.064
   558.2,0.000167,0.000133,0.001269,0.000125,  48.062
   558.4,0.000164,0.000129,0.001292,0.000111,  48.062
   558.6,0.000158,0.000126,0.001332,0.000076,  48.057
   558.8,0.000164,0.000124,0.001333,0.000125,  48.058
   559.0,0.000170,0.000122,0.001333,0.000111,  48.061
   559.2,0.000161,0.000115,0.001318,0.000076,  48.061
   559.4,0.000156,0.000117,0.001319,0.000125,  48.072
   559.6,0.000157,0.000115,0.001346,0.000111,  48.074
   559.8,0.000145,0.000113,0.001349,0.000111,  48.071
   560.0,0.000140,0.000112,0.001376,0.000076,  48.069
   560.2,0.000144,0.000110,0.001353,0.000125,  48.068
   560.4,0.000137,0.000110,0.001302,0.000111,  48.068
   560.6,0.000137,0.000107,0.001250,0.000111,  48.067
   560.8,0.000146,0.000105,0.001244,0.000111,  48.070
   561.0,0.000143,0.000111,0.001252,0.000098,  48.075
   561.2,0.000148,0.000111,0.001269,0.000063,  48.083
   561.4,0.000154,0.000111,0.001248,0.000098,  48.090
   561.6,0.000177,0.000111,0.001219,0.000098,  48.092
   561.8,0.000222,0.000113,0.001170,0.000063,  48.091
   562.0,0.000284,0.000117,0.001163,0.000098,  48.083
   562.2,0.000283,0.000115,0.001179,0.000098,  48.082
   562.4,0.000265,0.000123,0.001203,0.000063,  48.082
   562.6,0.000228,0.000125,0.001203,0.000111,  48.081
   562.8,0.000213,0.000129,0.001203,0.000111,  48.082
   563.0,0.000209,0.000130,0.001196,0.000076,  48.080
   563.2,0.000207,0.000131,0.001211,0.000125,  48.087
   563.4,0.000196,0.000133,0.001220,0.000111,  48.083
   563.6,0.000188,0.000132,0.001241,0.000076,  48.084
   563.8,0.000183,0.000132,0.001250,0.000125,  48.085
   564.0,0.000172,0.000128,0.001243,0.000111,  48.087
   564.2,0.000170,0.000120,0.001240,0.000076,  48.087
   564.4,0.000169,0.000117,0.001247,0.000125,  48.091
   564.6,0.000166,0.000117,0.001241,0.000111,  48.086
   564.8,0.000166,0.000121,0.001234,0.000076,  48.092
   565.0,0.000163,0.000121,0.001241,0.000111,  48.086
   565.2,0.000166,0.000118,0.001228,0.000098,  48.091
   565.4,0.000160,0.000118,0.001221,0.000049,  48.095
   565.6,0.000162,0.000121,0.001183,0.000071,  48.099
   565.8,0.000162,0.000127,0.001115,0.000080,  48.097
   566.0,0.000159,0.000125,0.001030,0.000058,  48.094
   566.2,0.000156,0.000123,0.001015,0.000058,  48.092
   566.4,0.000156,0.000127,0.001009,0.000107,  48.093
   566.6,0.000152,0.000129,0.001037,0.000085,  48.087
   566.8,0.000159,0.000127,0.001067,0.000098,  48.091
   567.0,0.000161,0.000131,0.001091,0.000120,  48.087
   567.2,0.000158,0.000134,0.001136,0.000085,  48.084
   567.4,0.000167,0.000139,0.001159,0.000098,  48.094
   567.6,0.000167,0.000145,0.001168,0.000098,  48.095
   567.8,0.000160,0.000142,0.001187,0.000098,  48.096
   568.0,0.000167,0.000141,0.001186,0.000063,  48.103
   568.2,0.000161,0.000139,0.001193,0.000098,  48.103
   568.4,0.000155,0.000133,0.001204,0.000098,  48.106
   568.6,0.000155,0.000137,0.001217,0.000098,  48.106
   568.8,0.000158,0.000135,0.001240,0.000098,  48.105
   569.0,0.000157,0.000143,0.001257,0.000111,  48.107
   569.2,0.000162,0.000148,0.001293,0.000076,  48.112
   569.4,0.000174,0.000154,0.001295,0.000125,  48.112
   569.6,0.000173,0.000158,0.001292,0.000111,  48.119
   569.8,0.000184,0.000157,0.001268,0.000076,  48.121
   570.0,0.000196,0.000163,0.001284,0.000125,  48.129
   570.2,0.000195,0.000169,0.001313,0.000111,  48.128
   570.4,0.000206,0.000169,0.001350,0.000089,  48.122
   570.6,0.000206,0.000173,0.001351,0.000125,  48.118
   570.8,0.000205,0.000175,0.001356,0.000125,  48.120
   571.0,0.000212,0.000174,0.001339,0.000103,  48.119
   571.2,0.000218,0.000178,0.001325,0.000138,  48.119
   571.4,0.000214,0.000178,0.001315,0.000138,  48.122
   571.6,0.000221,0.000178,0.001305,0.000116,  48.119
   571.8,0.000224,0.000179,0.001334,0.000151,  48.118
   572.0,0.000215,0.000179,0.001373,0.000151,  48.117
   572.2,0.000221,0.000179,0.001425,0.000129,  48.121
   572.4,0.000221,0.000177,0.001456,0.000165,  48.125
   572.6,0.000221,0.000178,0.001480,0.000165,  48.123
   572.8,0.000221,0.000175,0.001496,0.000143,  48.123
   573.0,0.000221,0.000175,0.001518,0.000178,  48.123
   573.2,0.000221,0.000177,0.001527,0.000165,  48.121
   573.4,0.000218,0.000178,0.001552,0.000143,  48.123
   573.6,0.000224,0.000185,0.001574,0.000178,  48.124
   573.8,0.000227,0.000186,0.001582,0.000165,  48.127
   574.0,0.000226,0.000187,0.001595,0.000143,  48.134
   574.2,0.000237,0.000195,0.001616,0.000151,  48.133
   574.4,0.000237,0.000191,0.001626,0.000160,  48.128
   574.6,0.000240,0.000195,0.001640,0.000138,  48.128
   574.8,0.000237,0.000197,0.001654,0.000151,  48.122
   575.0,0.000241,0.000190,0.001670,0.000165,  48.123
   575.2,0.000235,0.000190,0.001690,0.000143,  48.122
   575.4,0.000228,0.000187,0.001695,0.000143,  48.124
   575.6,0.000226,0.000189,0.001676,0.000143,  48.127
   575.8,0.000223,0.000185,0.001659,0.000143,  48.124
   576.0,0.000221,0.000181,0.001629,0.000107,  48.127
   576.2,0.000228,0.000179,0.001643,0.000107,  48.125
   576.4,0.000216,0.000175,0.001651,0.000143,  48.126
   576.6,0.000205,0.000171,0.001673,0.000107,  48.132
   576.8,0.000197,0.000164,0.001671,0.000143,  48.132
   577.0,0.000188,0.000154,0.001649,0.000143,  48.130
   577.2,0.000188,0.000158,0.001617,0.000107,  48.129
   577.4,0.000189,0.000156,0.001605,0.000107,  48.133
   577.6,0.000182,0.000153,0.001612,0.000129,  48.127
   577.8,0.000182,0.000159,0.001608,0.000107,  48.132
   578.0,0.000191,0.000161,0.001586,0.000094,  48.138
   578.2,0.000188,0.000161,0.001557,0.000103,  48.156
   578.4,0.000188,0.000166,0.001517,0.000081,  48.167
   578.6,0.000194,0.000169,0.001518,0.000081,  48.166
   578.8,0.000190,0.000169,0.001528,0.000103,  48.164
   579.0,0.000199,0.000165,0.001552,0.000081,  48.161
   579.2,0.000203,0.000160,0.001552,0.000081,  48.162
   579.4,0.000197,0.000162,0.001531,0.000103,  48.156
   579.6,0.000206,0.000164,0.001507,0.000081,  48.159
   579.8,0.000203,0.000166,0.001507,0.000081,  48.160
   580.0,0.000194,0.000162,0.001500,0.000081,  48.159
   580.2,0.000198,0.000157,0.001494,0.000094,  48.157
   580.4,0.000192,0.000149,0.001503,0.000081,  48.161
