Run Name,50
Run Date,12:33:56 PM   03-19-12
Method Name,group 03242012
Export Format Version, 1.00
Method ID, 1393
Points/Second, 5.00
Number of Records,   3180
Offset from Run Start Time,00:00:00
Run End Time,00:10:36
Time,Second
QuadTec 1, (280.0 nm), AU
QuadTec 2, (260.0 nm), AU
Gradient Pump,<Not Selected>
QuadTec 3, (214.0 nm), AU
QuadTec 4, (405.0 nm), AU
Conductivity,mS/cm
Trace 6,<Not Available>
GP Pressure,<Not Selected>
Volume,<Not Selected>
Fraction,<Not Available>
Time,QuadTec 1,QuadTec 2,QuadTec 3,QuadTec 4,Conductivity
     0.0,-0.000415,0.000000,1.000000,0.000000,  47.903
     0.2,-0.000409,0.000000,1.000000,0.000000,  47.901
     0.4,-0.000415,0.000000,1.000000,0.000000,  47.901
     0.6,-0.000409,0.000000,1.000000,0.000000,  47.898
     0.8,0.000000,0.000000,0.000000,0.000000,  47.899
     1.0,0.000000,0.000000,0.000000,0.000000,  47.897
     1.2,0.000000,0.000000,0.000000,0.000000,  47.899
     1.4,0.000000,0.000000,0.000000,0.000000,  47.895
     1.6,0.000000,0.000000,0.000000,0.000000,  47.893
     1.8,0.000000,0.000000,0.000000,0.000000,  47.893
     2.0,0.000000,0.000000,0.000000,0.000000,  47.888
     2.2,0.000000,0.000000,0.000000,0.000000,  47.887
     2.4,0.000000,0.000000,0.000000,0.000000,  47.886
     2.6,0.000000,0.000000,0.000000,0.000000,  47.882
     2.8,0.000000,0.000000,0.000000,0.000000,  47.884
     3.0,0.000000,0.000000,0.000000,0.000000,  47.883
     3.2,0.000000,0.000000,0.000000,0.000000,  47.885
     3.4,0.000000,0.000000,0.000000,0.000000,  47.877
     3.6,0.000000,0.000000,0.000000,0.000000,  47.880
     3.8,0.000000,0.000000,0.000000,0.000000,  47.873
     4.0,0.000000,0.000014,-0.000178,0.000000,  47.878
     4.2,0.000014,0.000017,-0.002036,0.000000,  47.877
     4.4,0.000016,0.000022,-0.003287,0.000086,  47.871
     4.6,0.000027,0.000029,-0.003935,0.000042,  47.876
     4.8,0.000035,0.000033,-0.003988,0.000054,  47.872
     5.0,0.000043,0.000037,-0.003446,0.000067,  47.869
     5.2,0.000050,0.000041,-0.002299,0.000058,  47.866
     5.4,0.000071,0.000042,-0.001915,0.000083,  47.867
     5.6,0.000076,0.000048,-0.001623,0.000096,  47.866
     5.8,0.000081,0.000052,-0.001405,0.000087,  47.865
     6.0,0.000092,0.000053,-0.001219,0.000112,  47.860
     6.2,0.000100,0.000059,-0.001089,0.000125,  47.862
     6.4,0.000105,0.000057,-0.001015,0.000115,  47.860
     6.6,0.000116,0.000064,-0.000916,0.000141,  47.859
     6.8,0.000123,0.000069,-0.000827,0.000141,  47.863
     7.0,0.000126,0.000070,-0.000766,0.000132,  47.856
     7.2,0.000129,0.000074,-0.000705,0.000144,  47.859
     7.4,0.000134,0.000079,-0.000661,0.000144,  47.857
     7.6,0.000133,0.000081,-0.000624,0.000135,  47.854
     7.8,0.000135,0.000085,-0.000988,0.000148,  47.855
     8.0,0.000141,0.000083,-0.001542,0.000148,  47.851
     8.2,0.000140,0.000080,-0.002308,0.000126,  47.851
     8.4,0.000142,0.000084,-0.002309,0.000138,  47.851
     8.6,0.000141,0.000085,-0.002025,0.000151,  47.850
     8.8,0.000144,0.000080,-0.001466,0.000142,  47.851
     9.0,0.000135,0.000078,-0.001284,0.000107,  47.844
     9.2,0.000131,0.000075,-0.001154,0.000142,  47.845
     9.4,0.000134,0.000076,-0.001079,0.000155,  47.847
     9.6,0.000134,0.000079,-0.000988,0.000133,  47.846
     9.8,0.000136,0.000076,-0.000910,0.000133,  47.841
    10.0,0.000133,0.000075,-0.000844,0.000145,  47.824
    10.2,0.000129,0.000073,-0.000789,0.000111,  47.826
    10.4,0.000138,0.000070,-0.000728,0.000123,  47.827
    10.6,0.000134,0.000071,-0.000667,0.000101,  47.826
    10.8,0.000137,0.000066,-0.000645,0.000101,  47.822
    11.0,0.000128,0.000064,-0.000634,0.000101,  47.822
    11.2,0.000125,0.000063,-0.000641,0.000079,  47.819
    11.4,0.000121,0.000061,-0.000670,0.000079,  47.821
    11.6,0.000117,0.000061,-0.000725,0.000044,  47.819
    11.8,0.000107,0.000058,-0.000804,0.000079,  47.820
    12.0,0.000107,0.000053,-0.000783,0.000092,  47.816
    12.2,0.000110,0.000048,-0.000730,0.000105,  47.818
    12.4,0.000106,0.000045,-0.000643,0.000105,  47.817
    12.6,0.000109,0.000044,-0.000608,0.000083,  47.816
    12.8,0.000112,0.000039,-0.000593,0.000083,  47.813
    13.0,0.000108,0.000036,-0.000574,0.000117,  47.813
    13.2,0.000111,0.000042,-0.000580,0.000095,  47.817
    13.4,0.000108,0.000041,-0.000574,0.000095,  47.811
    13.6,0.000104,0.000040,-0.000570,0.000117,  47.808
    13.8,0.000104,0.000040,-0.000575,0.000083,  47.811
    14.0,0.000104,0.000039,-0.000595,0.000095,  47.809
    14.2,0.000095,0.000033,-0.000628,0.000143,  47.808
    14.4,0.000086,0.000035,-0.000651,0.000108,  47.810
    14.6,0.000086,0.000035,-0.000671,0.000121,  47.810
    14.8,0.000082,0.000027,-0.000691,0.000121,  47.812
    15.0,0.000067,0.000033,-0.000706,0.000099,  47.806
    15.2,0.000073,0.000027,-0.000716,0.000111,  47.809
    15.4,0.000070,0.000022,-0.000722,0.000111,  47.810
    15.6,0.000064,0.000023,-0.000727,0.000089,  47.813
    15.8,0.000064,0.000020,-0.000723,0.000089,  47.811
    16.0,0.000060,0.000017,-0.000717,0.000111,  47.811
    16.2,0.000056,0.000012,-0.000698,0.000089,  47.811
    16.4,0.000056,0.000008,-0.000711,0.000089,  47.809
    16.6,0.000053,0.000000,-0.000733,0.000111,  47.810
    16.8,0.000053,0.000004,-0.000769,0.000089,  47.811
    17.0,0.000053,-0.000006,-0.000771,0.000089,  47.813
    17.2,0.000049,-0.000011,-0.000750,0.000089,  47.814
    17.4,0.000049,-0.000009,-0.000720,0.000067,  47.814
    17.6,0.000049,-0.000009,-0.000990,0.000067,  47.810
    17.8,0.000045,-0.000011,-0.001412,0.000080,  47.809
    18.0,0.000044,-0.000011,-0.001968,0.000058,  47.809
    18.2,0.000044,-0.000011,-0.001990,0.000023,  47.813
    18.4,0.000047,-0.000018,-0.001818,0.000058,  47.810
    18.6,0.000038,-0.000018,-0.001461,0.000071,  47.810
    18.8,0.000041,-0.000018,-0.001340,0.000036,  47.812
    19.0,0.000036,-0.000021,-0.001210,0.000058,  47.808
    19.2,0.000024,-0.000030,-0.001116,0.000058,  47.809
    19.4,0.000031,-0.000031,-0.001026,0.000023,  47.812
    19.6,0.000030,-0.000032,-0.000935,0.000058,  47.811
    19.8,0.000026,-0.000037,-0.000855,0.000045,  47.815
    20.0,0.000016,-0.000037,-0.000807,0.000011,  47.813
    20.2,0.000019,-0.000045,-0.000774,0.000045,  47.816
    20.4,0.000014,-0.000049,-0.000758,0.000045,  47.815
    20.6,0.000013,-0.000048,-0.000748,-0.000002,  47.815
    20.8,0.000010,-0.000052,-0.000763,-0.000002,  47.819
    21.0,0.000001,-0.000052,-0.000801,0.000020,  47.814
    21.2,0.000005,-0.000050,-0.000809,-0.000002,  47.817
    21.4,-0.000000,-0.000059,-0.000807,0.000020,  47.820
    21.6,-0.000009,-0.000056,-0.000812,0.000020,  47.816
    21.8,-0.000003,-0.000061,-0.000810,0.000033,  47.819
    22.0,-0.000005,-0.000067,-0.000839,-0.000015,  47.819
    22.2,-0.000012,-0.000069,-0.000872,0.000020,  47.820
    22.4,-0.000003,-0.000066,-0.000912,0.000033,  47.818
    22.6,-0.000005,-0.000069,-0.000890,-0.000002,  47.813
    22.8,-0.000012,-0.000070,-0.000831,0.000033,  47.818
    23.0,-0.000005,-0.000070,-0.000757,0.000045,  47.820
    23.2,-0.000011,-0.000072,-0.000742,0.000011,  47.820
    23.4,-0.000017,-0.000072,-0.000731,0.000011,  47.822
    23.6,-0.000012,-0.000076,-0.000736,0.000023,  47.818
    23.8,-0.000018,-0.000074,-0.000756,0.000023,  47.817
    24.0,-0.000024,-0.000079,-0.000787,0.000023,  47.822
    24.2,-0.000022,-0.000085,-0.000820,0.000036,  47.819
    24.4,-0.000024,-0.000087,-0.000826,0.000014,  47.818
    24.6,-0.000034,-0.000093,-0.000836,0.000001,  47.820
    24.8,-0.000034,-0.000097,-0.000832,0.000001,  47.822
    25.0,-0.000034,-0.000096,-0.000819,-0.000021,  47.817
    25.2,-0.000038,-0.000100,-0.000799,0.000014,  47.822
    25.4,-0.000038,-0.000100,-0.000776,-0.000021,  47.825
    25.6,-0.000029,-0.000094,-0.000746,-0.000008,  47.821
    25.8,-0.000026,-0.000097,-0.000713,-0.000008,  47.821
    26.0,-0.000032,-0.000097,-0.000685,-0.000030,  47.819
    26.2,-0.000032,-0.000094,-0.000705,-0.000017,  47.822
    26.4,-0.000032,-0.000097,-0.000751,-0.000017,  47.824
    26.6,-0.000036,-0.000098,-0.000815,-0.000040,  47.823
    26.8,-0.000036,-0.000098,-0.000802,-0.000027,  47.826
    27.0,-0.000045,-0.000099,-0.000756,0.000008,  47.819
    27.2,-0.000048,-0.000102,-0.000686,-0.000014,  47.823
    27.4,-0.000048,-0.000101,-0.000715,-0.000014,  47.817
    27.6,-0.000048,-0.000102,-0.000784,0.000008,  47.823
    27.8,-0.000052,-0.000102,-0.000889,-0.000001,  47.819
    28.0,-0.000049,-0.000104,-0.000876,-0.000001,  47.822
    28.2,-0.000049,-0.000108,-0.000827,-0.000001,  47.821
    28.4,-0.000053,-0.000105,-0.000728,0.000011,  47.815
    28.6,-0.000051,-0.000107,-0.000717,-0.000011,  47.817
    28.8,-0.000047,-0.000106,-0.000732,0.000011,  47.822
    29.0,-0.000053,-0.000111,-0.000784,0.000011,  47.820
    29.2,-0.000057,-0.000109,-0.000904,-0.000011,  47.821
    29.4,-0.000057,-0.000113,-0.001078,-0.000011,  47.820
    29.6,-0.000067,-0.000115,-0.001306,-0.000011,  47.818
    29.8,-0.000067,-0.000119,-0.001577,-0.000045,  47.820
    30.0,-0.000067,-0.000124,-0.001465,-0.000033,  47.824
    30.2,-0.000070,-0.000126,-0.001226,-0.000033,  47.824
    30.4,-0.000076,-0.000127,-0.000859,-0.000020,  47.820
    30.6,-0.000070,-0.000129,-0.000777,-0.000020,  47.822
    30.8,-0.000068,-0.000132,-0.000782,-0.000020,  47.823
    31.0,-0.000077,-0.000130,-0.000877,-0.000042,  47.823
    31.2,-0.000077,-0.000135,-0.000875,-0.000042,  47.819
    31.4,-0.000081,-0.000136,-0.000873,-0.000042,  47.824
    31.6,-0.000081,-0.000141,-0.000877,-0.000064,  47.827
    31.8,-0.000084,-0.000141,-0.000854,-0.000051,  47.824
    32.0,-0.000087,-0.000141,-0.000810,-0.000017,  47.822
    32.2,-0.000090,-0.000144,-0.000762,-0.000004,  47.825
    32.4,-0.000092,-0.000146,-0.000747,-0.000004,  47.823
    32.6,-0.000096,-0.000147,-0.000741,-0.000017,  47.825
    32.8,-0.000096,-0.000149,-0.000746,-0.000004,  47.825
    33.0,-0.000093,-0.000150,-0.000742,-0.000039,  47.827
    33.2,-0.000100,-0.000150,-0.000745,-0.000039,  47.826
    33.4,-0.000100,-0.000150,-0.000751,-0.000026,  47.826
    33.6,-0.000100,-0.000150,-0.000806,-0.000061,  47.827
    33.8,-0.000106,-0.000153,-0.000894,-0.000026,  47.819
    34.0,-0.000106,-0.000160,-0.001015,-0.000013,  47.820
    34.2,-0.000102,-0.000160,-0.001051,-0.000035,  47.826
    34.4,-0.000106,-0.000168,-0.001057,-0.000048,  47.823
    34.6,-0.000106,-0.000173,-0.001040,-0.000048,  47.823
    34.8,-0.000108,-0.000170,-0.001034,-0.000035,  47.821
    35.0,-0.000108,-0.000175,-0.001016,-0.000035,  47.825
    35.2,-0.000108,-0.000177,-0.001002,-0.000035,  47.823
    35.4,-0.000115,-0.000181,-0.000987,-0.000057,  47.827
    35.6,-0.000115,-0.000183,-0.000969,-0.000057,  47.831
    35.8,-0.000121,-0.000180,-0.000956,-0.000079,  47.829
    36.0,-0.000127,-0.000177,-0.000933,-0.000067,  47.825
    36.2,-0.000127,-0.000182,-0.000905,-0.000067,  47.827
    36.4,-0.000125,-0.000187,-0.000878,-0.000089,  47.827
    36.6,-0.000131,-0.000191,-0.000870,-0.000054,  47.827
    36.8,-0.000133,-0.000192,-0.000844,-0.000067,  47.831
    37.0,-0.000131,-0.000196,-0.000833,-0.000067,  47.828
    37.2,-0.000137,-0.000199,-0.000851,-0.000089,  47.830
    37.4,-0.000133,-0.000201,-0.000867,-0.000101,  47.829
    37.6,-0.000137,-0.000201,-0.000913,-0.000054,  47.829
    37.8,-0.000140,-0.000205,-0.000937,-0.000089,  47.829
    38.0,-0.000142,-0.000212,-0.000966,-0.000076,  47.831
    38.2,-0.000146,-0.000212,-0.000997,-0.000089,  47.830
    38.4,-0.000142,-0.000211,-0.001028,-0.000111,  47.832
    38.6,-0.000145,-0.000213,-0.000996,-0.000111,  47.831
    38.8,-0.000151,-0.000217,-0.000948,-0.000111,  47.832
    39.0,-0.000151,-0.000216,-0.000861,-0.000133,  47.833
    39.2,-0.000156,-0.000216,-0.000874,-0.000098,  47.832
    39.4,-0.000162,-0.000220,-0.000925,-0.000111,  47.832
    39.6,-0.000162,-0.000220,-0.001013,-0.000133,  47.833
    39.8,-0.000165,-0.000223,-0.001042,-0.000098,  47.831
    40.0,-0.000174,-0.000223,-0.001064,-0.000111,  47.829
    40.2,-0.000170,-0.000228,-0.001077,-0.000133,  47.831
    40.4,-0.000173,-0.000229,-0.001106,-0.000098,  47.833
    40.6,-0.000182,-0.000228,-0.001144,-0.000098,  47.835
    40.8,-0.000175,-0.000231,-0.001190,-0.000120,  47.833
    41.0,-0.000175,-0.000231,-0.001206,-0.000120,  47.831
    41.2,-0.000179,-0.000235,-0.001204,-0.000120,  47.832
    41.4,-0.000173,-0.000240,-0.001205,-0.000142,  47.828
    41.6,-0.000175,-0.000242,-0.001183,-0.000129,  47.832
    41.8,-0.000179,-0.000246,-0.001146,-0.000142,  47.833
    42.0,-0.000182,-0.000244,-0.001102,-0.000142,  47.832
    42.2,-0.000187,-0.000249,-0.001248,-0.000129,  47.835
    42.4,-0.000190,-0.000256,-0.001486,-0.000129,  47.839
    42.6,-0.000190,-0.000253,-0.001807,-0.000164,  47.838
    42.8,-0.000193,-0.000257,-0.001808,-0.000164,  47.833
    43.0,-0.000190,-0.000259,-0.001690,-0.000164,  47.834
    43.2,-0.000190,-0.000262,-0.001461,-0.000199,  47.840
    43.4,-0.000193,-0.000261,-0.001384,-0.000186,  47.839
    43.6,-0.000193,-0.000265,-0.001332,-0.000152,  47.837
    43.8,-0.000199,-0.000265,-0.001306,-0.000139,  47.834
    44.0,-0.000199,-0.000265,-0.001279,-0.000139,  47.836
    44.2,-0.000196,-0.000268,-0.001253,-0.000139,  47.835
    44.4,-0.000202,-0.000272,-0.001258,-0.000126,  47.837
    44.6,-0.000211,-0.000272,-0.001254,-0.000126,  47.837
    44.8,-0.000213,-0.000273,-0.001250,-0.000126,  47.842
    45.0,-0.000219,-0.000273,-0.001248,-0.000113,  47.839
    45.2,-0.000223,-0.000278,-0.001217,-0.000148,  47.838
    45.4,-0.000217,-0.000279,-0.001156,-0.000148,  47.838
    45.6,-0.000214,-0.000279,-0.001076,-0.000148,  47.840
    45.8,-0.000218,-0.000283,-0.001035,-0.000170,  47.842
    46.0,-0.000218,-0.000288,-0.000991,-0.000196,  47.837
    46.2,-0.000215,-0.000287,-0.000949,-0.000161,  47.838
    46.4,-0.000224,-0.000290,-0.001066,-0.000196,  47.837
    46.6,-0.000220,-0.000297,-0.001271,-0.000183,  47.839
    46.8,-0.000220,-0.000295,-0.001541,-0.000183,  47.833
    47.0,-0.000227,-0.000299,-0.001611,-0.000170,  47.832
    47.2,-0.000223,-0.000303,-0.001607,-0.000170,  47.833
    47.4,-0.000229,-0.000301,-0.001539,-0.000170,  47.833
    47.6,-0.000229,-0.000300,-0.001406,-0.000145,  47.826
    47.8,-0.000234,-0.000308,-0.001373,-0.000180,  47.827
    48.0,-0.000243,-0.000311,-0.001367,-0.000180,  47.824
    48.2,-0.000246,-0.000311,-0.001364,-0.000202,  47.818
    48.4,-0.000257,-0.000315,-0.001360,-0.000189,  47.821
    48.6,-0.000263,-0.000323,-0.001363,-0.000202,  47.819
    48.8,-0.000262,-0.000324,-0.001383,-0.000237,  47.815
    49.0,-0.000262,-0.000324,-0.001393,-0.000189,  47.812
    49.2,-0.000266,-0.000329,-0.001392,-0.000202,  47.808
    49.4,-0.000262,-0.000332,-0.001409,-0.000237,  47.808
    49.6,-0.000262,-0.000336,-0.001392,-0.000189,  47.804
    49.8,-0.000269,-0.000344,-0.001348,-0.000189,  47.800
    50.0,-0.000274,-0.000344,-0.001294,-0.000224,  47.798
    50.2,-0.000279,-0.000345,-0.001312,-0.000211,  47.798
    50.4,-0.000288,-0.000348,-0.001349,-0.000211,  47.793
    50.6,-0.000290,-0.000353,-0.001411,-0.000246,  47.793
    50.8,-0.000289,-0.000357,-0.001414,-0.000233,  47.793
    51.0,-0.000296,-0.000361,-0.001401,-0.000211,  47.784
    51.2,-0.000296,-0.000360,-0.001372,-0.000233,  47.787
    51.4,-0.000296,-0.000362,-0.001408,-0.000233,  47.783
    51.6,-0.000299,-0.000366,-0.001470,-0.000233,  47.781
    51.8,-0.000302,-0.000368,-0.001564,-0.000255,  47.780
    52.0,-0.000304,-0.000368,-0.001593,-0.000233,  47.779
    52.2,-0.000304,-0.000367,-0.001605,-0.000233,  47.780
    52.4,-0.000311,-0.000370,-0.001614,-0.000255,  47.775
    52.6,-0.000311,-0.000374,-0.001603,-0.000233,  47.767
    52.8,-0.000313,-0.000376,-0.001597,-0.000233,  47.769
    53.0,-0.000313,-0.000376,-0.001582,-0.000255,  47.763
    53.2,-0.000313,-0.000379,-0.001545,-0.000255,  47.761
    53.4,-0.000313,-0.000386,-0.001506,-0.000255,  47.755
    53.6,-0.000313,-0.000386,-0.001454,-0.000277,  47.748
    53.8,-0.000319,-0.000387,-0.001551,-0.000277,  47.745
    54.0,-0.000322,-0.000390,-0.001701,-0.000255,  47.743
    54.2,-0.000322,-0.000395,-0.001917,-0.000277,  47.740
    54.4,-0.000328,-0.000396,-0.001952,-0.000277,  47.735
    54.6,-0.000331,-0.000399,-0.001924,-0.000242,  47.734
    54.8,-0.000331,-0.000397,-0.001832,-0.000242,  47.736
    55.0,-0.000334,-0.000401,-0.001779,-0.000277,  47.732
    55.2,-0.000331,-0.000404,-0.001723,-0.000265,  47.732
    55.4,-0.000331,-0.000406,-0.001648,-0.000265,  47.728
    55.6,-0.000334,-0.000408,-0.001611,-0.000252,  47.727
    55.8,-0.000328,-0.000406,-0.001574,-0.000252,  47.727
    56.0,-0.000328,-0.000408,-0.001548,-0.000287,  47.725
    56.2,-0.000334,-0.000407,-0.001530,-0.000309,  47.728
    56.4,-0.000328,-0.000407,-0.001557,-0.000296,  47.724
    56.6,-0.000328,-0.000414,-0.001588,-0.000261,  47.727
    56.8,-0.000334,-0.000415,-0.001648,-0.000248,  47.722
    57.0,-0.000331,-0.000417,-0.001661,-0.000271,  47.721
    57.2,-0.000337,-0.000413,-0.001674,-0.000283,  47.724
    57.4,-0.000334,-0.000410,-0.001659,-0.000271,  47.725
    57.6,-0.000337,-0.000412,-0.001653,-0.000305,  47.722
    57.8,-0.000343,-0.000410,-0.001642,-0.000293,  47.720
    58.0,-0.000341,-0.000410,-0.001623,-0.000280,  47.704
    58.2,-0.000341,-0.000411,-0.001636,-0.000328,  47.703
    58.4,-0.000347,-0.000410,-0.001680,-0.000328,  47.697
    58.6,-0.000344,-0.000409,-0.001729,-0.000315,  47.701
    58.8,-0.000344,-0.000409,-0.001758,-0.000350,  47.702
    59.0,-0.000348,-0.000412,-0.001788,-0.000302,  47.702
    59.2,-0.000342,-0.000417,-0.001813,-0.000289,  47.695
    59.4,-0.000342,-0.000421,-0.001819,-0.000324,  47.697
    59.6,-0.000345,-0.000423,-0.001815,-0.000289,  47.698
    59.8,-0.000345,-0.000421,-0.001804,-0.000277,  47.696
    60.0,-0.000349,-0.000418,-0.001961,-0.000311,  47.694
    60.2,-0.000346,-0.000423,-0.002192,-0.000277,  47.695
    60.4,-0.000349,-0.000422,-0.002510,-0.000299,  47.691
    60.6,-0.000349,-0.000423,-0.002504,-0.000299,  47.690
    60.8,-0.000346,-0.000423,-0.002368,-0.000299,  47.689
    61.0,-0.000349,-0.000424,-0.002101,-0.000321,  47.691
    61.2,-0.000349,-0.000419,-0.002000,-0.000286,  47.690
    61.4,-0.000352,-0.000418,-0.001921,-0.000299,  47.687
    61.6,-0.000349,-0.000425,-0.001869,-0.000333,  47.689
    61.8,-0.000358,-0.000430,-0.001790,-0.000299,  47.686
    62.0,-0.000352,-0.000432,-0.001712,-0.000299,  47.685
    62.2,-0.000355,-0.000427,-0.001635,-0.000333,  47.682
    62.4,-0.000355,-0.000429,-0.001579,-0.000273,  47.685
    62.6,-0.000355,-0.000431,-0.001528,-0.000260,  47.684
    62.8,-0.000359,-0.000425,-0.001483,-0.000295,  47.687
    63.0,-0.000365,-0.000424,-0.001569,-0.000282,  47.684
    63.2,-0.000359,-0.000425,-0.001729,-0.000295,  47.685
    63.4,-0.000356,-0.000423,-0.001955,-0.000317,  47.686
    63.6,-0.000362,-0.000427,-0.001995,-0.000305,  47.682
    63.8,-0.000365,-0.000425,-0.001988,-0.000305,  47.683
    64.0,-0.000360,-0.000421,-0.001936,-0.000292,  47.682
    64.2,-0.000357,-0.000423,-0.001892,-0.000327,  47.685
    64.4,-0.000357,-0.000426,-0.001826,-0.000301,  47.686
    64.6,-0.000355,-0.000425,-0.001741,-0.000301,  47.682
    64.8,-0.000355,-0.000426,-0.001770,-0.000336,  47.681
    65.0,-0.000360,-0.000431,-0.001842,-0.000301,  47.684
    65.2,-0.000360,-0.000436,-0.001966,-0.000301,  47.680
    65.4,-0.000366,-0.000437,-0.002142,-0.000336,  47.686
    65.6,-0.000366,-0.000440,-0.002136,-0.000336,  47.684
    65.8,-0.000366,-0.000438,-0.002078,-0.000301,  47.684
    66.0,-0.000370,-0.000438,-0.001980,-0.000323,  47.684
    66.2,-0.000363,-0.000439,-0.001951,-0.000323,  47.685
    66.4,-0.000366,-0.000441,-0.001938,-0.000288,  47.686
    66.6,-0.000362,-0.000439,-0.001921,-0.000311,  47.685
    66.8,-0.000355,-0.000442,-0.001879,-0.000311,  47.685
    67.0,-0.000353,-0.000448,-0.001842,-0.000288,  47.685
    67.2,-0.000359,-0.000447,-0.001797,-0.000323,  47.686
    67.4,-0.000360,-0.000449,-0.001762,-0.000311,  47.683
    67.6,-0.000363,-0.000449,-0.001740,-0.000298,  47.689
    67.8,-0.000361,-0.000447,-0.001719,-0.000298,  47.684
    68.0,-0.000367,-0.000444,-0.001692,-0.000298,  47.689
    68.2,-0.000373,-0.000449,-0.001664,-0.000298,  47.690
    68.4,-0.000373,-0.000448,-0.001631,-0.000298,  47.685
    68.6,-0.000376,-0.000451,-0.001619,-0.000298,  47.691
    68.8,-0.000385,-0.000452,-0.001623,-0.000298,  47.688
    69.0,-0.000385,-0.000455,-0.001628,-0.000333,  47.684
    69.2,-0.000381,-0.000458,-0.001630,-0.000320,  47.688
    69.4,-0.000390,-0.000461,-0.001613,-0.000320,  47.687
    69.6,-0.000390,-0.000464,-0.001602,-0.000342,  47.686
    69.8,-0.000387,-0.000466,-0.001572,-0.000342,  47.688
    70.0,-0.000391,-0.000467,-0.001535,-0.000307,  47.689
    70.2,-0.000391,-0.000465,-0.001491,-0.000294,  47.690
    70.4,-0.000391,-0.000467,-0.001477,-0.000329,  47.687
    70.6,-0.000395,-0.000465,-0.001466,-0.000329,  47.691
    70.8,-0.000392,-0.000465,-0.001459,-0.000317,  47.690
    71.0,-0.000388,-0.000463,-0.001527,-0.000351,  47.688
    71.2,-0.000388,-0.000466,-0.001615,-0.000317,  47.690
    71.4,-0.000392,-0.000466,-0.001723,-0.000304,  47.689
    71.6,-0.000392,-0.000465,-0.001721,-0.000339,  47.692
    71.8,-0.000386,-0.000467,-0.001692,-0.000304,  47.691
    72.0,-0.000389,-0.000467,-0.001614,-0.000291,  47.690
    72.2,-0.000383,-0.000464,-0.001588,-0.000326,  47.687
    72.4,-0.000383,-0.000462,-0.001584,-0.000291,  47.693
    72.6,-0.000387,-0.000463,-0.001597,-0.000278,  47.692
    72.8,-0.000387,-0.000463,-0.001569,-0.000313,  47.692
    73.0,-0.000381,-0.000462,-0.001527,-0.000313,  47.693
    73.2,-0.000384,-0.000465,-0.001482,-0.000300,  47.694
    73.4,-0.000387,-0.000464,-0.001504,-0.000288,  47.691
    73.6,-0.000381,-0.000470,-0.001567,-0.000300,  47.692
    73.8,-0.000390,-0.000467,-0.001648,-0.000300,  47.700
    74.0,-0.000390,-0.000468,-0.001642,-0.000322,  47.695
    74.2,-0.000390,-0.000475,-0.001607,-0.000300,  47.699
    74.4,-0.000394,-0.000474,-0.001538,-0.000322,  47.700
    74.6,-0.000391,-0.000475,-0.001568,-0.000322,  47.700
    74.8,-0.000385,-0.000475,-0.001615,-0.000345,  47.698
    75.0,-0.000376,-0.000480,-0.001705,-0.000345,  47.703
    75.2,-0.000376,-0.000477,-0.001814,-0.000367,  47.702
    75.4,-0.000376,-0.000476,-0.001817,-0.000332,  47.701
    75.6,-0.000370,-0.000479,-0.001790,-0.000332,  47.706
    75.8,-0.000370,-0.000480,-0.001738,-0.000354,  47.706
    76.0,-0.000376,-0.000483,-0.001719,-0.000354,  47.709
    76.2,-0.000383,-0.000484,-0.001723,-0.000354,  47.711
    76.4,-0.000383,-0.000486,-0.001730,-0.000376,  47.709
    76.6,-0.000383,-0.000487,-0.001750,-0.000376,  47.711
    76.8,-0.000389,-0.000491,-0.001787,-0.000341,  47.711
    77.0,-0.000389,-0.000485,-0.001829,-0.000363,  47.712
    77.2,-0.000383,-0.000483,-0.001825,-0.000363,  47.714
    77.4,-0.000383,-0.000483,-0.001803,-0.000328,  47.719
    77.6,-0.000383,-0.000483,-0.001760,-0.000351,  47.715
    77.8,-0.000383,-0.000485,-0.001740,-0.000351,  47.715
    78.0,-0.000383,-0.000487,-0.001726,-0.000351,  47.719
    78.2,-0.000389,-0.000484,-0.001723,-0.000386,  47.718
    78.4,-0.000389,-0.000482,-0.001678,-0.000351,  47.721
    78.6,-0.000386,-0.000482,-0.001617,-0.000316,  47.737
    78.8,-0.000392,-0.000486,-0.001549,-0.000338,  47.739
    79.0,-0.000392,-0.000486,-0.001571,-0.000338,  47.740
    79.2,-0.000392,-0.000484,-0.001635,-0.000338,  47.739
    79.4,-0.000399,-0.000491,-0.001742,-0.000360,  47.740
    79.6,-0.000401,-0.000493,-0.001731,-0.000312,  47.741
    79.8,-0.000404,-0.000492,-0.001694,-0.000325,  47.744
    80.0,-0.000410,-0.000492,-0.001609,-0.000360,  47.745
    80.2,-0.000401,-0.000493,-0.001629,-0.000334,  47.744
    80.4,-0.000401,-0.000494,-0.001684,-0.000334,  47.742
    80.6,-0.000407,-0.000493,-0.001777,-0.000357,  47.744
    80.8,-0.000405,-0.000498,-0.001764,-0.000357,  47.744
    81.0,-0.000407,-0.000500,-0.001720,-0.000322,  47.745
    81.2,-0.000411,-0.000502,-0.001637,-0.000344,  47.746
    81.4,-0.000411,-0.000499,-0.001591,-0.000357,  47.744
    81.6,-0.000411,-0.000499,-0.001544,-0.000357,  47.748
    81.8,-0.000415,-0.000503,-0.001492,-0.000379,  47.746
    82.0,-0.000415,-0.000503,-0.001505,-0.000379,  47.748
    82.2,-0.000411,-0.000503,-0.001551,-0.000379,  47.742
    82.4,-0.000417,-0.000501,-0.001625,-0.000366,  47.748
    82.6,-0.000417,-0.000501,-0.001623,-0.000401,  47.741
    82.8,-0.000417,-0.000502,-0.001602,-0.000353,  47.746
    83.0,-0.000424,-0.000496,-0.001556,-0.000366,  47.742
    83.2,-0.000412,-0.000497,-0.001561,-0.000388,  47.741
    83.4,-0.000410,-0.000497,-0.001574,-0.000401,  47.740
    83.6,-0.000416,-0.000498,-0.001600,-0.000388,  47.743
    83.8,-0.000407,-0.000502,-0.001640,-0.000375,  47.741
    84.0,-0.000410,-0.000507,-0.001605,-0.000410,  47.745
    84.2,-0.000413,-0.000506,-0.001560,-0.000375,  47.744
    84.4,-0.000407,-0.000502,-0.001492,-0.000363,  47.742
    84.6,-0.000407,-0.000503,-0.001481,-0.000397,  47.742
    84.8,-0.000411,-0.000508,-0.001494,-0.000397,  47.738
    85.0,-0.000411,-0.000503,-0.001517,-0.000385,  47.735
    85.2,-0.000408,-0.000504,-0.001523,-0.000372,  47.737
    85.4,-0.000412,-0.000504,-0.001528,-0.000385,  47.737
    85.6,-0.000412,-0.000507,-0.001539,-0.000385,  47.732
    85.8,-0.000405,-0.000507,-0.001537,-0.000372,  47.739
    86.0,-0.000409,-0.000508,-0.001537,-0.000372,  47.732
    86.2,-0.000409,-0.000512,-0.001530,-0.000372,  47.736
    86.4,-0.000412,-0.000510,-0.001518,-0.000359,  47.732
    86.6,-0.000415,-0.000511,-0.001509,-0.000359,  47.733
    86.8,-0.000415,-0.000509,-0.001485,-0.000346,  47.730
    87.0,-0.000418,-0.000509,-0.001483,-0.000381,  47.733
    87.2,-0.000413,-0.000505,-0.001490,-0.000381,  47.730
    87.4,-0.000407,-0.000506,-0.001507,-0.000369,  47.732
    87.6,-0.000399,-0.000502,-0.001733,-0.000403,  47.730
    87.8,-0.000387,-0.000501,-0.002061,-0.000369,  47.734
    88.0,-0.000382,-0.000499,-0.002507,-0.000391,  47.731
    88.2,-0.000386,-0.000496,-0.002445,-0.000391,  47.728
    88.4,-0.000378,-0.000493,-0.002183,-0.000391,  47.729
    88.6,-0.000370,-0.000487,-0.001725,-0.000413,  47.735
    88.8,-0.000360,-0.000483,-0.001521,-0.000378,  47.729
    89.0,-0.000352,-0.000482,-0.001351,-0.000378,  47.726
    89.2,-0.000348,-0.000473,-0.001220,-0.000400,  47.729
    89.4,-0.000331,-0.000465,-0.001028,-0.000400,  47.727
    89.6,-0.000323,-0.000462,-0.000820,-0.000400,  47.727
    89.8,-0.000317,-0.000452,-0.000598,-0.000422,  47.722
    90.0,-0.000304,-0.000445,-0.000416,-0.000422,  47.723
    90.2,-0.000294,-0.000436,-0.000240,-0.000387,  47.724
    90.4,-0.000282,-0.000429,-0.000068,-0.000409,  47.726
    90.6,-0.000268,-0.000415,0.000205,-0.000397,  47.725
    90.8,-0.000235,-0.000405,0.000536,-0.000409,  47.724
    91.0,-0.000211,-0.000394,0.000901,-0.000432,  47.724
    91.2,-0.000189,-0.000374,0.001214,-0.000432,  47.725
    91.4,-0.000154,-0.000355,0.001523,-0.000432,  47.721
    91.6,-0.000120,-0.000338,0.001841,-0.000409,  47.727
    91.8,-0.000090,-0.000313,0.002234,-0.000397,  47.727
    92.0,-0.000050,-0.000288,0.002659,-0.000397,  47.720
    92.2,-0.000006,-0.000268,0.003134,-0.000397,  47.722
    92.4,0.000034,-0.000240,0.003563,-0.000432,  47.723
    92.6,0.000086,-0.000212,0.003987,-0.000384,  47.721
    92.8,0.000141,-0.000188,0.004414,-0.000384,  47.725
    93.0,0.000200,-0.000157,0.004830,-0.000406,  47.722
    93.2,0.000260,-0.000123,0.005495,-0.000371,  47.721
    93.4,0.000330,-0.000087,0.006243,-0.000371,  47.723
    93.6,0.000397,-0.000044,0.007087,-0.000393,  47.718
    93.8,0.000470,-0.000006,0.007954,-0.000393,  47.722
    94.0,0.000555,0.000048,0.008894,-0.000393,  47.723
    94.2,0.000649,0.000103,0.009890,-0.000415,  47.721
    94.4,0.000751,0.000149,0.010883,-0.000415,  47.721
    94.6,0.000853,0.000190,0.011901,-0.000393,  47.717
    94.8,0.000959,0.000232,0.012948,-0.000415,  47.722
    95.0,0.001069,0.000271,0.014204,-0.000415,  47.716
    95.2,0.001196,0.000336,0.015568,-0.000415,  47.723
    95.4,0.001334,0.000403,0.017055,-0.000403,  47.720
    95.6,0.001483,0.000477,0.018561,-0.000403,  47.724
    95.8,0.001642,0.000556,0.020150,-0.000403,  47.721
    96.0,0.001806,0.000639,0.021804,-0.000390,  47.720
    96.2,0.001975,0.000735,0.023404,-0.000390,  47.721
    96.4,0.002161,0.000827,0.025021,-0.000390,  47.719
    96.6,0.002354,0.000926,0.026627,-0.000377,  47.718
    96.8,0.002555,0.001035,0.028869,-0.000377,  47.721
    97.0,0.002779,0.001149,0.031427,-0.000377,  47.721
    97.2,0.003020,0.001277,0.034319,-0.000364,  47.724
    97.4,0.003273,0.001412,0.036987,-0.000352,  47.719
    97.6,0.003493,0.001543,0.039709,-0.000352,  47.720
    97.8,0.003703,0.001687,0.042494,-0.000352,  47.714
    98.0,0.003904,0.001835,0.045444,-0.000352,  47.715
    98.2,0.004090,0.001995,0.048502,-0.000352,  47.713
    98.4,0.004392,0.002168,0.051696,-0.000374,  47.716
    98.6,0.004730,0.002355,0.055091,-0.000374,  47.713
    98.8,0.005108,0.002542,0.058649,-0.000361,  47.716
    99.0,0.005471,0.002738,0.062376,-0.000383,  47.716
    99.2,0.005844,0.002944,0.066375,-0.000418,  47.717
    99.4,0.006226,0.003161,0.070596,-0.000383,  47.717
    99.6,0.006656,0.003397,0.075050,-0.000370,  47.716
    99.8,0.007107,0.003649,0.079697,-0.000405,  47.717
   100.0,0.007585,0.003915,0.084551,-0.000405,  47.714
   100.2,0.008089,0.004201,0.089633,-0.000392,  47.697
   100.4,0.008612,0.004501,0.094860,-0.000427,  47.700
   100.6,0.009164,0.004800,0.100295,-0.000380,  47.702
   100.8,0.009750,0.005112,0.105929,-0.000392,  47.691
   101.0,0.010358,0.005428,0.111073,-0.000392,  47.693
   101.2,0.011008,0.005776,0.116066,-0.000392,  47.694
   101.4,0.011695,0.006156,0.120899,-0.000380,  47.692
   101.6,0.012410,0.006555,0.125566,-0.000367,  47.696
   101.8,0.013173,0.006958,0.132223,-0.000367,  47.694
   102.0,0.013949,0.007380,0.139632,-0.000367,  47.693
   102.2,0.014745,0.007820,0.147825,-0.000354,  47.688
   102.4,0.015577,0.008290,0.155864,-0.000341,  47.692
   102.6,0.016482,0.008780,0.164264,-0.000354,  47.689
   102.8,0.017431,0.009292,0.172989,-0.000354,  47.692
   103.0,0.018441,0.009814,0.182054,-0.000363,  47.690
   103.2,0.019433,0.010356,0.191484,-0.000363,  47.689
   103.4,0.020446,0.010909,0.201292,-0.000386,  47.688
   103.6,0.021487,0.011401,0.211430,-0.000373,  47.690
   103.8,0.022617,0.011867,0.221940,-0.000373,  47.689
   104.0,0.023814,0.012311,0.232862,-0.000395,  47.688
   104.2,0.025075,0.012731,0.244195,-0.000360,  47.688
   104.4,0.026344,0.013366,0.255952,-0.000360,  47.685
   104.6,0.027660,0.014070,0.268186,-0.000382,  47.685
   104.8,0.029018,0.014851,0.280845,-0.000347,  47.684
   105.0,0.030427,0.015586,0.294012,-0.000347,  47.681
   105.2,0.031889,0.016344,0.307689,-0.000369,  47.681
   105.4,0.033397,0.017111,0.321770,-0.000335,  47.686
   105.6,0.034964,0.017934,0.336343,-0.000347,  47.682
   105.8,0.036600,0.018793,0.351418,-0.000357,  47.687
   106.0,0.038286,0.019689,0.366983,-0.000357,  47.684
   106.2,0.040005,0.020587,0.383138,-0.000357,  47.687
   106.4,0.041782,0.021508,0.399869,-0.000379,  47.687
   106.6,0.043604,0.022454,0.417021,-0.000366,  47.687
   106.8,0.045229,0.023457,0.434713,-0.000344,  47.678
   107.0,0.046775,0.024500,0.452998,-0.000379,  47.679
   107.2,0.048256,0.025584,0.471702,-0.000379,  47.680
   107.4,0.049648,0.026665,0.490896,-0.000357,  47.681
   107.6,0.051564,0.027769,0.510657,-0.000392,  47.678
   107.8,0.053650,0.028897,0.530914,-0.000379,  47.682
   108.0,0.055913,0.030074,0.551713,-0.000379,  47.680
   108.2,0.058154,0.031291,0.573094,-0.000401,  47.682
   108.4,0.060481,0.032545,0.595139,-0.000388,  47.684
   108.6,0.062893,0.033845,0.617880,-0.000375,  47.683
   108.8,0.065306,0.035187,0.641274,-0.000398,  47.683
   109.0,0.067770,0.036573,0.664740,-0.000410,  47.683
   109.2,0.070284,0.037945,0.688619,-0.000375,  47.683
   109.4,0.072929,0.039343,0.712835,-0.000375,  47.677
   109.6,0.075668,0.040758,0.738039,-0.000398,  47.679
   109.8,0.078508,0.042233,0.764030,-0.000398,  47.676
   110.0,0.081357,0.043756,0.790799,-0.000398,  47.677
   110.2,0.084267,0.045327,0.814393,-0.000398,  47.674
   110.4,0.087233,0.046905,0.836359,-0.000398,  47.669
   110.6,0.090240,0.048508,0.856227,-0.000385,  47.674
   110.8,0.093303,0.050145,0.873681,-0.000372,  47.674
   111.0,0.096423,0.051833,0.899773,-0.000385,  47.671
   111.2,0.099645,0.053571,0.928536,-0.000385,  47.673
   111.4,0.102946,0.055349,0.960475,-0.000407,  47.671
   111.6,0.106325,0.057107,0.990404,-0.000407,  47.673
   111.8,0.109675,0.058882,1.020702,-0.000407,  47.672
   112.0,0.113050,0.060668,1.051293,-0.000429,  47.672
   112.2,0.116442,0.062235,1.082577,-0.000429,  47.669
   112.4,0.119994,0.063698,1.114072,-0.000394,  47.667
   112.6,0.123630,0.065060,1.145772,-0.000381,  47.668
   112.8,0.127367,0.066317,1.178545,-0.000369,  47.671
   113.0,0.131062,0.068174,1.211726,-0.000369,  47.667
   113.2,0.134776,0.070212,1.245328,-0.000356,  47.668
   113.4,0.138527,0.072430,1.279337,-0.000343,  47.666
   113.6,0.142384,0.074463,1.313193,-0.000356,  47.663
   113.8,0.146306,0.076494,1.346964,-0.000356,  47.664
   114.0,0.150309,0.078532,1.382012,-0.000356,  47.656
   114.2,0.154353,0.080644,1.417060,-0.000356,  47.660
   114.4,0.158459,0.082801,1.452063,-0.000343,  47.659
   114.6,0.162632,0.084996,1.487629,-0.000378,  47.658
   114.8,0.166832,0.087187,1.523175,-0.000365,  47.655
   115.0,0.171071,0.089402,1.557886,-0.000353,  47.654
   115.2,0.175361,0.091638,1.593077,-0.000400,  47.655
   115.4,0.179710,0.093940,1.627952,-0.000400,  47.651
   115.6,0.184101,0.096288,1.662168,-0.000387,  47.652
   115.8,0.188561,0.098689,1.697656,-0.000400,  47.649
   116.0,0.192349,0.101011,1.733454,-0.000400,  47.646
   116.2,0.195814,0.103328,1.769388,-0.000387,  47.643
   116.4,0.198961,0.105627,1.805358,-0.000387,  47.644
   116.6,0.201762,0.108017,1.840492,-0.000387,  47.644
   116.8,0.205961,0.110448,1.874316,-0.000375,  47.641
   117.0,0.210554,0.112924,1.909224,-0.000397,  47.642
   117.2,0.215536,0.115390,1.943954,-0.000397,  47.641
   117.4,0.220158,0.117877,1.977512,-0.000384,  47.636
   117.6,0.224786,0.120382,2.011618,-0.000419,  47.640
   117.8,0.229431,0.122875,2.042932,-0.000384,  47.637
   118.0,0.234182,0.125383,2.073191,-0.000384,  47.632
   118.2,0.238984,0.127896,2.104763,-0.000406,  47.634
   118.4,0.243861,0.130441,2.134782,-0.000384,  47.633
   118.6,0.248722,0.133004,2.162728,-0.000406,  47.631
   118.8,0.253595,0.135596,2.188071,-0.000441,  47.630
   119.0,0.258502,0.138166,2.211401,-0.000393,  47.631
   119.2,0.263403,0.140732,2.229771,-0.000381,  47.632
   119.4,0.268302,0.143300,2.243790,-0.000416,  47.631
   119.6,0.273208,0.145929,2.268966,-0.000368,  47.632
   119.8,0.278145,0.148604,2.292778,-0.000368,  47.631
   120.0,0.283095,0.151307,2.316425,-0.000390,  47.634
   120.2,0.288061,0.153927,2.339880,-0.000377,  47.633
   120.4,0.293013,0.156524,2.359613,-0.000377,  47.630
   120.6,0.297966,0.159097,2.378541,-0.000399,  47.629
   120.8,0.302908,0.161723,2.398304,-0.000387,  47.630
   121.0,0.307912,0.164377,2.415169,-0.000352,  47.626
   121.2,0.312942,0.167048,2.430735,-0.000361,  47.629
   121.4,0.317988,0.169336,2.448933,-0.000361,  47.626
   121.6,0.322952,0.171437,2.463640,-0.000326,  47.626
   121.8,0.327878,0.173353,2.476654,-0.000348,  47.627
   122.0,0.332761,0.175079,2.490060,-0.000335,  47.621
   122.2,0.337739,0.177505,2.503900,-0.000348,  47.620
   122.4,0.342734,0.180099,2.513372,-0.000383,  47.620
   122.6,0.347766,0.182867,2.525522,-0.000335,  47.619
   122.8,0.352762,0.185475,2.535490,-0.000335,  47.620
   123.0,0.357745,0.188089,2.543121,-0.000358,  47.618
   123.2,0.362732,0.190706,2.553518,-0.000358,  47.619
   123.4,0.367711,0.193319,2.564171,-0.000345,  47.617
   123.6,0.372680,0.195940,2.566887,-0.000367,  47.616
   123.8,0.377644,0.198557,2.572356,-0.000380,  47.617
   124.0,0.382566,0.201209,2.580692,-0.000345,  47.614
   124.2,0.387455,0.203883,2.586354,-0.000367,  47.617
   124.4,0.392330,0.206577,2.592057,-0.000367,  47.613
   124.6,0.397162,0.209145,2.597832,-0.000332,  47.614
   124.8,0.401958,0.211656,2.603679,-0.000354,  47.609
   125.0,0.406734,0.214121,2.612623,-0.000354,  47.612
   125.2,0.410847,0.216663,2.618698,-0.000319,  47.609
   125.4,0.414601,0.219212,2.618708,-0.000341,  47.612
   125.6,0.417986,0.221786,2.624853,-0.000341,  47.609
   125.8,0.420988,0.224299,2.631080,-0.000341,  47.609
   126.0,0.425315,0.226786,2.631059,-0.000329,  47.607
   126.2,0.429972,0.229256,2.634223,-0.000329,  47.598
   126.4,0.434962,0.231727,2.637426,-0.000341,  47.579
   126.6,0.439616,0.234184,2.640674,-0.000316,  47.578
   126.8,0.444272,0.236629,2.643892,-0.000316,  47.577
   127.0,0.448925,0.239051,2.647118,-0.000316,  47.573
   127.2,0.453526,0.241457,2.647081,-0.000303,  47.572
   127.4,0.458095,0.243847,2.650391,-0.000325,  47.565
   127.6,0.462628,0.246209,2.657075,-0.000325,  47.567
   127.8,0.467095,0.248553,2.653833,-0.000290,  47.560
   128.0,0.471503,0.250868,2.657150,-0.000312,  47.559
   128.2,0.475862,0.253191,2.660461,-0.000300,  47.554
   128.4,0.480186,0.255502,2.660396,-0.000300,  47.556
   128.6,0.484445,0.257794,2.660375,-0.000322,  47.551
   128.8,0.488670,0.260038,2.663738,-0.000322,  47.548
   129.0,0.492874,0.262255,2.667145,-0.000287,  47.546
   129.2,0.497023,0.264435,2.667156,-0.000274,  47.543
   129.4,0.501134,0.266623,2.674038,-0.000309,  47.539
   129.6,0.505220,0.268802,2.674033,-0.000309,  47.534
   129.8,0.509277,0.270963,2.674022,-0.000296,  47.532
   130.0,0.513295,0.273089,2.677505,-0.000331,  47.529
   130.2,0.517215,0.275188,2.681011,-0.000296,  47.523
   130.4,0.521076,0.277262,2.681006,-0.000271,  47.522
   130.6,0.524876,0.279303,2.681006,-0.000306,  47.515
   130.8,0.528695,0.281318,2.684556,-0.000306,  47.515
   131.0,0.532483,0.283310,2.684573,-0.000293,  47.515
   131.2,0.536245,0.285020,2.688131,-0.000280,  47.512
   131.4,0.539968,0.286574,2.688110,-0.000293,  47.509
   131.6,0.543638,0.287975,2.688072,-0.000293,  47.505
   131.8,0.547261,0.289222,2.691655,-0.000280,  47.504
   132.0,0.550830,0.290988,2.691649,-0.000293,  47.498
   132.2,0.554358,0.292882,2.691649,-0.000293,  47.492
   132.4,0.557822,0.294896,2.695278,-0.000280,  47.492
   132.6,0.561224,0.296750,2.698943,-0.000293,  47.483
   132.8,0.564581,0.298590,2.698949,-0.000293,  47.489
   133.0,0.567867,0.300412,2.702634,-0.000315,  47.479
   133.2,0.571128,0.302163,2.702607,-0.000315,  47.460
   133.4,0.574357,0.303877,2.702580,-0.000315,  47.451
   133.6,0.577516,0.305547,2.706308,-0.000350,  47.449
   133.8,0.580628,0.307227,2.706314,-0.000315,  47.445
   134.0,0.583684,0.308887,2.706330,-0.000315,  47.440
   134.2,0.586677,0.310534,2.710095,-0.000350,  47.440
   134.4,0.589237,0.312117,2.713894,-0.000315,  47.428
   134.6,0.591536,0.313654,2.710106,-0.000350,  47.426
   134.8,0.593574,0.315159,2.710090,-0.000337,  47.423
   135.0,0.595334,0.316676,2.713867,-0.000337,  47.413
   135.2,0.597964,0.318182,2.713845,-0.000359,  47.411
   135.4,0.600777,0.319678,2.713824,-0.000324,  47.406
   135.6,0.603791,0.321140,2.717634,-0.000324,  47.399
   135.8,0.606521,0.322562,2.717618,-0.000347,  47.399
   136.0,0.609209,0.323957,2.721505,-0.000312,  47.389
   136.2,0.611842,0.325336,2.721564,-0.000312,  47.381
   136.4,0.614371,0.326686,2.721655,-0.000334,  47.380
   136.6,0.616835,0.328004,2.725556,-0.000299,  47.374
   136.8,0.619217,0.329322,2.725534,-0.000312,  47.363
   137.0,0.621583,0.330628,2.725497,-0.000299,  47.342
   137.2,0.623909,0.331914,2.729395,-0.000334,  47.335
   137.4,0.626187,0.333154,2.729357,-0.000321,  47.328
   137.6,0.628437,0.334361,2.729309,-0.000334,  47.317
   137.8,0.630639,0.335531,2.729293,-0.000369,  47.311
   138.0,0.632797,0.336707,2.733249,-0.000382,  47.303
   138.2,0.634925,0.337874,2.729293,-0.000359,  47.299
   138.4,0.637002,0.339028,2.729309,-0.000382,  47.292
   138.6,0.639039,0.340114,2.733275,-0.000382,  47.286
   138.8,0.640971,0.341156,2.729309,-0.000382,  47.279
   139.0,0.642838,0.342168,2.733275,-0.000404,  47.267
   139.2,0.644639,0.343208,2.737267,-0.000391,  47.259
   139.4,0.646505,0.344233,2.737267,-0.000391,  47.249
   139.6,0.648372,0.345256,2.737262,-0.000413,  47.244
   139.8,0.650266,0.346248,2.741281,-0.000413,  47.238
   140.0,0.652039,0.347213,2.741254,-0.000378,  47.210
   140.2,0.653785,0.348158,2.741227,-0.000400,  47.202
   140.4,0.655468,0.348952,2.745289,-0.000388,  47.193
   140.6,0.657097,0.349667,2.745273,-0.000353,  47.185
   140.8,0.658674,0.350285,2.741189,-0.000375,  47.174
   141.0,0.660168,0.350819,2.741179,-0.000362,  47.163
   141.2,0.661684,0.351622,2.741174,-0.000375,  47.158
   141.4,0.663170,0.352474,2.741179,-0.000362,  47.143
   141.6,0.664619,0.353380,2.741179,-0.000362,  47.137
   141.8,0.666042,0.354188,2.745257,-0.000349,  47.126
   142.0,0.667459,0.354976,2.745267,-0.000336,  47.111
   142.2,0.668826,0.355745,2.745294,-0.000324,  47.084
   142.4,0.670190,0.356518,2.749459,-0.000311,  47.074
   142.6,0.671535,0.357294,2.749523,-0.000285,  47.064
   142.8,0.672865,0.358053,2.749507,-0.000285,  47.053
   143.0,0.674132,0.358766,2.749470,-0.000285,  47.036
   143.2,0.675342,0.359466,2.749400,-0.000307,  47.027
   143.4,0.676499,0.360138,2.749379,-0.000282,  47.009
   143.6,0.677567,0.360854,2.753519,-0.000282,  46.994
   143.8,0.678550,0.361580,2.753519,-0.000304,  46.968
   144.0,0.679474,0.362325,2.753502,-0.000278,  46.947
   144.2,0.680294,0.363054,2.757688,-0.000230,  46.937
   144.4,0.681465,0.363783,2.753476,-0.000205,  46.924
   144.6,0.682713,0.364514,2.757656,-0.000205,  46.905
   144.8,0.684047,0.365202,2.757650,-0.000205,  46.889
   145.0,0.685215,0.365870,2.757650,-0.000179,  46.850
   145.2,0.686336,0.366516,2.761866,-0.000189,  46.839
   145.4,0.687416,0.367198,2.761844,-0.000176,  46.818
   145.6,0.688523,0.367886,2.761823,-0.000150,  46.801
   145.8,0.689627,0.368589,2.766134,-0.000160,  46.784
   146.0,0.690747,0.369279,2.766198,-0.000099,  46.757
   146.2,0.691902,0.369966,2.762011,-0.000073,  46.722
   146.4,0.693091,0.370658,2.766284,-0.000073,  46.703
   146.6,0.694297,0.371369,2.766247,-0.000048,  46.681
   146.8,0.695512,0.372082,2.761903,-0.000048,  46.655
   147.0,0.696731,0.372814,2.761887,-0.000022,  46.629
   147.2,0.697953,0.373502,2.761877,-0.000009,  46.598
   147.4,0.699088,0.374173,2.766161,0.000016,  46.573
   147.6,0.700186,0.374827,2.766177,0.000055,  46.548
   147.8,0.701229,0.375581,2.766155,0.000058,  46.523
   148.0,0.702504,0.376387,2.770450,0.000097,  46.471
   148.2,0.703873,0.377235,2.766096,0.000122,  46.453
   148.4,0.705333,0.378048,2.770402,0.000113,  46.425
   148.6,0.706726,0.378872,2.770402,0.000139,  46.383
   148.8,0.708135,0.379702,2.770418,0.000164,  46.349
   149.0,0.709556,0.380424,2.774777,0.000155,  46.313
   149.2,0.710976,0.381083,2.774782,0.000216,  46.277
   149.4,0.712412,0.381697,2.770423,0.000254,  46.239
   149.6,0.713847,0.382257,2.774766,0.000258,  46.207
   149.8,0.715389,0.383117,2.774734,0.000306,  46.168
   150.0,0.717016,0.384079,2.774697,0.000309,  46.107
   150.2,0.718684,0.385118,2.774707,0.000335,  46.084
   150.4,0.720407,0.386123,2.774734,0.000347,  46.037
   150.6,0.722203,0.387148,2.774793,0.000338,  45.982
   150.8,0.724056,0.388208,2.779202,0.000399,  45.946
   151.0,0.726035,0.389312,2.779192,0.000425,  45.879
   151.2,0.728105,0.390458,2.779170,0.000415,  45.847
   151.4,0.730234,0.391648,2.783598,0.000463,  45.790
   151.6,0.732340,0.392850,2.783566,0.000489,  45.749
   151.8,0.734482,0.394066,2.779073,0.000479,  45.698
   152.0,0.736615,0.395319,2.779090,0.000505,  45.622
   152.2,0.738965,0.396688,2.783581,0.000531,  45.573
   152.4,0.741455,0.398120,2.783641,0.000509,  45.525
   152.6,0.744040,0.399622,2.783732,0.000534,  45.475
   152.8,0.746706,0.401159,2.788361,0.000582,  45.407
   153.0,0.749460,0.402744,2.788511,0.000573,  45.344
   153.2,0.752298,0.404378,2.788506,0.000586,  45.291
   153.4,0.754742,0.406024,2.792984,0.000573,  45.219
   153.6,0.757030,0.407701,2.792855,0.000551,  45.163
   153.8,0.759148,0.409409,2.797386,0.000598,  45.092
   154.0,0.761106,0.411222,2.797317,0.000611,  45.024
   154.2,0.764007,0.413092,2.797252,0.000576,  44.967
   154.4,0.767185,0.415040,2.801860,0.000611,  44.891
   154.6,0.770647,0.417016,2.801833,0.000633,  44.826
   154.8,0.774054,0.419041,2.801822,0.000611,  44.748
   155.0,0.777587,0.421111,2.806485,0.000611,  44.656
   155.2,0.781227,0.423241,2.806442,0.000611,  44.611
   155.4,0.784971,0.425426,2.806399,0.000611,  44.531
   155.6,0.788834,0.427658,2.811113,0.000576,  44.450
   155.8,0.792786,0.429922,2.811097,0.000576,  44.386
   156.0,0.796648,0.432218,2.811092,0.000563,  44.290
   156.2,0.800557,0.434554,2.815875,0.000563,  44.221
   156.4,0.804436,0.437007,2.815864,0.000551,  44.154
   156.6,0.808587,0.439527,2.820706,0.000573,  44.065
   156.8,0.812886,0.442134,2.815848,0.000551,  43.981
   157.0,0.817313,0.444710,2.815848,0.000538,  43.882
   157.2,0.821728,0.447311,2.820722,0.000525,  43.814
   157.4,0.826212,0.449940,2.820743,0.000490,  43.738
   157.6,0.830749,0.452620,2.825651,0.000477,  43.660
   157.8,0.835274,0.455328,2.830609,0.000499,  43.574
   158.0,0.839817,0.458074,2.825629,0.000464,  43.469
   158.2,0.844367,0.460878,2.825629,0.000451,  43.405
   158.4,0.849018,0.463722,2.830598,0.000438,  43.329
   158.6,0.853726,0.466609,2.830609,0.000391,  43.248
   158.8,0.858461,0.469060,2.830603,0.000391,  43.160
   159.0,0.863223,0.471316,2.835624,0.000378,  43.058
   159.2,0.868025,0.473366,2.835629,0.000343,  42.992
   159.4,0.872822,0.475210,2.840688,0.000330,  42.910
   159.6,0.877667,0.477909,2.840666,0.000352,  42.846
   159.8,0.882559,0.480839,2.840639,0.000365,  42.766
   160.0,0.887440,0.483997,2.845773,0.000352,  42.679
   160.2,0.892209,0.486902,2.845773,0.000339,  42.615
   160.4,0.896900,0.489779,2.845784,0.000339,  42.553
   160.6,0.901532,0.492642,2.850980,0.000278,  42.479
   160.8,0.906187,0.495549,2.850969,0.000253,  42.405
   161.0,0.910814,0.498471,2.850953,0.000240,  42.326
   161.2,0.915427,0.501395,2.856212,0.000192,  42.287
   161.4,0.919953,0.504271,2.856223,0.000214,  42.214
   161.6,0.924447,0.507141,2.856244,0.000214,  42.152
   161.8,0.928905,0.509985,2.861573,0.000166,  42.101
   162.0,0.933197,0.512720,2.861573,0.000201,  42.031
   162.2,0.937386,0.515380,2.861573,0.000214,  42.005
   162.4,0.941458,0.517971,2.866968,0.000166,  41.947
   162.6,0.944920,0.520567,2.866968,0.000189,  41.912
   162.8,0.948013,0.523132,2.866968,0.000189,  41.857
   163.0,0.950746,0.525655,2.872420,0.000154,  41.816
   163.2,0.953070,0.528081,2.877931,0.000141,  41.776
   163.4,0.956463,0.530452,2.872377,0.000141,  41.749
   163.6,0.960047,0.532745,2.872377,0.000154,  41.721
   163.8,0.963806,0.534978,2.877910,0.000141,  41.689
   164.0,0.967181,0.537138,2.872388,0.000154,  41.663
   164.2,0.970474,0.539238,2.872383,0.000166,  41.651
   164.4,0.973639,0.541275,2.877899,0.000166,  41.637
   164.6,0.976599,0.543253,2.872340,0.000131,  41.607
   164.8,0.979419,0.545156,2.872324,0.000118,  41.596
   165.0,0.982027,0.547016,2.877845,0.000118,  41.589
   165.2,0.984620,0.548816,2.877840,0.000106,  41.585
   165.4,0.987133,0.550554,2.877835,0.000071,  41.589
   165.6,0.989560,0.552190,2.883433,0.000071,  41.591
   165.8,0.991841,0.553735,2.877829,0.000106,  41.598
   166.0,0.993961,0.555201,2.877835,0.000071,  41.607
   166.2,0.995944,0.556598,2.877824,0.000083,  41.618
   166.4,0.997768,0.557911,2.877819,0.000071,  41.630
   166.6,0.999476,0.559139,2.877802,0.000036,  41.648
   166.8,1.001041,0.560358,2.877797,0.000083,  41.682
   167.0,1.002521,0.561525,2.883395,0.000071,  41.707
   167.2,1.003881,0.562639,2.883406,0.000048,  41.729
   167.4,1.005173,0.563631,2.883401,0.000096,  41.759
   167.6,1.006298,0.564543,2.889067,0.000096,  41.798
   167.8,1.007274,0.565361,2.883379,0.000074,  41.834
   168.0,1.008099,0.566062,2.883374,0.000109,  41.876
   168.2,1.008861,0.566647,2.889046,0.000109,  41.915
   168.4,1.009471,0.567128,2.883363,0.000087,  41.958
   168.6,1.009982,0.567489,2.883369,0.000122,  42.013
   168.8,1.010401,0.568010,2.889056,0.000122,  42.061
   169.0,1.010693,0.568513,2.883406,0.000100,  42.128
   169.2,1.010859,0.569021,2.883390,0.000135,  42.181
   169.4,1.010933,0.569403,2.889040,0.000122,  42.232
   169.6,1.010906,0.569716,2.883326,0.000113,  42.301
   169.8,1.010753,0.569975,2.883304,0.000125,  42.355
   170.0,1.010507,0.570164,2.888960,0.000125,  42.435
   170.2,1.010188,0.570282,2.883272,0.000116,  42.489
   170.4,1.009796,0.570337,2.883267,0.000129,  42.550
   170.6,1.009285,0.570361,2.888938,0.000129,  42.622
   170.8,1.008676,0.570338,2.883267,0.000107,  42.701
   171.0,1.007941,0.570259,2.883272,0.000129,  42.786
   171.2,1.007333,0.570141,2.888954,0.000129,  42.835
   171.4,1.006700,0.569977,2.883288,0.000107,  42.914
   171.6,1.006094,0.569769,2.883283,0.000142,  42.993
   171.8,1.005436,0.569500,2.888960,0.000142,  43.078
   172.0,1.004490,0.569171,2.883277,0.000119,  43.158
   172.2,1.003390,0.568787,2.883261,0.000167,  43.225
   172.4,1.002162,0.568352,2.888922,0.000180,  43.305
   172.6,1.000937,0.567873,2.883229,0.000158,  43.386
   172.8,0.999560,0.567324,2.883218,0.000171,  43.453
   173.0,0.998148,0.566771,2.888879,0.000171,  43.555
   173.2,0.996728,0.566193,2.883191,0.000149,  43.623
   173.4,0.995204,0.565569,2.883197,0.000161,  43.705
   173.6,0.993647,0.564914,2.888890,0.000184,  43.787
   173.8,0.992032,0.564224,2.883240,0.000184,  43.862
   174.0,0.990353,0.563501,2.883240,0.000161,  43.956
   174.2,0.988604,0.562724,2.888917,0.000174,  44.027
   174.4,0.986755,0.561903,2.883240,0.000209,  44.110
   174.6,0.984877,0.561047,2.883218,0.000187,  44.178
   174.8,0.982925,0.560179,2.888874,0.000222,  44.259
   175.0,0.980926,0.559269,2.883170,0.000222,  44.362
   175.2,0.978900,0.558341,2.883164,0.000200,  44.426
   175.4,0.976827,0.557407,2.883164,0.000200,  44.497
   175.6,0.974782,0.556441,2.888847,0.000235,  44.574
   175.8,0.972711,0.555466,2.883186,0.000213,  44.655
   176.0,0.970595,0.554411,2.883175,0.000213,  44.759
   176.2,0.968386,0.553301,2.883159,0.000213,  44.820
   176.4,0.966081,0.552149,2.883148,0.000226,  44.890
   176.6,0.963710,0.551011,2.883175,0.000226,  44.964
   176.8,0.961370,0.549852,2.883234,0.000213,  45.042
   177.0,0.958977,0.548685,2.877717,0.000203,  45.118
   177.2,0.956574,0.547685,2.877717,0.000216,  45.180
   177.4,0.954131,0.546767,2.877684,0.000216,  45.255
   177.6,0.951661,0.545912,2.877630,0.000194,  45.313
   177.8,0.949143,0.545136,2.877614,0.000207,  45.389
   178.0,0.946604,0.543965,2.877604,0.000229,  45.459
   178.2,0.944046,0.542676,2.872060,0.000242,  45.515
   178.4,0.941458,0.541271,2.872050,0.000242,  45.584
   178.6,0.938827,0.539962,2.877582,0.000255,  45.642
   178.8,0.936158,0.538634,2.872055,0.000268,  45.712
   179.0,0.933432,0.537295,2.872066,0.000233,  45.774
   179.2,0.930716,0.535947,2.872098,0.000233,  45.825
   179.4,0.928008,0.534573,2.866678,0.000245,  45.878
   179.6,0.925245,0.533188,2.866667,0.000210,  45.940
   179.8,0.922515,0.531815,2.866641,0.000245,  45.986
   180.0,0.919793,0.530433,2.866603,0.000258,  46.057
   180.2,0.917039,0.529052,2.861181,0.000223,  46.092
   180.4,0.914210,0.527613,2.861154,0.000258,  46.153
   180.6,0.911349,0.526146,2.861133,0.000271,  46.201
   180.8,0.908416,0.524660,2.855798,0.000236,  46.257
   181.0,0.905942,0.523143,2.855798,0.000236,  46.305
   181.2,0.903663,0.521593,2.861149,0.000236,  46.351
   181.4,0.901594,0.520016,2.861138,0.000236,  46.393
   181.6,0.899673,0.518504,2.861127,0.000236,  46.433
   181.8,0.896982,0.517011,2.855777,0.000236,  46.485
   182.0,0.894063,0.515535,2.861084,0.000236,  46.535
   182.2,0.890941,0.513991,2.861073,0.000258,  46.570
   182.4,0.887975,0.512437,2.855728,0.000284,  46.611
   182.6,0.884983,0.510851,2.861041,0.000249,  46.638
   182.8,0.881965,0.509252,2.855707,0.000249,  46.678
   183.0,0.878909,0.507639,2.850443,0.000249,  46.730
   183.2,0.875816,0.506002,2.855702,0.000227,  46.753
   183.4,0.872673,0.504382,2.850432,0.000262,  46.779
   183.6,0.869586,0.502751,2.850443,0.000249,  46.828
   183.8,0.866475,0.501123,2.845242,0.000227,  46.854
   184.0,0.863400,0.499506,2.845247,0.000240,  46.887
   184.2,0.860333,0.497898,2.845252,0.000240,  46.923
   184.4,0.857257,0.496300,2.845263,0.000204,  46.946
   184.6,0.854202,0.494650,2.840107,0.000217,  46.974
   184.8,0.851071,0.492965,2.840096,0.000217,  46.997
   185.0,0.847894,0.491261,2.840080,0.000195,  47.043
   185.2,0.844687,0.489571,2.840054,0.000230,  47.056
   185.4,0.841532,0.487872,2.840027,0.000230,  47.079
   185.6,0.838395,0.486162,2.834926,0.000208,  47.097
   185.8,0.835280,0.484469,2.834920,0.000230,  47.120
   186.0,0.832123,0.482787,2.840010,0.000230,  47.156
   186.2,0.828948,0.481099,2.834958,0.000208,  47.168
   186.4,0.825755,0.479636,2.834953,0.000243,  47.187
   186.6,0.822551,0.478270,2.834936,0.000243,  47.205
   186.8,0.819336,0.477027,2.829894,0.000221,  47.219
   187.0,0.816117,0.475879,2.829921,0.000256,  47.237
   187.2,0.812881,0.474246,2.829964,0.000243,  47.265
   187.4,0.809630,0.472495,2.825076,0.000221,  47.282
   187.6,0.806383,0.470612,2.825108,0.000221,  47.295
   187.8,0.803153,0.468847,2.830093,0.000208,  47.308
   188.0,0.799924,0.467084,2.825146,0.000186,  47.325
   188.2,0.796683,0.465312,2.825130,0.000186,  47.334
   188.4,0.793470,0.463555,2.825092,0.000221,  47.343
   188.6,0.790254,0.461794,2.820131,0.000199,  47.353
   188.8,0.787030,0.460038,2.815257,0.000186,  47.362
   189.0,0.783767,0.458262,2.815241,0.000186,  47.390
   189.2,0.780497,0.456472,2.815241,0.000163,  47.399
   189.4,0.777164,0.454674,2.810415,0.000186,  47.409
   189.6,0.773896,0.452873,2.810383,0.000186,  47.418
   189.8,0.770647,0.451062,2.810340,0.000163,  47.425
   190.0,0.767404,0.449253,2.815128,0.000186,  47.432
   190.2,0.764632,0.447482,2.815139,0.000186,  47.442
   190.4,0.762102,0.445734,2.810367,0.000163,  47.448
   190.6,0.759766,0.443992,2.815155,0.000199,  47.447
   190.8,0.757681,0.442208,2.810340,0.000199,  47.460
   191.0,0.754624,0.440419,2.805566,0.000176,  47.469
   191.2,0.751322,0.438617,2.810307,0.000176,  47.474
   191.4,0.747778,0.436780,2.805566,0.000163,  47.499
   191.6,0.744450,0.434930,2.800887,0.000154,  47.501
   191.8,0.741098,0.433060,2.805588,0.000154,  47.511
   192.0,0.737713,0.431215,2.800904,0.000154,  47.518
   192.2,0.734404,0.429364,2.796269,0.000132,  47.522
   192.4,0.731128,0.427520,2.796264,0.000132,  47.526
   192.6,0.727875,0.425709,2.796258,0.000132,  47.528
   192.8,0.724599,0.423905,2.791652,0.000154,  47.532
   193.0,0.721314,0.422123,2.791641,0.000154,  47.538
   193.2,0.718039,0.420273,2.791631,0.000154,  47.541
   193.4,0.714741,0.418394,2.791614,0.000154,  47.546
   193.6,0.711442,0.416488,2.791609,0.000154,  47.549
   193.8,0.708121,0.414649,2.791598,0.000167,  47.552
   194.0,0.704832,0.412837,2.791588,0.000167,  47.559
   194.2,0.701542,0.411039,2.787035,0.000167,  47.560
   194.4,0.698250,0.409207,2.787013,0.000180,  47.566
   194.6,0.694971,0.407369,2.786991,0.000167,  47.566
   194.8,0.691665,0.405527,2.782464,0.000167,  47.566
   195.0,0.688371,0.403950,2.782459,0.000180,  47.576
   195.2,0.685064,0.402490,2.782459,0.000167,  47.576
   195.4,0.681758,0.401158,2.778015,0.000132,  47.578
   195.6,0.678439,0.399951,2.773606,0.000145,  47.584
   195.8,0.675121,0.398213,2.773606,0.000132,  47.585
   196.0,0.671816,0.396339,2.773601,0.000097,  47.588
   196.2,0.668511,0.394332,2.769268,0.000110,  47.588
   196.4,0.665244,0.392475,2.769316,0.000132,  47.593
   196.6,0.661953,0.390636,2.769392,0.000132,  47.612
   196.8,0.658675,0.388804,2.773757,0.000145,  47.613
   197.0,0.655410,0.386979,2.769376,0.000145,  47.616
   197.2,0.652134,0.385158,2.765011,0.000145,  47.617
   197.4,0.648866,0.383348,2.769295,0.000145,  47.619
   197.6,0.645616,0.381505,2.764936,0.000145,  47.625
   197.8,0.642350,0.379651,2.760614,0.000145,  47.621
   198.0,0.639109,0.377778,2.764882,0.000110,  47.624
   198.2,0.635864,0.375926,2.760614,0.000110,  47.625
   198.4,0.632615,0.374078,2.756399,0.000110,  47.625
   198.6,0.629390,0.372238,2.756388,0.000074,  47.630
   198.8,0.626184,0.370427,2.756366,0.000110,  47.631
   199.0,0.622973,0.368634,2.752143,0.000110,  47.634
   199.2,0.619797,0.366852,2.752138,0.000110,  47.635
   199.4,0.617047,0.365024,2.752138,0.000145,  47.636
   199.6,0.614512,0.363191,2.747993,0.000145,  47.633
   199.8,0.612205,0.361348,2.747993,0.000110,  47.631
   200.0,0.610094,0.359500,2.747987,0.000110,  47.638
   200.2,0.607073,0.357638,2.743871,0.000110,  47.636
   200.4,0.603834,0.355784,2.743865,0.000074,  47.638
   200.6,0.600365,0.353959,2.743865,0.000110,  47.638
   200.8,0.597191,0.352133,2.739782,0.000122,  47.644
   201.0,0.594043,0.350323,2.735769,0.000087,  47.642
   201.2,0.590920,0.348530,2.735817,0.000100,  47.642
   201.4,0.587774,0.346744,2.735877,0.000113,  47.644
   201.6,0.584603,0.344969,2.731852,0.000113,  47.643
   201.8,0.581442,0.343168,2.731815,0.000091,  47.643
   202.0,0.578285,0.341353,2.731739,0.000091,  47.645
   202.2,0.575110,0.339534,2.735726,0.000104,  47.646
   202.4,0.571946,0.337730,2.731723,0.000091,  47.646
   202.6,0.568789,0.335930,2.723848,0.000091,  47.648
   202.8,0.565620,0.334138,2.719948,0.000068,  47.649
   203.0,0.562467,0.332340,2.719937,0.000056,  47.650
   203.2,0.559331,0.330549,2.719926,0.000056,  47.646
   203.4,0.556208,0.328758,2.716050,0.000033,  47.650
   203.6,0.553095,0.326958,2.712223,0.000056,  47.652
   203.8,0.549973,0.325161,2.712234,0.000056,  47.647
   204.0,0.546856,0.323360,2.712256,0.000033,  47.651
   204.2,0.543756,0.321558,2.712256,0.000056,  47.655
   204.4,0.540679,0.319756,2.708457,0.000056,  47.654
   204.6,0.537612,0.317954,2.704687,0.000033,  47.652
   204.8,0.534567,0.316435,2.700948,0.000056,  47.651
   205.0,0.531522,0.315050,2.700932,0.000056,  47.651
   205.2,0.528490,0.313812,2.700915,0.000033,  47.652
   205.4,0.525476,0.312706,2.697203,0.000033,  47.656
   205.6,0.522441,0.311092,2.697203,0.000033,  47.656
   205.8,0.519392,0.309356,2.697208,0.000011,  47.648
   206.0,0.516338,0.307507,2.700894,0.000011,  47.651
   206.2,0.513330,0.305753,2.697182,0.000033,  47.649
   206.4,0.510343,0.304000,2.689866,0.000011,  47.650
   206.6,0.507369,0.302238,2.689877,0.000011,  47.649
   206.8,0.504381,0.300511,2.689898,0.000033,  47.648
   207.0,0.501397,0.298786,2.682752,0.000011,  47.650
   207.2,0.498410,0.297072,2.682779,0.000011,  47.650
   207.4,0.495458,0.295379,2.682822,0.000033,  47.647
   207.6,0.492527,0.293700,2.675814,0.000011,  47.647
   207.8,0.489616,0.292039,2.672310,0.000011,  47.648
   208.0,0.486699,0.290335,2.672272,0.000046,  47.647
   208.2,0.483771,0.288623,2.668747,0.000024,  47.645
   208.4,0.480847,0.286907,2.665292,0.000024,  47.648
   208.6,0.478356,0.285183,2.661875,0.000024,  47.649
   208.8,0.476073,0.283468,2.661875,0.000002,  47.643
   209.0,0.473994,0.281744,2.665260,0.000037,  47.648
   209.2,0.472119,0.280070,2.658453,0.000024,  47.650
   209.4,0.469465,0.278425,2.655077,-0.000011,  47.647
   209.6,0.466650,0.276794,2.655056,0.000037,  47.645
   209.8,0.463656,0.275160,2.651711,0.000037,  47.644
   210.0,0.460812,0.273532,2.648387,0.000002,  47.646
   210.2,0.457971,0.271911,2.648382,0.000050,  47.644
   210.4,0.455103,0.270270,2.645115,0.000037,  47.648
   210.6,0.452269,0.268628,2.641878,0.000002,  47.646
   210.8,0.449439,0.266979,2.638644,0.000050,  47.644
   211.0,0.446613,0.265339,2.635428,0.000037,  47.649
   211.2,0.443805,0.263714,2.632230,0.000037,  47.646
   211.4,0.440994,0.262091,2.629066,0.000015,  47.646
   211.6,0.438193,0.260473,2.625925,0.000050,  47.647
   211.8,0.435425,0.258858,2.622812,0.000015,  47.643
   212.0,0.432660,0.257249,2.619715,-0.000008,  47.647
   212.2,0.429906,0.255623,2.619710,-0.000008,  47.647
   212.4,0.427155,0.253989,2.613582,-0.000008,  47.647
   212.6,0.424407,0.252352,2.610545,-0.000008,  47.646
   212.8,0.421656,0.250743,2.607566,0.000005,  47.645
   213.0,0.418964,0.249149,2.604630,-0.000008,  47.648
   213.2,0.416288,0.247571,2.598786,-0.000043,  47.646
   213.4,0.413642,0.246006,2.598856,-0.000030,  47.648
   213.6,0.410992,0.244449,2.593118,-0.000043,  47.647
   213.8,0.408338,0.242914,2.587467,-0.000078,  47.645
   214.0,0.405693,0.241376,2.584598,-0.000065,  47.646
   214.2,0.403052,0.239839,2.578893,-0.000043,  47.644
   214.4,0.400413,0.238315,2.573212,-0.000043,  47.641
   214.6,0.397777,0.236777,2.567672,-0.000030,  47.641
   214.8,0.395164,0.235236,2.562216,-0.000043,  47.640
   215.0,0.392566,0.233696,2.556844,-0.000030,  47.649
   215.2,0.389984,0.232392,2.554155,-0.000030,  47.644
   215.4,0.387392,0.231193,2.548859,-0.000030,  47.644
   215.6,0.384808,0.230116,2.541053,-0.000017,  47.649
   215.8,0.382228,0.229148,2.535922,-0.000017,  47.642
   216.0,0.379675,0.227762,2.533368,-0.000017,  47.640
   216.2,0.377130,0.226280,2.523379,-0.000004,  47.643
   216.4,0.374601,0.224705,2.518461,-0.000004,  47.642
   216.6,0.372086,0.223231,2.511191,-0.000017,  47.640
   216.8,0.369586,0.221752,2.504052,-0.000004,  47.644
   217.0,0.367088,0.220275,2.499389,-0.000039,  47.641
   217.2,0.364611,0.218795,2.490208,-0.000052,  47.646
   217.4,0.362147,0.217307,2.483485,-0.000039,  47.642
   217.6,0.359691,0.215813,2.476775,-0.000075,  47.647
   217.8,0.357261,0.214370,2.470135,-0.000075,  47.640
   218.0,0.354856,0.212953,2.461417,-0.000062,  47.643
   218.2,0.352459,0.211557,2.455024,-0.000075,  47.641
   218.4,0.350395,0.210151,2.448740,-0.000075,  47.643
   218.6,0.348490,0.208748,2.438472,-0.000062,  47.638
   218.8,0.346756,0.207347,2.430413,-0.000110,  47.644
   219.0,0.345190,0.205936,2.422500,-0.000110,  47.640
   219.2,0.342937,0.204518,2.412817,-0.000097,  47.641
   219.4,0.340507,0.203091,2.405209,-0.000145,  47.641
   219.6,0.337927,0.201691,2.395888,-0.000110,  47.643
   219.8,0.335548,0.200288,2.386761,-0.000097,  47.640
   220.0,0.333193,0.198900,2.377827,-0.000132,  47.636
   220.2,0.330857,0.197518,2.370806,-0.000097,  47.640
   220.4,0.328538,0.196146,2.358802,-0.000097,  47.638
   220.6,0.326221,0.194782,2.348774,-0.000084,  47.634
   220.8,0.323916,0.193407,2.340595,-0.000097,  47.632
   221.0,0.321612,0.192040,2.329413,-0.000097,  47.629
   221.2,0.319315,0.190672,2.320050,-0.000132,  47.631
   221.4,0.317014,0.189319,2.312396,-0.000132,  47.632
   221.6,0.314762,0.187977,2.306380,-0.000119,  47.633
   221.8,0.312528,0.186636,2.298972,-0.000154,  47.634
   222.0,0.310315,0.185314,2.290233,-0.000119,  47.635
   222.2,0.308120,0.184005,2.278847,-0.000119,  47.631
   222.4,0.305920,0.182707,2.267746,-0.000141,  47.638
   222.6,0.303730,0.181408,2.256959,-0.000106,  47.637
   222.8,0.301553,0.180131,2.245150,-0.000106,  47.633
   223.0,0.299370,0.178863,2.233667,-0.000128,  47.633
   223.2,0.297181,0.177586,2.223633,-0.000093,  47.631
   223.4,0.295019,0.176314,2.212594,-0.000106,  47.632
   223.6,0.292864,0.175047,2.200614,-0.000141,  47.633
   223.8,0.290713,0.173962,2.190145,-0.000106,  47.634
   224.0,0.288594,0.172969,2.178818,-0.000106,  47.640
   224.2,0.286490,0.172069,2.165618,-0.000141,  47.635
   224.4,0.284406,0.171262,2.154931,-0.000106,  47.638
   224.6,0.282332,0.170113,2.143498,-0.000106,  47.638
   224.8,0.280263,0.168894,2.130381,-0.000141,  47.637
   225.0,0.278214,0.167591,2.119529,-0.000106,  47.634
   225.2,0.276164,0.166370,2.107036,-0.000106,  47.638
   225.4,0.274128,0.165151,2.094874,-0.000141,  47.641
   225.6,0.272109,0.163935,2.083053,-0.000093,  47.640
   225.8,0.270101,0.162720,2.070678,-0.000093,  47.643
   226.0,0.268113,0.161510,2.058639,-0.000128,  47.639
   226.2,0.266141,0.160306,2.046107,-0.000116,  47.641
   226.4,0.264174,0.159135,2.033925,-0.000116,  47.647
   226.6,0.262229,0.157987,2.021302,-0.000151,  47.646
   226.8,0.260293,0.156843,2.009100,-0.000151,  47.650
   227.0,0.258343,0.155693,1.995815,-0.000151,  47.643
   227.2,0.256405,0.154551,1.982264,-0.000186,  47.645
   227.4,0.254465,0.153410,1.970348,-0.000138,  47.650
   227.6,0.252794,0.152263,1.958707,-0.000138,  47.650
   227.8,0.251263,0.151121,1.946659,-0.000173,  47.649
   228.0,0.249858,0.149982,1.935005,-0.000125,  47.652
   228.2,0.248591,0.148854,1.923055,-0.000138,  47.650
   228.4,0.246825,0.147722,1.909635,-0.000160,  47.656
   228.6,0.244961,0.146602,1.897184,-0.000125,  47.656
   228.8,0.242981,0.145496,1.885090,-0.000125,  47.658
   229.0,0.241134,0.144391,1.872225,-0.000147,  47.656
   229.2,0.239312,0.143297,1.859720,-0.000112,  47.652
   229.4,0.237487,0.142200,1.847049,-0.000112,  47.656
   229.6,0.235659,0.141102,1.833727,-0.000112,  47.657
   229.8,0.233851,0.140007,1.821285,-0.000147,  47.666
   230.0,0.232037,0.138934,1.808243,-0.000134,  47.663
   230.2,0.230249,0.137872,1.795575,-0.000147,  47.665
   230.4,0.228494,0.136825,1.785093,-0.000134,  47.670
   230.6,0.226751,0.135774,1.775304,-0.000134,  47.669
   230.8,0.225007,0.134734,1.765760,-0.000134,  47.669
   231.0,0.223282,0.133695,1.757272,-0.000157,  47.667
   231.2,0.221557,0.132666,1.746398,-0.000157,  47.668
   231.4,0.219825,0.131649,1.734166,-0.000122,  47.668
   231.6,0.218103,0.130637,1.721076,-0.000144,  47.673
   231.8,0.216369,0.129625,1.708772,-0.000144,  47.676
   232.0,0.214655,0.128613,1.696442,-0.000122,  47.676
   232.2,0.212948,0.127604,1.684094,-0.000144,  47.678
   232.4,0.211253,0.126748,1.671750,-0.000144,  47.679
   232.6,0.209588,0.125968,1.659419,-0.000122,  47.682
   232.8,0.207945,0.125260,1.646777,-0.000144,  47.682
   233.0,0.206336,0.124630,1.635116,-0.000144,  47.683
   233.2,0.204711,0.123736,1.622826,-0.000144,  47.686
   233.4,0.203092,0.122771,1.610578,-0.000144,  47.684
   233.6,0.201489,0.121749,1.598659,-0.000144,  47.687
   233.8,0.199892,0.120792,1.586773,-0.000144,  47.689
   234.0,0.198311,0.119837,1.574375,-0.000131,  47.688
   234.2,0.196734,0.118874,1.561818,-0.000131,  47.691
   234.4,0.195167,0.117930,1.549375,-0.000131,  47.697
   234.6,0.193613,0.116988,1.536534,-0.000118,  47.697
   234.8,0.192067,0.116049,1.524970,-0.000118,  47.699
   235.0,0.190543,0.115124,1.513677,-0.000131,  47.705
   235.2,0.189038,0.114215,1.502877,-0.000131,  47.705
   235.4,0.187546,0.113316,1.491461,-0.000118,  47.707
   235.6,0.186253,0.112412,1.480351,-0.000118,  47.707
   235.8,0.185066,0.111516,1.468881,-0.000153,  47.706
   236.0,0.183984,0.110625,1.457477,-0.000140,  47.710
   236.2,0.183006,0.109726,1.446360,-0.000140,  47.733
   236.4,0.181615,0.108825,1.434914,-0.000176,  47.727
   236.6,0.180121,0.107920,1.423762,-0.000176,  47.731
   236.8,0.178532,0.107042,1.412691,-0.000140,  47.734
   237.0,0.177063,0.106179,1.401334,-0.000140,  47.733
   237.2,0.175624,0.105330,1.390271,-0.000163,  47.739
   237.4,0.174195,0.104474,1.379310,-0.000163,  47.739
   237.6,0.172778,0.103631,1.368284,-0.000163,  47.742
   237.8,0.171374,0.102794,1.357199,-0.000185,  47.738
   238.0,0.169988,0.101955,1.346072,-0.000198,  47.743
   238.2,0.168600,0.101119,1.334904,-0.000163,  47.742
   238.4,0.167214,0.100292,1.323996,-0.000198,  47.742
   238.6,0.165853,0.099465,1.313196,-0.000163,  47.742
   238.8,0.164501,0.098652,1.302356,-0.000163,  47.742
   239.0,0.163147,0.097843,1.293381,-0.000150,  47.744
   239.2,0.161813,0.097040,1.285290,-0.000185,  47.743
   239.4,0.160493,0.096254,1.277919,-0.000185,  47.748
   239.6,0.159181,0.095475,1.271355,-0.000172,  47.746
   239.8,0.157886,0.094690,1.260820,-0.000172,  47.747
   240.0,0.156581,0.093916,1.249416,-0.000172,  47.746
   240.2,0.155268,0.093144,1.237083,-0.000159,  47.747
   240.4,0.153966,0.092368,1.227122,-0.000159,  47.748
   240.6,0.152680,0.091586,1.217669,-0.000172,  47.748
   240.8,0.151402,0.090807,1.208579,-0.000159,  47.746
   241.0,0.150131,0.090157,1.199057,-0.000159,  47.748
   241.2,0.148885,0.089571,1.189399,-0.000159,  47.749
   241.4,0.147653,0.089051,1.179619,-0.000146,  47.749
   241.6,0.146436,0.088592,1.169991,-0.000182,  47.748
   241.8,0.145223,0.087913,1.160171,-0.000182,  47.748
   242.0,0.144014,0.087190,1.150491,-0.000169,  47.751
   242.2,0.142819,0.086419,1.141159,-0.000204,  47.749
   242.4,0.141626,0.085703,1.131701,-0.000182,  47.750
   242.6,0.140435,0.084984,1.122432,-0.000191,  47.752
   242.8,0.139263,0.084271,1.113003,-0.000191,  47.756
   243.0,0.138087,0.083561,1.103596,-0.000191,  47.755
   243.2,0.136912,0.082855,1.094031,-0.000213,  47.755
   243.4,0.135753,0.082152,1.084927,-0.000178,  47.755
   243.6,0.134612,0.081462,1.075932,-0.000191,  47.757
   243.8,0.133478,0.080784,1.067027,-0.000226,  47.757
   244.0,0.132360,0.080118,1.058285,-0.000191,  47.757
   244.2,0.131397,0.079438,1.049544,-0.000191,  47.758
   244.4,0.130516,0.078764,1.040811,-0.000226,  47.762
   244.6,0.129714,0.078088,1.032010,-0.000178,  47.759
   244.8,0.128990,0.077410,1.023221,-0.000178,  47.760
   245.0,0.127971,0.076734,1.014381,-0.000213,  47.760
   245.2,0.126885,0.076061,1.005722,-0.000165,  47.761
   245.4,0.125725,0.075407,0.997163,-0.000178,  47.763
   245.6,0.124648,0.074762,0.988641,-0.000213,  47.767
   245.8,0.123573,0.074137,0.980130,-0.000200,  47.764
   246.0,0.122508,0.073505,0.971719,-0.000200,  47.768
   246.2,0.121459,0.072875,0.963405,-0.000236,  47.768
   246.4,0.120410,0.072258,0.954990,-0.000236,  47.768
   246.6,0.119387,0.071637,0.946490,-0.000200,  47.771
   246.8,0.118366,0.071022,0.937967,-0.000200,  47.771
   247.0,0.117342,0.070409,0.929714,-0.000200,  47.769
   247.2,0.116335,0.069798,0.921604,-0.000223,  47.771
   247.4,0.115329,0.069196,0.913456,-0.000188,  47.773
   247.6,0.114318,0.068595,0.906655,-0.000210,  47.777
   247.8,0.113322,0.067999,0.900484,-0.000210,  47.775
   248.0,0.112336,0.067413,0.894874,-0.000175,  47.775
   248.2,0.111356,0.066835,0.889899,-0.000197,  47.773
   248.4,0.110397,0.066248,0.882725,-0.000210,  47.778
   248.6,0.109427,0.065667,0.875056,-0.000175,  47.780
   248.8,0.108453,0.065093,0.866927,-0.000197,  47.779
   249.0,0.107498,0.064513,0.859305,-0.000197,  47.773
   249.2,0.106561,0.063945,0.851710,-0.000162,  47.777
   249.4,0.105633,0.063380,0.844136,-0.000184,  47.776
   249.6,0.104730,0.062902,0.836788,-0.000184,  47.778
   249.8,0.103819,0.062470,0.829406,-0.000184,  47.778
   250.0,0.102910,0.062079,0.822196,-0.000206,  47.779
   250.2,0.102006,0.061742,0.815114,-0.000184,  47.776
   250.4,0.101114,0.061239,0.808008,-0.000184,  47.781
   250.6,0.100227,0.060711,0.801015,-0.000206,  47.779
   250.8,0.099341,0.060145,0.794031,-0.000171,  47.781
   251.0,0.098477,0.059616,0.787026,-0.000171,  47.780
   251.2,0.097609,0.059096,0.780077,-0.000194,  47.778
   251.4,0.096745,0.058583,0.773109,-0.000194,  47.777
   251.6,0.095899,0.058062,0.766138,-0.000194,  47.780
   251.8,0.095051,0.057545,0.759150,-0.000229,  47.783
   252.0,0.094206,0.057037,0.752403,-0.000229,  47.782
   252.2,0.093375,0.056537,0.745718,-0.000194,  47.782
   252.4,0.092548,0.056044,0.739069,-0.000229,  47.778
   252.6,0.091730,0.055561,0.732517,-0.000229,  47.776
   252.8,0.090916,0.055069,0.725977,-0.000194,  47.778
   253.0,0.090107,0.054566,0.719469,-0.000216,  47.775
   253.2,0.089303,0.054071,0.712986,-0.000216,  47.774
   253.4,0.088624,0.053586,0.706475,-0.000181,  47.776
   253.6,0.087998,0.053103,0.699937,-0.000203,  47.773
   253.8,0.087451,0.052625,0.693657,-0.000203,  47.778
   254.0,0.086956,0.052149,0.687442,-0.000216,  47.778
   254.2,0.086234,0.051681,0.681283,-0.000216,  47.774
   254.4,0.085456,0.051217,0.675141,-0.000216,  47.775
   254.6,0.084628,0.050754,0.669021,-0.000216,  47.778
   254.8,0.083869,0.050296,0.662934,-0.000229,  47.777
   255.0,0.083117,0.049849,0.656843,-0.000229,  47.775
   255.2,0.082372,0.049406,0.650808,-0.000229,  47.777
   255.4,0.081632,0.048962,0.644753,-0.000229,  47.775
   255.6,0.080897,0.048521,0.638786,-0.000216,  47.772
   255.8,0.080169,0.048088,0.632885,-0.000216,  47.773
   256.0,0.079451,0.047652,0.626938,-0.000203,  47.775
   256.2,0.078738,0.047216,0.622036,-0.000238,  47.772
   256.4,0.078035,0.046784,0.617674,-0.000273,  47.773
   256.6,0.077321,0.046366,0.613735,-0.000260,  47.771
   256.8,0.076615,0.045951,0.610278,-0.000296,  47.764
   257.0,0.075912,0.045529,0.605214,-0.000331,  47.768
   257.2,0.075214,0.045110,0.599795,-0.000260,  47.769
   257.4,0.074529,0.044692,0.594059,-0.000260,  47.767
   257.6,0.073855,0.044282,0.588539,-0.000283,  47.767
   257.8,0.073181,0.043872,0.582956,-0.000248,  47.765
   258.0,0.072534,0.043474,0.577316,-0.000248,  47.764
   258.2,0.071893,0.043077,0.572032,-0.000270,  47.763
   258.4,0.071238,0.042693,0.566870,-0.000248,  47.761
   258.6,0.070599,0.042310,0.561791,-0.000248,  47.765
   258.8,0.069958,0.041985,0.556718,-0.000270,  47.768
   259.0,0.069318,0.041680,0.551687,-0.000248,  47.769
   259.2,0.068692,0.041416,0.546663,-0.000248,  47.768
   259.4,0.068060,0.041173,0.541685,-0.000270,  47.771
   259.6,0.067431,0.040827,0.536712,-0.000248,  47.769
   259.8,0.066817,0.040457,0.531726,-0.000235,  47.767
   260.0,0.066199,0.040057,0.526799,-0.000270,  47.770
   260.2,0.065592,0.039687,0.521892,-0.000235,  47.766
   260.4,0.065007,0.039319,0.517010,-0.000222,  47.769
   260.6,0.064428,0.038956,0.512109,-0.000257,  47.770
   260.8,0.063836,0.038595,0.507225,-0.000222,  47.769
   261.0,0.063247,0.038246,0.502341,-0.000209,  47.769
   261.2,0.062668,0.037903,0.497727,-0.000244,  47.772
   261.4,0.062089,0.037549,0.493210,-0.000222,  47.771
   261.6,0.061527,0.037200,0.488819,-0.000209,  47.771
   261.8,0.060968,0.036853,0.483909,-0.000231,  47.774
   262.0,0.060400,0.036510,0.478752,-0.000231,  47.774
   262.2,0.059852,0.036179,0.473443,-0.000218,  47.774
   262.4,0.059295,0.035849,0.469013,-0.000218,  47.779
   262.6,0.058823,0.035518,0.464924,-0.000196,  47.773
   262.8,0.058395,0.035185,0.461145,-0.000183,  47.777
   263.0,0.058000,0.034855,0.457038,-0.000218,  47.779
   263.2,0.057662,0.034537,0.452931,-0.000218,  47.775
   263.4,0.057167,0.034215,0.448832,-0.000206,  47.777
   263.6,0.056637,0.033897,0.444760,-0.000206,  47.775
   263.8,0.056085,0.033580,0.440689,-0.000206,  47.777
   264.0,0.055565,0.033269,0.436621,-0.000193,  47.775
   264.2,0.055055,0.032963,0.432549,-0.000215,  47.774
   264.4,0.054546,0.032651,0.428496,-0.000228,  47.778
   264.6,0.054039,0.032352,0.424431,-0.000215,  47.783
   264.8,0.053549,0.032055,0.420535,-0.000250,  47.785
   265.0,0.053059,0.031756,0.416687,-0.000237,  47.779
   265.2,0.052557,0.031460,0.412878,-0.000250,  47.781
   265.4,0.052069,0.031167,0.409616,-0.000250,  47.781
   265.6,0.051571,0.030878,0.406604,-0.000250,  47.787
   265.8,0.051092,0.030582,0.403912,-0.000215,  47.782
   266.0,0.050614,0.030287,0.401454,-0.000215,  47.781
   266.2,0.050151,0.030011,0.397838,-0.000250,  47.781
   266.4,0.049688,0.029731,0.393904,-0.000215,  47.784
   266.6,0.049219,0.029461,0.389695,-0.000250,  47.785
   266.8,0.048769,0.029185,0.386003,-0.000237,  47.789
   267.0,0.048316,0.028905,0.382409,-0.000237,  47.787
   267.2,0.047858,0.028632,0.378897,-0.000260,  47.786
   267.4,0.047418,0.028363,0.375396,-0.000224,  47.792
   267.6,0.046975,0.028092,0.371910,-0.000224,  47.791
   267.8,0.046532,0.027828,0.368458,-0.000247,  47.787
   268.0,0.046102,0.027602,0.364993,-0.000260,  47.789
   268.2,0.045672,0.027397,0.361533,-0.000260,  47.790
   268.4,0.045240,0.027216,0.358072,-0.000282,  47.788
   268.6,0.044820,0.027052,0.354650,-0.000295,  47.792
   268.8,0.044403,0.026816,0.351227,-0.000260,  47.787
   269.0,0.043992,0.026569,0.347826,-0.000282,  47.786
   269.2,0.043593,0.026302,0.344537,-0.000282,  47.784
   269.4,0.043186,0.026057,0.341306,-0.000247,  47.787
   269.6,0.042776,0.025807,0.338105,-0.000269,  47.784
   269.8,0.042373,0.025567,0.334948,-0.000269,  47.785
   270.0,0.041975,0.025325,0.331829,-0.000234,  47.786
   270.2,0.041575,0.025080,0.328748,-0.000256,  47.780
   270.4,0.041195,0.024840,0.325605,-0.000256,  47.785
   270.6,0.040807,0.024608,0.322433,-0.000221,  47.783
   270.8,0.040416,0.024373,0.319238,-0.000243,  47.780
   271.0,0.040038,0.024148,0.316138,-0.000243,  47.785
   271.2,0.039708,0.023920,0.313060,-0.000221,  47.785
   271.4,0.039412,0.023690,0.310025,-0.000243,  47.784
   271.6,0.039140,0.023461,0.307070,-0.000243,  47.783
   271.8,0.038898,0.023240,0.304159,-0.000243,  47.785
   272.0,0.038558,0.023019,0.301287,-0.000279,  47.783
   272.2,0.038195,0.022796,0.298448,-0.000243,  47.786
   272.4,0.037807,0.022581,0.295656,-0.000208,  47.781
   272.6,0.037450,0.022368,0.292877,-0.000230,  47.786
   272.8,0.037090,0.022153,0.290068,-0.000230,  47.782
   273.0,0.036749,0.021940,0.287259,-0.000230,  47.782
   273.2,0.036404,0.021733,0.284421,-0.000230,  47.785
   273.4,0.036060,0.021531,0.281657,-0.000218,  47.787
   273.6,0.035728,0.021327,0.278941,-0.000266,  47.786
   273.8,0.035390,0.021123,0.276242,-0.000230,  47.787
   274.0,0.035049,0.020921,0.273557,-0.000218,  47.788
   274.2,0.034709,0.020717,0.270889,-0.000218,  47.789
   274.4,0.034380,0.020516,0.268245,-0.000218,  47.786
   274.6,0.034057,0.020314,0.266005,-0.000253,  47.788
   274.8,0.033737,0.020118,0.263975,-0.000205,  47.789
   275.0,0.033420,0.019928,0.262150,-0.000205,  47.788
   275.2,0.033101,0.019740,0.260521,-0.000240,  47.784
   275.4,0.032784,0.019550,0.258149,-0.000227,  47.787
   275.6,0.032474,0.019360,0.255600,-0.000227,  47.787
   275.8,0.032169,0.019173,0.252859,-0.000262,  47.785
   276.0,0.031862,0.018989,0.250412,-0.000249,  47.784
   276.2,0.031560,0.018808,0.248034,-0.000227,  47.787
   276.4,0.031262,0.018625,0.245715,-0.000249,  47.786
   276.6,0.030963,0.018470,0.243375,-0.000249,  47.787
   276.8,0.030671,0.018331,0.241034,-0.000214,  47.791
   277.0,0.030375,0.018201,0.238698,-0.000236,  47.788
   277.2,0.030083,0.018088,0.236375,-0.000236,  47.791
   277.4,0.029800,0.017926,0.234013,-0.000201,  47.792
   277.6,0.029516,0.017755,0.231668,-0.000224,  47.793
   277.8,0.029238,0.017576,0.229418,-0.000224,  47.791
   278.0,0.028961,0.017410,0.227204,-0.000236,  47.791
   278.2,0.028681,0.017237,0.225019,-0.000224,  47.786
   278.4,0.028404,0.017068,0.222393,-0.000224,  47.789
   278.6,0.028132,0.016902,0.219570,-0.000224,  47.790
   278.8,0.027864,0.016737,0.216534,-0.000211,  47.790
   279.0,0.027598,0.016578,0.214502,-0.000224,  47.789
   279.2,0.027332,0.016417,0.212851,-0.000224,  47.791
   279.4,0.027067,0.016254,0.211589,-0.000211,  47.797
   279.6,0.026805,0.016098,0.209736,-0.000211,  47.794
   279.8,0.026581,0.015941,0.207762,-0.000211,  47.795
   280.0,0.026377,0.015779,0.205692,-0.000198,  47.792
   280.2,0.026195,0.015623,0.203625,-0.000211,  47.792
   280.4,0.026036,0.015466,0.201478,-0.000224,  47.793
   280.6,0.025802,0.015314,0.199281,-0.000246,  47.793
   280.8,0.025551,0.015164,0.197352,-0.000246,  47.794
   281.0,0.025278,0.015015,0.195519,-0.000233,  47.799
   281.2,0.025036,0.014865,0.193794,-0.000255,  47.794
   281.4,0.024794,0.014723,0.191999,-0.000255,  47.800
   281.6,0.024561,0.014577,0.190212,-0.000220,  47.798
   281.8,0.024328,0.014439,0.188443,-0.000220,  47.800
   282.0,0.024097,0.014299,0.186640,-0.000242,  47.798
   282.2,0.023861,0.014155,0.184827,-0.000220,  47.804
   282.4,0.023630,0.014017,0.182994,-0.000220,  47.796
   282.6,0.023403,0.013878,0.181196,-0.000242,  47.799
   282.8,0.023179,0.013735,0.179423,-0.000255,  47.804
   283.0,0.022961,0.013603,0.177674,-0.000242,  47.799
   283.2,0.022739,0.013471,0.176154,-0.000242,  47.799
   283.4,0.022514,0.013339,0.174766,-0.000265,  47.798
   283.6,0.022298,0.013207,0.173504,-0.000242,  47.797
   283.8,0.022085,0.013082,0.172350,-0.000242,  47.803
   284.0,0.021872,0.012954,0.170749,-0.000265,  47.801
   284.2,0.021665,0.012826,0.169033,-0.000230,  47.806
   284.4,0.021460,0.012703,0.167221,-0.000230,  47.803
   284.6,0.021262,0.012582,0.165596,-0.000252,  47.808
   284.8,0.021051,0.012456,0.164036,-0.000217,  47.800
   285.0,0.020853,0.012335,0.162503,-0.000217,  47.800
   285.2,0.020657,0.012229,0.160948,-0.000239,  47.804
   285.4,0.020455,0.012134,0.159410,-0.000217,  47.804
   285.6,0.020259,0.012049,0.157877,-0.000217,  47.805
   285.8,0.020066,0.011972,0.156328,-0.000239,  47.797
   286.0,0.019876,0.011866,0.154784,-0.000217,  47.806
   286.2,0.019686,0.011752,0.153236,-0.000204,  47.802
   286.4,0.019502,0.011633,0.151568,-0.000239,  47.803
   286.6,0.019309,0.011522,0.149845,-0.000204,  47.798
   286.8,0.019124,0.011406,0.148046,-0.000191,  47.802
   287.0,0.018934,0.011297,0.146600,-0.000226,  47.804
   287.2,0.018750,0.011190,0.145291,-0.000191,  47.802
   287.4,0.018571,0.011077,0.144119,-0.000178,  47.806
   287.6,0.018390,0.010972,0.142797,-0.000213,  47.808
   287.8,0.018214,0.010864,0.141470,-0.000213,  47.804
   288.0,0.018038,0.010761,0.140126,-0.000200,  47.812
   288.2,0.017865,0.010653,0.138761,-0.000200,  47.808
   288.4,0.017694,0.010545,0.137386,-0.000200,  47.805
   288.6,0.017527,0.010439,0.135980,-0.000187,  47.808
   288.8,0.017356,0.010335,0.134613,-0.000223,  47.810
   289.0,0.017213,0.010234,0.133261,-0.000223,  47.807
   289.2,0.017081,0.010128,0.131924,-0.000210,  47.812
   289.4,0.016968,0.010032,0.130609,-0.000245,  47.809
   289.6,0.016860,0.009934,0.129334,-0.000210,  47.808
   289.8,0.016721,0.009841,0.128057,-0.000197,  47.812
   290.0,0.016566,0.009743,0.126799,-0.000232,  47.807
   290.2,0.016398,0.009647,0.125564,-0.000210,  47.809
   290.4,0.016238,0.009552,0.124343,-0.000210,  47.809
   290.6,0.016087,0.009462,0.123131,-0.000232,  47.810
   290.8,0.015930,0.009366,0.121897,-0.000197,  47.813
   291.0,0.015773,0.009278,0.120681,-0.000184,  47.809
   291.2,0.015629,0.009181,0.119479,-0.000184,  47.807
   291.4,0.015478,0.009089,0.118270,-0.000219,  47.807
   291.6,0.015321,0.008998,0.117055,-0.000219,  47.810
   291.8,0.015177,0.008913,0.115868,-0.000242,  47.808
   292.0,0.015027,0.008827,0.114694,-0.000206,  47.806
   292.2,0.014878,0.008742,0.113503,-0.000219,  47.811
   292.4,0.014738,0.008656,0.112499,-0.000254,  47.809
   292.6,0.014599,0.008574,0.111578,-0.000219,  47.805
   292.8,0.014456,0.008482,0.110755,-0.000219,  47.805
   293.0,0.014316,0.008396,0.110015,-0.000254,  47.809
   293.2,0.014183,0.008317,0.109026,-0.000206,  47.804
   293.4,0.014043,0.008232,0.107991,-0.000206,  47.810
   293.6,0.013909,0.008154,0.106920,-0.000242,  47.808
   293.8,0.013781,0.008071,0.105840,-0.000194,  47.806
   294.0,0.013650,0.007994,0.104741,-0.000206,  47.808
   294.2,0.013518,0.007916,0.103609,-0.000229,  47.806
   294.4,0.013402,0.007850,0.102592,-0.000181,  47.806
   294.6,0.013279,0.007791,0.101630,-0.000181,  47.805
   294.8,0.013150,0.007744,0.100706,-0.000203,  47.804
   295.0,0.013033,0.007696,0.099756,-0.000203,  47.803
   295.2,0.012910,0.007628,0.098813,-0.000216,  47.804
   295.4,0.012781,0.007550,0.097873,-0.000238,  47.800
   295.6,0.012661,0.007470,0.096951,-0.000238,  47.800
   295.8,0.012541,0.007396,0.096050,-0.000216,  47.801
   296.0,0.012415,0.007324,0.095145,-0.000238,  47.806
   296.2,0.012303,0.007256,0.094234,-0.000238,  47.802
   296.4,0.012189,0.007186,0.093336,-0.000203,  47.800
   296.6,0.012070,0.007114,0.092421,-0.000225,  47.801
   296.8,0.011962,0.007045,0.091469,-0.000225,  47.803
   297.0,0.011850,0.006982,0.090476,-0.000190,  47.803
   297.2,0.011732,0.006916,0.089465,-0.000212,  47.801
   297.4,0.011629,0.006846,0.088376,-0.000212,  47.804
   297.6,0.011519,0.006776,0.087243,-0.000177,  47.808
   297.8,0.011404,0.006714,0.086047,-0.000212,  47.804
   298.0,0.011301,0.006652,0.085179,-0.000212,  47.801
   298.2,0.011214,0.006586,0.084462,-0.000177,  47.804
   298.4,0.011131,0.006519,0.083875,-0.000199,  47.804
   298.6,0.011054,0.006456,0.083163,-0.000199,  47.796
   298.8,0.010987,0.006393,0.082458,-0.000199,  47.804
   299.0,0.010900,0.006331,0.081750,-0.000222,  47.802
   299.2,0.010802,0.006268,0.081009,-0.000174,  47.801
   299.4,0.010698,0.006206,0.080240,-0.000187,  47.802
   299.6,0.010602,0.006151,0.079450,-0.000222,  47.802
   299.8,0.010504,0.006095,0.078671,-0.000174,  47.800
   300.0,0.010409,0.006039,0.077903,-0.000187,  47.803
   300.2,0.010314,0.005980,0.077114,-0.000187,  47.798
   300.4,0.010220,0.005917,0.076314,-0.000174,  47.800
   300.6,0.010120,0.005863,0.075497,-0.000174,  47.799
   300.8,0.010027,0.005807,0.074672,-0.000174,  47.794
   301.0,0.009943,0.005747,0.073883,-0.000174,  47.797
   301.2,0.009855,0.005689,0.073110,-0.000174,  47.795
   301.4,0.009759,0.005629,0.072348,-0.000174,  47.795
   301.6,0.009671,0.005573,0.071596,-0.000209,  47.800
   301.8,0.009587,0.005516,0.070981,-0.000196,  47.792
   302.0,0.009496,0.005461,0.070423,-0.000196,  47.791
   302.2,0.009402,0.005415,0.069922,-0.000231,  47.790
   302.4,0.009317,0.005358,0.069312,-0.000218,  47.790
   302.6,0.009226,0.005307,0.068670,-0.000196,  47.795
   302.8,0.009141,0.005257,0.067993,-0.000218,  47.792
   303.0,0.009051,0.005204,0.067359,-0.000218,  47.791
   303.2,0.008967,0.005152,0.066725,-0.000183,  47.791
   303.4,0.008884,0.005102,0.066089,-0.000206,  47.790
   303.6,0.008802,0.005060,0.065469,-0.000206,  47.788
   303.8,0.008720,0.005021,0.064872,-0.000206,  47.788
   304.0,0.008638,0.004982,0.064271,-0.000228,  47.789
   304.2,0.008556,0.004950,0.063676,-0.000215,  47.786
   304.4,0.008479,0.004904,0.063114,-0.000215,  47.790
   304.6,0.008403,0.004855,0.062556,-0.000237,  47.792
   304.8,0.008323,0.004810,0.061917,-0.000237,  47.789
   305.0,0.008246,0.004761,0.061261,-0.000215,  47.792
   305.2,0.008170,0.004714,0.060574,-0.000202,  47.787
   305.4,0.008093,0.004672,0.059961,-0.000202,  47.787
   305.6,0.008019,0.004621,0.059357,-0.000215,  47.786
   305.8,0.007945,0.004579,0.058751,-0.000202,  47.784
   306.0,0.007871,0.004540,0.058140,-0.000202,  47.791
   306.2,0.007800,0.004493,0.057532,-0.000202,  47.786
   306.4,0.007728,0.004451,0.056905,-0.000189,  47.789
   306.6,0.007652,0.004406,0.056302,-0.000189,  47.787
   306.8,0.007580,0.004360,0.055692,-0.000189,  47.790
   307.0,0.007512,0.004320,0.055096,-0.000176,  47.789
   307.2,0.007444,0.004276,0.054583,-0.000163,  47.789
   307.4,0.007386,0.004231,0.054116,-0.000176,  47.791
   307.6,0.007333,0.004188,0.053684,-0.000176,  47.788
   307.8,0.007288,0.004152,0.053170,-0.000163,  47.789
   308.0,0.007246,0.004105,0.052625,-0.000176,  47.787
   308.2,0.007179,0.004067,0.052059,-0.000176,  47.787
   308.4,0.007119,0.004029,0.051563,-0.000199,  47.788
   308.6,0.007051,0.003989,0.051082,-0.000199,  47.789
   308.8,0.006981,0.003949,0.050619,-0.000199,  47.783
   309.0,0.006915,0.003913,0.050122,-0.000234,  47.786
   309.2,0.006852,0.003872,0.049609,-0.000199,  47.785
   309.4,0.006791,0.003833,0.049088,-0.000199,  47.782
   309.6,0.006728,0.003796,0.048587,-0.000221,  47.788
   309.8,0.006665,0.003757,0.048070,-0.000186,  47.782
   310.0,0.006610,0.003722,0.047551,-0.000186,  47.780
   310.2,0.006552,0.003690,0.047118,-0.000173,  47.777
   310.4,0.006494,0.003648,0.046735,-0.000173,  47.783
   310.6,0.006441,0.003613,0.046385,-0.000195,  47.777
   310.8,0.006383,0.003584,0.046085,-0.000182,  47.779
   311.0,0.006325,0.003550,0.045659,-0.000182,  47.783
   311.2,0.006270,0.003520,0.045198,-0.000195,  47.783
   311.4,0.006215,0.003496,0.044715,-0.000182,  47.781
   311.6,0.006157,0.003465,0.044296,-0.000169,  47.785
   311.8,0.006104,0.003439,0.043900,-0.000169,  47.781
   312.0,0.006049,0.003402,0.043514,-0.000157,  47.778
   312.2,0.006000,0.003367,0.043066,-0.000157,  47.779
   312.4,0.005941,0.003340,0.042602,-0.000169,  47.781
   312.6,0.005892,0.003310,0.042117,-0.000157,  47.777
   312.8,0.005849,0.003283,0.041657,-0.000157,  47.778
   313.0,0.005793,0.003254,0.041205,-0.000157,  47.777
   313.2,0.005745,0.003231,0.040743,-0.000157,  47.785
   313.4,0.005702,0.003212,0.040330,-0.000157,  47.780
   313.6,0.005646,0.003178,0.039953,-0.000157,  47.783
   313.8,0.005602,0.003153,0.039593,-0.000144,  47.784
   314.0,0.005555,0.003120,0.039130,-0.000144,  47.786
   314.2,0.005499,0.003089,0.038608,-0.000144,  47.785
   314.4,0.005458,0.003060,0.038065,-0.000166,  47.783
   314.6,0.005411,0.003033,0.037707,-0.000140,  47.785
   314.8,0.005366,0.003009,0.037407,-0.000175,  47.784
   315.0,0.005316,0.002983,0.037189,-0.000211,  47.784
   315.2,0.005273,0.002955,0.036971,-0.000163,  47.780
   315.4,0.005228,0.002929,0.036787,-0.000175,  47.782
   315.6,0.005174,0.002898,0.036642,-0.000211,  47.782
   315.8,0.005136,0.002868,0.036335,-0.000163,  47.788
   316.0,0.005097,0.002840,0.035953,-0.000175,  47.785
   316.2,0.005059,0.002815,0.035505,-0.000211,  47.783
   316.4,0.005034,0.002793,0.035097,-0.000163,  47.785
   316.6,0.005010,0.002764,0.034668,-0.000175,  47.782
   316.8,0.004964,0.002739,0.034219,-0.000198,  47.780
   317.0,0.004926,0.002709,0.033882,-0.000163,  47.784
   317.2,0.004879,0.002680,0.033577,-0.000163,  47.784
   317.4,0.004837,0.002656,0.033302,-0.000185,  47.784
   317.6,0.004791,0.002633,0.032973,-0.000163,  47.781
   317.8,0.004755,0.002607,0.032642,-0.000163,  47.777
   318.0,0.004716,0.002586,0.032301,-0.000163,  47.777
   318.2,0.004671,0.002565,0.031968,-0.000185,  47.779
   318.4,0.004637,0.002540,0.031641,-0.000163,  47.778
   318.6,0.004603,0.002517,0.031335,-0.000150,  47.776
   318.8,0.004558,0.002498,0.031077,-0.000185,  47.778
   319.0,0.004525,0.002479,0.030873,-0.000172,  47.783
   319.2,0.004488,0.002453,0.030676,-0.000137,  47.775
   319.4,0.004448,0.002432,0.030532,-0.000159,  47.774
   319.6,0.004414,0.002413,0.030283,-0.000124,  47.772
   319.8,0.004378,0.002383,0.029999,-0.000124,  47.777
   320.0,0.004332,0.002362,0.029702,-0.000146,  47.776
   320.2,0.004299,0.002339,0.029374,-0.000111,  47.772
   320.4,0.004265,0.002317,0.029030,-0.000111,  47.773
   320.6,0.004225,0.002297,0.028658,-0.000133,  47.774
   320.8,0.004200,0.002278,0.028370,-0.000133,  47.768
   321.0,0.004168,0.002258,0.028104,-0.000133,  47.762
   321.2,0.004128,0.002241,0.027847,-0.000156,  47.767
   321.4,0.004100,0.002226,0.027516,-0.000143,  47.767
   321.6,0.004066,0.002211,0.027147,-0.000120,  47.768
   321.8,0.004035,0.002203,0.026738,-0.000156,  47.767
   322.0,0.004009,0.002189,0.026456,-0.000143,  47.762
   322.2,0.003975,0.002173,0.026230,-0.000143,  47.768
   322.4,0.003944,0.002149,0.026046,-0.000178,  47.763
   322.6,0.003921,0.002127,0.025809,-0.000143,  47.764
   322.8,0.003890,0.002108,0.025570,-0.000143,  47.765
   323.0,0.003852,0.002090,0.025336,-0.000178,  47.765
   323.2,0.003827,0.002077,0.025103,-0.000130,  47.766
   323.4,0.003798,0.002056,0.024856,-0.000130,  47.762
   323.6,0.003767,0.002037,0.024626,-0.000165,  47.763
   323.8,0.003742,0.002020,0.024393,-0.000117,  47.773
   324.0,0.003719,0.001998,0.024152,-0.000130,  47.766
   324.2,0.003693,0.001984,0.023909,-0.000152,  47.765
   324.4,0.003661,0.001969,0.023658,-0.000117,  47.768
   324.6,0.003638,0.001951,0.023394,-0.000117,  47.770
   324.8,0.003617,0.001936,0.023113,-0.000139,  47.764
   325.0,0.003600,0.001920,0.022907,-0.000117,  47.765
   325.2,0.003581,0.001901,0.022729,-0.000117,  47.762
   325.4,0.003558,0.001890,0.022574,-0.000139,  47.764
   325.6,0.003535,0.001874,0.022340,-0.000104,  47.772
   325.8,0.003504,0.001855,0.022072,-0.000104,  47.769
   326.0,0.003471,0.001838,0.021789,-0.000126,  47.765
   326.2,0.003451,0.001825,0.021552,-0.000126,  47.767
   326.4,0.003420,0.001805,0.021319,-0.000126,  47.761
   326.6,0.003388,0.001792,0.021114,-0.000126,  47.764
   326.8,0.003368,0.001778,0.020888,-0.000162,  47.767
   327.0,0.003342,0.001762,0.020662,-0.000113,  47.767
   327.2,0.003312,0.001751,0.020434,-0.000113,  47.766
   327.4,0.003297,0.001735,0.020244,-0.000136,  47.769
   327.6,0.003280,0.001719,0.020086,-0.000113,  47.767
   327.8,0.003250,0.001707,0.019922,-0.000113,  47.767
   328.0,0.003227,0.001688,0.019771,-0.000136,  47.765
   328.2,0.003200,0.001675,0.019626,-0.000113,  47.768
   328.4,0.003171,0.001660,0.019496,-0.000091,  47.768
   328.6,0.003153,0.001648,0.019364,-0.000113,  47.767
   328.8,0.003134,0.001633,0.018892,-0.000113,  47.763
   329.0,0.003104,0.001616,0.018287,-0.000101,  47.760
   329.2,0.003083,0.001602,0.017554,-0.000123,  47.765
   329.4,0.003063,0.001586,0.017369,-0.000123,  47.762
   329.6,0.003033,0.001566,0.017379,-0.000088,  47.766
   329.8,0.003012,0.001558,0.017588,-0.000110,  47.768
   330.0,0.002995,0.001547,0.017529,-0.000097,  47.766
   330.2,0.002968,0.001535,0.017443,-0.000097,  47.765
   330.4,0.002947,0.001525,0.017326,-0.000097,  47.768
   330.6,0.002932,0.001520,0.017202,-0.000097,  47.766
   330.8,0.002905,0.001506,0.017052,-0.000097,  47.771
   331.0,0.002884,0.001494,0.016890,-0.000132,  47.766
   331.2,0.002870,0.001484,0.016783,-0.000119,  47.765
   331.4,0.002842,0.001468,0.016679,-0.000119,  47.768
   331.6,0.002830,0.001454,0.016598,-0.000142,  47.765
   331.8,0.002816,0.001444,0.016449,-0.000142,  47.760
   332.0,0.002791,0.001433,0.016261,-0.000107,  47.763
   332.2,0.002777,0.001419,0.016052,-0.000094,  47.760
   332.4,0.002753,0.001408,0.015898,-0.000107,  47.762
   332.6,0.002729,0.001395,0.015746,-0.000107,  47.763
   332.8,0.002714,0.001382,0.015602,-0.000094,  47.766
   333.0,0.002693,0.001369,0.015474,-0.000094,  47.764
   333.2,0.002669,0.001359,0.015363,-0.000094,  47.765
   333.4,0.002659,0.001350,0.015239,-0.000081,  47.769
   333.6,0.002638,0.001342,0.015093,-0.000081,  47.767
   333.8,0.002623,0.001330,0.014932,-0.000094,  47.767
   334.0,0.002609,0.001322,0.014745,-0.000081,  47.766
   334.2,0.002596,0.001310,0.014616,-0.000081,  47.770
   334.4,0.002587,0.001301,0.014531,-0.000081,  47.769
   334.6,0.002569,0.001289,0.014463,-0.000068,  47.769
   334.8,0.002557,0.001282,0.014312,-0.000081,  47.768
   335.0,0.002546,0.001272,0.014141,-0.000081,  47.771
   335.2,0.002533,0.001258,0.013955,-0.000068,  47.770
   335.4,0.002511,0.001247,0.013827,-0.000103,  47.776
   335.6,0.002491,0.001235,0.013701,-0.000103,  47.772
   335.8,0.002478,0.001230,0.013599,-0.000138,  47.773
   336.0,0.002456,0.001222,0.013463,-0.000125,  47.772
   336.2,0.002438,0.001212,0.013312,-0.000125,  47.774
   336.4,0.002416,0.001199,0.013162,-0.000090,  47.774
   336.6,0.002397,0.001186,0.013040,-0.000090,  47.774
   336.8,0.002384,0.001176,0.012920,-0.000077,  47.776
   337.0,0.002365,0.001169,0.012816,-0.000077,  47.774
   337.2,0.002349,0.001164,0.012722,-0.000064,  47.772
   337.4,0.002342,0.001150,0.012565,-0.000087,  47.771
   337.6,0.002323,0.001147,0.012390,-0.000064,  47.775
   337.8,0.002314,0.001140,0.012190,-0.000064,  47.770
   338.0,0.002304,0.001130,0.011950,-0.000087,  47.771
   338.2,0.002291,0.001120,0.011680,-0.000087,  47.773
   338.4,0.002275,0.001110,0.011371,-0.000087,  47.769
   338.6,0.002266,0.001104,0.011261,-0.000087,  47.772
   338.8,0.002247,0.001092,0.011242,-0.000100,  47.774
   339.0,0.002231,0.001095,0.011307,-0.000100,  47.773
   339.2,0.002218,0.001090,0.011273,-0.000074,  47.774
   339.4,0.002199,0.001082,0.011220,-0.000074,  47.771
   339.6,0.002195,0.001071,0.011161,-0.000074,  47.772
   339.8,0.002182,0.001061,0.011074,-0.000096,  47.776
   340.0,0.002165,0.001055,0.010950,-0.000109,  47.771
   340.2,0.002158,0.001046,0.010803,-0.000096,  47.771
   340.4,0.002142,0.001038,0.010699,-0.000131,  47.772
   340.6,0.002126,0.001033,0.010600,-0.000096,  47.767
   340.8,0.002119,0.001029,0.010503,-0.000083,  47.767
   341.0,0.002106,0.001017,0.010414,-0.000131,  47.769
   341.2,0.002089,0.001009,0.010312,-0.000096,  47.772
   341.4,0.002085,0.001002,0.010223,-0.000083,  47.771
   341.6,0.002072,0.001001,0.010156,-0.000119,  47.772
   341.8,0.002062,0.000995,0.010104,-0.000083,  47.773
   342.0,0.002048,0.000987,0.010072,-0.000070,  47.769
   342.2,0.002046,0.000984,0.009983,-0.000106,  47.771
   342.4,0.002038,0.000975,0.009869,-0.000070,  47.767
   342.6,0.002024,0.000962,0.009734,-0.000093,  47.771
   342.8,0.002023,0.000958,0.009645,-0.000093,  47.774
   343.0,0.002009,0.000948,0.009573,-0.000093,  47.768
   343.2,0.001993,0.000938,0.009517,-0.000102,  47.769
   343.4,0.001989,0.000940,0.009391,-0.000067,  47.771
   343.6,0.001976,0.000934,0.009233,-0.000067,  47.769
   343.8,0.001965,0.000922,0.009047,-0.000067,  47.771
   344.0,0.001955,0.000918,0.008951,-0.000054,  47.770
   344.2,0.001948,0.000916,0.008887,-0.000089,  47.771
   344.4,0.001938,0.000911,0.008854,-0.000089,  47.776
   344.6,0.001930,0.000907,0.008813,-0.000076,  47.774
   344.8,0.001925,0.000905,0.008774,-0.000089,  47.775
   345.0,0.001915,0.000894,0.008748,-0.000089,  47.776
   345.2,0.001905,0.000889,0.008724,-0.000125,  47.773
   345.4,0.001894,0.000882,0.008700,-0.000112,  47.774
   345.6,0.001886,0.000874,0.008666,-0.000089,  47.773
   345.8,0.001876,0.000875,0.008643,-0.000125,  47.776
   346.0,0.001863,0.000871,0.008577,-0.000089,  47.774
   346.2,0.001855,0.000866,0.008473,-0.000067,  47.779
   346.4,0.001847,0.000863,0.008370,-0.000102,  47.772
   346.6,0.001837,0.000861,0.008279,-0.000054,  47.771
   346.8,0.001829,0.000857,0.008181,-0.000041,  47.770
   347.0,0.001824,0.000849,0.008080,-0.000076,  47.778
   347.2,0.001813,0.000845,0.007989,-0.000064,  47.772
   347.4,0.001806,0.000841,0.007899,-0.000064,  47.774
   347.6,0.001798,0.000839,0.007806,-0.000086,  47.775
   347.8,0.001787,0.000837,0.007686,-0.000086,  47.774
   348.0,0.001777,0.000831,0.007559,-0.000051,  47.774
   348.2,0.001769,0.000829,0.007412,-0.000073,  47.773
   348.4,0.001761,0.000823,0.007334,-0.000073,  47.777
   348.6,0.001751,0.000817,0.007286,-0.000038,  47.777
   348.8,0.001743,0.000813,0.007254,-0.000060,  47.777
   349.0,0.001741,0.000806,0.007162,-0.000060,  47.773
   349.2,0.001736,0.000798,0.007044,-0.000025,  47.775
   349.4,0.001720,0.000794,0.006910,-0.000047,  47.774
   349.6,0.001715,0.000786,0.006702,-0.000047,  47.774
   349.8,0.001710,0.000780,0.006451,-0.000012,  47.773
   350.0,0.001696,0.000778,0.006149,-0.000034,  47.773
   350.2,0.001695,0.000770,0.006083,-0.000034,  47.772
   350.4,0.001687,0.000766,0.006109,-0.000034,  47.775
   350.6,0.001678,0.000760,0.006226,-0.000069,  47.771
   350.8,0.001676,0.000756,0.006261,-0.000034,  47.769
   351.0,0.001674,0.000748,0.006289,-0.000034,  47.770
   351.2,0.001662,0.000741,0.006324,-0.000069,  47.776
   351.4,0.001652,0.000737,0.006281,-0.000034,  47.773
   351.6,0.001648,0.000731,0.006187,-0.000047,  47.771
   351.8,0.001642,0.000728,0.006043,-0.000057,  47.773
   352.0,0.001628,0.000730,0.006021,-0.000021,  47.771
   352.2,0.001618,0.000724,0.006045,-0.000021,  47.767
   352.4,0.001615,0.000714,0.006092,-0.000008,  47.772
   352.6,0.001608,0.000716,0.006072,-0.000031,  47.771
   352.8,0.001600,0.000712,0.006056,-0.000031,  47.772
   353.0,0.001595,0.000705,0.006030,-0.000031,  47.769
   353.2,0.001587,0.000703,0.005957,-0.000066,  47.770
   353.4,0.001576,0.000698,0.005870,-0.000031,  47.770
   353.6,0.001569,0.000692,0.005763,-0.000031,  47.767
   353.8,0.001563,0.000686,0.005701,-0.000066,  47.767
   354.0,0.001558,0.000680,0.005651,-0.000066,  47.773
   354.2,0.001553,0.000676,0.005620,-0.000031,  47.770
   354.4,0.001548,0.000672,0.005595,-0.000066,  47.769
   354.6,0.001549,0.000668,0.005534,-0.000053,  47.774
   354.8,0.001544,0.000669,0.005470,-0.000018,  47.766
   355.0,0.001530,0.000670,0.005391,-0.000040,  47.765
   355.2,0.001528,0.000661,0.005306,-0.000040,  47.767
   355.4,0.001523,0.000659,0.005221,-0.000005,  47.773
   355.6,0.001506,0.000660,0.005142,-0.000027,  47.768
   355.8,0.001504,0.000658,0.004833,-0.000027,  47.770
   356.0,0.001502,0.000654,0.004415,0.000008,  47.767
   356.2,0.001488,0.000655,0.003887,-0.000014,  47.774
   356.4,0.001489,0.000653,0.003839,-0.000014,  47.767
   356.6,0.001484,0.000652,0.003972,0.000008,  47.769
   356.8,0.001472,0.000649,0.004281,-0.000014,  47.774
   357.0,0.001468,0.000643,0.004329,-0.000014,  47.774
   357.2,0.001460,0.000637,0.004321,-0.000014,  47.777
   357.4,0.001449,0.000631,0.004273,-0.000001,  47.774
   357.6,0.001447,0.000630,0.004263,-0.000001,  47.773
   357.8,0.001442,0.000628,0.004252,-0.000001,  47.772
   358.0,0.001431,0.000623,0.004234,-0.000024,  47.774
   358.2,0.001434,0.000621,0.004254,-0.000024,  47.773
   358.4,0.001432,0.000615,0.004306,-0.000037,  47.773
   358.6,0.001420,0.000611,0.004382,-0.000059,  47.772
   358.8,0.001424,0.000609,0.004362,-0.000059,  47.771
   359.0,0.001421,0.000609,0.004285,-0.000037,  47.770
   359.2,0.001407,0.000605,0.004169,-0.000024,  47.768
   359.4,0.001406,0.000602,0.004102,-0.000024,  47.770
   359.6,0.001400,0.000597,0.004040,-0.000024,  47.774
   359.8,0.001400,0.000590,0.003983,-0.000011,  47.770
   360.0,0.001398,0.000588,0.003957,-0.000033,  47.770
   360.2,0.001401,0.000582,0.003951,-0.000033,  47.771
   360.4,0.001390,0.000576,0.003967,-0.000020,  47.768
   360.6,0.001394,0.000579,0.003963,-0.000043,  47.767
   360.8,0.001388,0.000575,0.003940,-0.000020,  47.770
   361.0,0.001383,0.000569,0.003921,-0.000020,  47.771
   361.2,0.001372,0.000570,0.003857,-0.000043,  47.770
   361.4,0.001366,0.000568,0.003759,-0.000007,  47.771
   361.6,0.001364,0.000562,0.003621,-0.000007,  47.774
   361.8,0.001355,0.000560,0.003561,-0.000007,  47.772
   362.0,0.001350,0.000557,0.003531,0.000005,  47.769
   362.2,0.001347,0.000557,0.003513,-0.000007,  47.772
   362.4,0.001345,0.000556,0.003402,-0.000030,  47.772
   362.6,0.001343,0.000552,0.003262,0.000005,  47.772
   362.8,0.001343,0.000552,0.003083,0.000005,  47.774
   363.0,0.001332,0.000556,0.002868,0.000018,  47.769
   363.2,0.001329,0.000552,0.002893,-0.000030,  47.772
   363.4,0.001329,0.000550,0.002998,0.000005,  47.771
   363.6,0.001324,0.000548,0.003167,0.000018,  47.769
   363.8,0.001325,0.000542,0.003188,-0.000030,  47.771
   364.0,0.001322,0.000545,0.003150,0.000005,  47.772
   364.2,0.001316,0.000543,0.003079,0.000018,  47.775
   364.4,0.001320,0.000537,0.003061,-0.000030,  47.774
   364.6,0.001317,0.000541,0.003040,0.000005,  47.775
   364.8,0.001308,0.000541,0.003022,0.000018,  47.775
   365.0,0.001303,0.000544,0.003023,-0.000017,  47.776
   365.2,0.001300,0.000540,0.003051,0.000018,  47.775
   365.4,0.001298,0.000538,0.003088,0.000031,  47.777
   365.6,0.001299,0.000541,0.003094,-0.000004,  47.775
   365.8,0.001302,0.000541,0.003083,-0.000004,  47.779
   366.0,0.001297,0.000543,0.003070,0.000009,  47.776
   366.2,0.001301,0.000543,0.003065,0.000009,  47.780
   366.4,0.001307,0.000543,0.003052,0.000009,  47.776
   366.6,0.001304,0.000543,0.003035,0.000022,  47.775
   366.8,0.001299,0.000539,0.002971,0.000022,  47.779
   367.0,0.001293,0.000534,0.002882,0.000022,  47.778
   367.2,0.001293,0.000538,0.002767,0.000022,  47.780
   367.4,0.001297,0.000534,0.002718,0.000022,  47.782
   367.6,0.001288,0.000533,0.002664,0.000022,  47.777
   367.8,0.001285,0.000538,0.002632,0.000035,  47.784
   368.0,0.001289,0.000538,0.002602,0.000012,  47.786
   368.2,0.001286,0.000531,0.002572,0.000012,  47.785
   368.4,0.001280,0.000531,0.002537,0.000025,  47.784
   368.6,0.001284,0.000525,0.002507,0.000003,  47.785
   368.8,0.001284,0.000522,0.002477,0.000012,  47.784
   369.0,0.001284,0.000519,0.002432,0.000012,  47.782
   369.2,0.001278,0.000519,0.002387,-0.000010,  47.784
   369.4,0.001276,0.000520,0.002340,0.000025,  47.788
   369.6,0.001267,0.000520,0.002284,0.000025,  47.785
   369.8,0.001267,0.000521,0.002234,0.000003,  47.788
   370.0,0.001271,0.000519,0.002202,0.000038,  47.787
   370.2,0.001262,0.000514,0.002163,0.000051,  47.789
   370.4,0.001257,0.000514,0.002135,0.000029,  47.787
   370.6,0.001260,0.000510,0.002120,0.000051,  47.787
   370.8,0.001254,0.000512,0.002107,0.000051,  47.788
   371.0,0.001249,0.000513,0.002152,0.000029,  47.789
   371.2,0.001244,0.000510,0.002225,0.000064,  47.787
   371.4,0.001241,0.000508,0.002318,0.000064,  47.786
   371.6,0.001238,0.000501,0.002448,0.000042,  47.789
   371.8,0.001236,0.000503,0.002396,0.000042,  47.788
   372.0,0.001236,0.000501,0.002291,0.000029,  47.789
   372.2,0.001233,0.000501,0.002140,0.000006,  47.790
   372.4,0.001236,0.000499,0.002080,0.000042,  47.793
   372.6,0.001236,0.000496,0.002056,0.000042,  47.793
   372.8,0.001231,0.000498,0.002043,0.000019,  47.792
   373.0,0.001232,0.000494,0.001917,0.000042,  47.790
   373.2,0.001223,0.000487,0.001761,0.000042,  47.790
   373.4,0.001226,0.000490,0.001558,0.000019,  47.793
   373.6,0.001230,0.000488,0.001547,0.000055,  47.793
   373.8,0.001221,0.000484,0.001615,0.000055,  47.794
   374.0,0.001222,0.000487,0.001743,0.000032,  47.794
   374.2,0.001220,0.000485,0.001772,0.000068,  47.793
   374.4,0.001213,0.000483,0.001786,0.000055,  47.791
   374.6,0.001211,0.000484,0.001780,0.000032,  47.794
   374.8,0.001199,0.000483,0.001760,0.000068,  47.789
   375.0,0.001197,0.000476,0.001728,0.000068,  47.791
   375.2,0.001197,0.000480,0.001679,0.000045,  47.793
   375.4,0.001192,0.000478,0.001651,0.000080,  47.790
   375.6,0.001192,0.000478,0.001636,0.000080,  47.792
   375.8,0.001186,0.000478,0.001622,0.000058,  47.791
   376.0,0.001184,0.000478,0.001618,0.000071,  47.791
   376.2,0.001184,0.000479,0.001622,0.000058,  47.792
   376.4,0.001181,0.000481,0.001626,0.000023,  47.791
   376.6,0.001185,0.000474,0.001616,0.000036,  47.792
   376.8,0.001182,0.000469,0.001603,0.000036,  47.789
   377.0,0.001176,0.000471,0.001578,0.000000,  47.790
   377.2,0.001180,0.000473,0.001550,0.000049,  47.790
   377.4,0.001177,0.000470,0.001519,0.000049,  47.789
   377.6,0.001174,0.000472,0.001479,0.000026,  47.787
   377.8,0.001181,0.000477,0.001483,0.000062,  47.792
   378.0,0.001178,0.000475,0.001497,0.000062,  47.793
   378.2,0.001172,0.000474,0.001533,0.000039,  47.792
   378.4,0.001175,0.000477,0.001496,0.000062,  47.793
   378.6,0.001170,0.000477,0.001424,0.000062,  47.792
   378.8,0.001164,0.000474,0.001340,0.000062,  47.789
   379.0,0.001173,0.000480,0.001336,0.000062,  47.792
   379.2,0.001170,0.000480,0.001365,0.000062,  47.790
   379.4,0.001164,0.000476,0.001412,0.000062,  47.790
   379.6,0.001170,0.000479,0.001392,0.000062,  47.789
   379.8,0.001168,0.000473,0.001360,0.000062,  47.787
   380.0,0.001159,0.000473,0.001304,0.000074,  47.789
   380.2,0.001162,0.000475,0.001229,0.000052,  47.790
   380.4,0.001166,0.000475,0.001199,0.000087,  47.789
   380.6,0.001157,0.000475,0.001176,0.000074,  47.787
   380.8,0.001163,0.000477,0.001162,0.000052,  47.792
   381.0,0.001172,0.000478,0.001113,0.000087,  47.788
   381.2,0.001166,0.000472,0.001047,0.000087,  47.788
   381.4,0.001170,0.000471,0.000957,0.000065,  47.788
   381.6,0.001167,0.000467,0.000925,0.000100,  47.791
   381.8,0.001161,0.000467,0.000910,0.000100,  47.787
   382.0,0.001164,0.000466,0.000890,0.000091,  47.784
   382.2,0.001159,0.000466,0.000901,0.000126,  47.790
   382.4,0.001159,0.000468,0.000932,0.000126,  47.788
   382.6,0.001159,0.000465,0.000977,0.000104,  47.789
   382.8,0.001163,0.000472,0.000962,0.000152,  47.791
   383.0,0.001160,0.000469,0.000931,0.000139,  47.792
   383.2,0.001158,0.000473,0.000872,0.000104,  47.789
   383.4,0.001161,0.000477,0.000867,0.000117,  47.785
   383.6,0.001161,0.000474,0.000876,0.000104,  47.790
   383.8,0.001164,0.000474,0.000895,0.000068,  47.787
   384.0,0.001166,0.000479,0.000883,0.000081,  47.790
   384.2,0.001169,0.000476,0.000864,0.000104,  47.792
   384.4,0.001169,0.000476,0.000840,0.000068,  47.791
   384.6,0.001164,0.000481,0.000825,0.000081,  47.793
   384.8,0.001161,0.000476,0.000805,0.000104,  47.785
   385.0,0.001161,0.000479,0.000788,0.000068,  47.788
   385.2,0.001165,0.000477,0.000792,0.000081,  47.791
   385.4,0.001168,0.000473,0.000798,0.000117,  47.789
   385.6,0.001162,0.000479,0.000817,0.000081,  47.797
   385.8,0.001168,0.000481,0.000627,0.000094,  47.794
   386.0,0.001160,0.000481,0.000316,0.000094,  47.792
   386.2,0.001153,0.000483,-0.000090,0.000107,  47.791
   386.4,0.001160,0.000478,-0.000081,0.000107,  47.796
   386.6,0.001154,0.000478,0.000066,0.000107,  47.794
   386.8,0.001154,0.000481,0.000375,0.000120,  47.798
   387.0,0.001154,0.000479,0.000460,0.000107,  47.800
   387.2,0.001158,0.000475,0.000483,0.000107,  47.802
   387.4,0.001158,0.000475,0.000483,0.000107,  47.799
   387.6,0.001158,0.000480,0.000485,0.000085,  47.805
   387.8,0.001155,0.000480,0.000462,0.000120,  47.798
   388.0,0.001155,0.000473,0.000426,0.000120,  47.798
   388.2,0.001158,0.000479,0.000404,0.000133,  47.799
   388.4,0.001155,0.000478,0.000384,0.000098,  47.802
   388.6,0.001155,0.000478,0.000374,0.000098,  47.801
   388.8,0.001158,0.000482,0.000391,0.000075,  47.801
   389.0,0.001155,0.000483,0.000420,0.000062,  47.801
   389.2,0.001162,0.000487,0.000463,0.000098,  47.800
   389.4,0.001170,0.000487,0.000516,0.000111,  47.805
   389.6,0.001174,0.000484,0.000477,0.000111,  47.803
   389.8,0.001174,0.000486,0.000411,0.000111,  47.809
   390.0,0.001180,0.000483,0.000321,0.000124,  47.808
   390.2,0.001171,0.000476,0.000291,0.000124,  47.811
   390.4,0.001165,0.000483,0.000282,0.000124,  47.809
   390.6,0.001171,0.000486,0.000284,0.000137,  47.806
   390.8,0.001171,0.000489,0.000288,0.000137,  47.808
   391.0,0.001163,0.000484,0.000314,0.000137,  47.812
   391.2,0.001163,0.000485,0.000328,0.000149,  47.813
   391.4,0.001163,0.000487,0.000324,0.000162,  47.813
   391.6,0.001154,0.000485,0.000324,0.000149,  47.812
   391.8,0.001157,0.000487,0.000309,0.000149,  47.813
   392.0,0.001161,0.000489,0.000345,0.000162,  47.817
   392.2,0.001157,0.000493,0.000391,0.000149,  47.817
   392.4,0.001161,0.000494,0.000455,0.000149,  47.817
   392.6,0.001158,0.000498,0.000474,0.000162,  47.814
   392.8,0.001155,0.000503,0.000468,0.000162,  47.814
   393.0,0.001161,0.000507,0.000454,0.000162,  47.815
   393.2,0.001161,0.000504,0.000217,0.000175,  47.816
   393.4,0.001157,0.000506,-0.000136,0.000175,  47.816
   393.6,0.001164,0.000508,-0.000593,0.000188,  47.817
   393.8,0.001164,0.000508,-0.000789,0.000153,  47.818
   394.0,0.001160,0.000506,-0.000910,0.000153,  47.825
   394.2,0.001164,0.000507,-0.000952,0.000166,  47.842
   394.4,0.001167,0.000509,-0.000901,0.000131,  47.840
   394.6,0.001167,0.000507,-0.000770,0.000166,  47.844
   394.8,0.001161,0.000502,-0.000565,0.000179,  47.844
   395.0,0.001167,0.000504,-0.000439,0.000166,  47.846
   395.2,0.001167,0.000504,-0.000319,0.000188,  47.846
   395.4,0.001158,0.000498,-0.000201,0.000201,  47.845
   395.6,0.001156,0.000493,-0.000117,0.000166,  47.848
   395.8,0.001162,0.000495,-0.000072,0.000166,  47.845
   396.0,0.001156,0.000498,-0.000035,0.000179,  47.849
   396.2,0.001158,0.000500,-0.000001,0.000144,  47.851
   396.4,0.001162,0.000502,0.000011,0.000179,  47.847
   396.6,0.001156,0.000504,0.000005,0.000192,  47.848
   396.8,0.001158,0.000501,-0.000019,0.000156,  47.850
   397.0,0.001162,0.000501,-0.000053,0.000192,  47.848
   397.2,0.001158,0.000503,-0.000098,0.000192,  47.852
   397.4,0.001158,0.000508,-0.000094,0.000182,  47.850
   397.6,0.001165,0.000512,-0.000066,0.000182,  47.857
   397.8,0.001161,0.000513,-0.000000,0.000218,  47.852
   398.0,0.001167,0.000508,-0.000008,0.000195,  47.854
   398.2,0.001176,0.000505,-0.000032,0.000231,  47.851
   398.4,0.001179,0.000511,-0.000079,0.000218,  47.855
   398.6,0.001176,0.000515,-0.000146,0.000218,  47.856
   398.8,0.001182,0.000514,-0.000137,0.000195,  47.859
   399.0,0.001185,0.000518,-0.000103,0.000195,  47.853
   399.2,0.001179,0.000522,-0.000060,0.000195,  47.857
   399.4,0.001188,0.000517,-0.000067,0.000208,  47.860
   399.6,0.001188,0.000517,-0.000089,0.000195,  47.860
   399.8,0.001181,0.000522,-0.000138,0.000195,  47.858
   400.0,0.001185,0.000520,-0.000179,0.000208,  47.857
   400.2,0.001188,0.000519,-0.000237,0.000208,  47.857
   400.4,0.001181,0.000524,-0.000297,0.000208,  47.858
   400.6,0.001185,0.000524,-0.000286,0.000208,  47.855
   400.8,0.001188,0.000522,-0.000250,0.000208,  47.855
   401.0,0.001179,0.000525,-0.000181,0.000208,  47.855
   401.2,0.001182,0.000520,-0.000137,0.000221,  47.857
   401.4,0.001185,0.000518,-0.000109,0.000221,  47.856
   401.6,0.001176,0.000520,-0.000081,0.000234,  47.853
   401.8,0.001180,0.000520,-0.000093,0.000234,  47.850
   402.0,0.001182,0.000521,-0.000125,0.000234,  47.855
   402.2,0.001179,0.000521,-0.000168,0.000247,  47.855
   402.4,0.001185,0.000522,-0.000189,0.000247,  47.853
   402.6,0.001188,0.000526,-0.000189,0.000247,  47.856
   402.8,0.001181,0.000524,-0.000181,0.000260,  47.861
   403.0,0.001185,0.000525,-0.000177,0.000225,  47.856
   403.2,0.001188,0.000523,-0.000168,0.000225,  47.854
   403.4,0.001179,0.000521,-0.000166,0.000238,  47.851
   403.6,0.001182,0.000525,-0.000162,0.000202,  47.855
   403.8,0.001182,0.000522,-0.000152,0.000238,  47.858
   404.0,0.001182,0.000526,-0.000145,0.000250,  47.859
   404.2,0.001176,0.000530,-0.000167,0.000202,  47.858
   404.4,0.001182,0.000528,-0.000186,0.000225,  47.858
   404.6,0.001182,0.000532,-0.000227,0.000238,  47.857
   404.8,0.001185,0.000528,-0.000210,0.000189,  47.857
   405.0,0.001191,0.000524,-0.000182,0.000225,  47.856
   405.2,0.001194,0.000527,-0.000144,0.000238,  47.856
   405.4,0.001191,0.000528,-0.000142,0.000202,  47.857
   405.6,0.001189,0.000526,-0.000155,0.000238,  47.855
   405.8,0.001191,0.000529,-0.000183,0.000215,  47.858
   406.0,0.001189,0.000530,-0.000152,0.000250,  47.853
   406.2,0.001186,0.000532,-0.000092,0.000193,  47.851
   406.4,0.001189,0.000534,-0.000008,0.000228,  47.850
   406.6,0.001189,0.000534,-0.000030,0.000241,  47.851
   406.8,0.001192,0.000533,-0.000085,0.000241,  47.854
   407.0,0.001195,0.000535,-0.000201,0.000241,  47.847
   407.2,0.001195,0.000540,-0.000225,0.000206,  47.850
   407.4,0.001198,0.000544,-0.000229,0.000254,  47.849
   407.6,0.001207,0.000542,-0.000199,0.000254,  47.852
   407.8,0.001207,0.000544,-0.000156,0.000219,  47.848
   408.0,0.001205,0.000550,-0.000444,0.000267,  47.849
   408.2,0.001213,0.000549,-0.000870,0.000267,  47.845
   408.4,0.001211,0.000548,-0.001408,0.000232,  47.849
   408.6,0.001208,0.000548,-0.001462,0.000280,  47.846
   408.8,0.001205,0.000546,-0.001322,0.000267,  47.846
   409.0,0.001202,0.000546,-0.001001,0.000232,  47.842
   409.2,0.001208,0.000548,-0.000909,0.000280,  47.846
   409.4,0.001205,0.000546,-0.000827,0.000267,  47.841
   409.6,0.001202,0.000549,-0.000769,0.000244,  47.842
   409.8,0.001208,0.000549,-0.000666,0.000280,  47.839
   410.0,0.001205,0.000545,-0.000555,0.000280,  47.835
   410.2,0.001202,0.000549,-0.000443,0.000257,  47.837
   410.4,0.001208,0.000547,-0.000412,0.000293,  47.834
   410.6,0.001205,0.000549,-0.000403,0.000293,  47.837
   410.8,0.001202,0.000547,-0.000437,0.000270,  47.840
   411.0,0.001208,0.000549,-0.000450,0.000270,  47.834
   411.2,0.001205,0.000548,-0.000457,0.000257,  47.832
   411.4,0.001202,0.000548,-0.000466,0.000235,  47.834
   411.6,0.001208,0.000549,-0.000530,0.000235,  47.829
   411.8,0.001202,0.000547,-0.000605,0.000270,  47.831
   412.0,0.001202,0.000546,-0.000706,0.000248,  47.827
   412.2,0.001206,0.000545,-0.000745,0.000235,  47.827
   412.4,0.001199,0.000541,-0.000754,0.000270,  47.827
   412.6,0.001203,0.000536,-0.000762,0.000248,  47.824
   412.8,0.001204,0.000536,-0.000709,0.000235,  47.824
   413.0,0.001210,0.000533,-0.000628,0.000270,  47.819
   413.2,0.001208,0.000538,-0.000516,0.000248,  47.822
   413.4,0.001210,0.000540,-0.000482,0.000248,  47.816
   413.6,0.001208,0.000540,-0.000487,0.000248,  47.817
   413.8,0.001208,0.000543,-0.000514,0.000226,  47.817
   414.0,0.001208,0.000546,-0.000497,0.000261,  47.811
   414.2,0.001201,0.000546,-0.000485,0.000261,  47.796
   414.4,0.001195,0.000546,-0.000472,0.000226,  47.791
   414.6,0.001201,0.000546,-0.000637,0.000226,  47.789
   414.8,0.001201,0.000546,-0.000906,0.000226,  47.786
   415.0,0.001195,0.000546,-0.001266,0.000203,  47.788
   415.2,0.001201,0.000546,-0.001294,0.000203,  47.782
   415.4,0.001201,0.000543,-0.001202,0.000239,  47.786
   415.6,0.001195,0.000540,-0.000982,0.000239,  47.787
   415.8,0.001201,0.000539,-0.000912,0.000252,  47.787
   416.0,0.001201,0.000537,-0.000860,0.000216,  47.786
   416.2,0.001195,0.000538,-0.000819,0.000252,  47.788
   416.4,0.001201,0.000541,-0.000800,0.000216,  47.788
   416.6,0.001201,0.000538,-0.000785,0.000216,  47.786
   416.8,0.001195,0.000540,-0.000800,0.000252,  47.783
   417.0,0.001201,0.000540,-0.000834,0.000216,  47.784
   417.2,0.001208,0.000539,-0.000790,0.000229,  47.781
   417.4,0.001201,0.000541,-0.000730,0.000264,  47.782
   417.6,0.001201,0.000540,-0.000659,0.000229,  47.782
   417.8,0.001208,0.000540,-0.000737,0.000229,  47.778
   418.0,0.001208,0.000544,-0.000878,0.000264,  47.781
   418.2,0.001208,0.000544,-0.001092,0.000242,  47.778
   418.4,0.001220,0.000540,-0.001109,0.000242,  47.780
   418.6,0.001220,0.000542,-0.001059,0.000255,  47.779
   418.8,0.001214,0.000543,-0.000958,0.000268,  47.772
   419.0,0.001220,0.000545,-0.000943,0.000255,  47.771
   419.2,0.001220,0.000547,-0.000950,0.000255,  47.774
   419.4,0.001220,0.000549,-0.000982,0.000268,  47.774
   419.6,0.001224,0.000550,-0.001118,0.000255,  47.771
   419.8,0.001226,0.000554,-0.001309,0.000255,  47.772
   420.0,0.001220,0.000554,-0.001572,0.000268,  47.772
   420.2,0.001217,0.000556,-0.001585,0.000268,  47.770
   420.4,0.001220,0.000551,-0.001495,0.000268,  47.771
   420.6,0.001214,0.000556,-0.001314,0.000281,  47.771
   420.8,0.001217,0.000556,-0.001245,0.000281,  47.767
   421.0,0.001223,0.000552,-0.001183,0.000281,  47.770
   421.2,0.001216,0.000554,-0.001130,0.000294,  47.773
   421.4,0.001223,0.000558,-0.001119,0.000281,  47.769
   421.6,0.001225,0.000553,-0.001128,0.000281,  47.770
   421.8,0.001228,0.000556,-0.001169,0.000294,  47.772
   422.0,0.001234,0.000556,-0.001117,0.000294,  47.766
   422.2,0.001234,0.000551,-0.001040,0.000294,  47.769
   422.4,0.001234,0.000551,-0.000917,0.000271,  47.766
   422.6,0.001234,0.000556,-0.000922,0.000271,  47.763
   422.8,0.001234,0.000558,-0.000971,0.000271,  47.768
   423.0,0.001228,0.000557,-0.001057,0.000249,  47.764
   423.2,0.001230,0.000558,-0.001038,0.000249,  47.764
   423.4,0.001230,0.000560,-0.000988,0.000284,  47.762
   423.6,0.001227,0.000559,-0.000903,0.000297,  47.762
   423.8,0.001230,0.000555,-0.000998,0.000310,  47.763
   424.0,0.001228,0.000554,-0.001168,0.000297,  47.763
   424.2,0.001230,0.000553,-0.001405,0.000297,  47.762
   424.4,0.001224,0.000557,-0.001413,0.000323,  47.763
   424.6,0.001233,0.000559,-0.001353,0.000323,  47.768
   424.8,0.001236,0.000559,-0.001209,0.000336,  47.767
   425.0,0.001236,0.000564,-0.001239,0.000336,  47.772
   425.2,0.001242,0.000570,-0.001304,0.000301,  47.768
   425.4,0.001244,0.000572,-0.001433,0.000323,  47.767
   425.6,0.001244,0.000570,-0.001407,0.000288,  47.771
   425.8,0.001244,0.000567,-0.001332,0.000301,  47.768
   426.0,0.001247,0.000567,-0.001216,0.000336,  47.763
   426.2,0.001244,0.000567,-0.001192,0.000349,  47.768
   426.4,0.001244,0.000565,-0.001205,0.000314,  47.766
   426.6,0.001247,0.000565,-0.001224,0.000314,  47.770
   426.8,0.001244,0.000569,-0.001269,0.000327,  47.772
   427.0,0.001244,0.000574,-0.001218,0.000291,  47.770
   427.2,0.001247,0.000570,-0.001156,0.000314,  47.766
   427.4,0.001244,0.000566,-0.001065,0.000327,  47.769
   427.6,0.001244,0.000574,-0.001020,0.000291,  47.770
   427.8,0.001247,0.000578,-0.000980,0.000291,  47.771
   428.0,0.001244,0.000579,-0.000956,0.000304,  47.770
   428.2,0.001251,0.000579,-0.000937,0.000291,  47.776
   428.4,0.001256,0.000583,-0.000943,0.000314,  47.771
   428.6,0.001256,0.000580,-0.000950,0.000327,  47.775
   428.8,0.001265,0.000582,-0.000946,0.000291,  47.774
   429.0,0.001274,0.000580,-0.000937,0.000327,  47.770
   429.2,0.001276,0.000582,-0.000927,0.000340,  47.770
   429.4,0.001274,0.000586,-0.000966,0.000304,  47.773
   429.6,0.001274,0.000586,-0.001032,0.000304,  47.773
   429.8,0.001276,0.000585,-0.001103,0.000317,  47.768
   430.0,0.001267,0.000589,-0.001077,0.000317,  47.767
   430.2,0.001261,0.000591,-0.001008,0.000317,  47.770
   430.4,0.001266,0.000592,-0.000899,0.000330,  47.770
   430.6,0.001272,0.000596,-0.000882,0.000330,  47.768
   430.8,0.001272,0.000593,-0.000904,0.000330,  47.766
   431.0,0.001275,0.000590,-0.000948,0.000343,  47.767
   431.2,0.001272,0.000592,-0.000962,0.000343,  47.769
   431.4,0.001272,0.000587,-0.000977,0.000330,  47.767
   431.6,0.001272,0.000585,-0.000987,0.000330,  47.765
   431.8,0.001275,0.000588,-0.000960,0.000343,  47.767
   432.0,0.001275,0.000590,-0.000917,0.000343,  47.764
   432.2,0.001278,0.000591,-0.000865,0.000343,  47.763
   432.4,0.001269,0.000592,-0.000853,0.000343,  47.764
   432.6,0.001275,0.000594,-0.000846,0.000330,  47.764
   432.8,0.001278,0.000594,-0.000876,0.000330,  47.765
   433.0,0.001278,0.000594,-0.000888,0.000343,  47.767
   433.2,0.001280,0.000593,-0.000898,0.000343,  47.768
   433.4,0.001283,0.000592,-0.000927,0.000356,  47.768
   433.6,0.001280,0.000599,-0.000983,0.000321,  47.769
   433.8,0.001280,0.000601,-0.001053,0.000334,  47.766
   434.0,0.001283,0.000603,-0.001146,0.000334,  47.772
   434.2,0.001280,0.000604,-0.001173,0.000347,  47.771
   434.4,0.001280,0.000603,-0.001180,0.000347,  47.769
   434.6,0.001283,0.000602,-0.001161,0.000347,  47.771
   434.8,0.001283,0.000601,-0.001120,0.000360,  47.772
   435.0,0.001283,0.000596,-0.001101,0.000324,  47.768
   435.2,0.001286,0.000598,-0.001075,0.000360,  47.772
   435.4,0.001286,0.000601,-0.001054,0.000337,  47.772
   435.6,0.001283,0.000601,-0.001054,0.000337,  47.774
   435.8,0.001293,0.000601,-0.001079,0.000337,  47.770
   436.0,0.001298,0.000602,-0.001122,0.000315,  47.775
   436.2,0.001308,0.000604,-0.001138,0.000337,  47.772
   436.4,0.001316,0.000607,-0.001153,0.000337,  47.777
   436.6,0.001309,0.000612,-0.001163,0.000315,  47.776
   436.8,0.001305,0.000616,-0.001142,0.000337,  47.773
   437.0,0.001304,0.000614,-0.001089,0.000337,  47.775
   437.2,0.001303,0.000616,-0.001020,0.000315,  47.775
   437.4,0.001305,0.000617,-0.001009,0.000350,  47.775
   437.6,0.001304,0.000616,-0.000996,0.000350,  47.775
   437.8,0.001304,0.000619,-0.001020,0.000328,  47.777
   438.0,0.001313,0.000621,-0.001025,0.000363,  47.773
   438.2,0.001309,0.000628,-0.001025,0.000363,  47.776
   438.4,0.001309,0.000626,-0.001040,0.000328,  47.774
   438.6,0.001313,0.000621,-0.001046,0.000363,  47.775
   438.8,0.001307,0.000621,-0.001031,0.000363,  47.777
   439.0,0.001309,0.000618,-0.001031,0.000341,  47.777
   439.2,0.001316,0.000618,-0.000997,0.000341,  47.779
   439.4,0.001309,0.000611,-0.000954,0.000341,  47.777
   439.6,0.001312,0.000611,-0.000901,0.000318,  47.776
   439.8,0.001316,0.000616,-0.000907,0.000331,  47.779
   440.0,0.001309,0.000614,-0.000924,0.000354,  47.774
   440.2,0.001315,0.000610,-0.000972,0.000318,  47.775
   440.4,0.001321,0.000620,-0.000978,0.000331,  47.773
   440.6,0.001321,0.000625,-0.000970,0.000367,  47.774
   440.8,0.001326,0.000623,-0.000948,0.000331,  47.775
   441.0,0.001317,0.000625,-0.000953,0.000344,  47.779
   441.2,0.001326,0.000631,-0.000963,0.000380,  47.776
   441.4,0.001326,0.000630,-0.000980,0.000344,  47.776
   441.6,0.001326,0.000632,-0.001067,0.000392,  47.779
   441.8,0.001329,0.000631,-0.001193,0.000415,  47.775
   442.0,0.001325,0.000627,-0.001350,0.000392,  47.773
   442.2,0.001325,0.000629,-0.001372,0.000392,  47.776
   442.4,0.001331,0.000634,-0.001348,0.000392,  47.773
   442.6,0.001328,0.000634,-0.001275,0.000392,  47.774
   442.8,0.001328,0.000635,-0.001249,0.000405,  47.778
   443.0,0.001331,0.000637,-0.001215,0.000370,  47.777
   443.2,0.001328,0.000640,-0.001191,0.000370,  47.777
   443.4,0.001334,0.000642,-0.001174,0.000383,  47.776
   443.6,0.001340,0.000639,-0.001170,0.000361,  47.774
   443.8,0.001340,0.000639,-0.001157,0.000361,  47.774
   444.0,0.001346,0.000645,-0.001164,0.000338,  47.780
   444.2,0.001356,0.000649,-0.001157,0.000338,  47.779
   444.4,0.001361,0.000646,-0.001172,0.000361,  47.776
   444.6,0.001355,0.000649,-0.001185,0.000338,  47.779
   444.8,0.001355,0.000649,-0.001183,0.000338,  47.779
   445.0,0.001358,0.000647,-0.001173,0.000361,  47.778
   445.2,0.001358,0.000648,-0.001158,0.000338,  47.781
   445.4,0.001355,0.000649,-0.001132,0.000338,  47.786
   445.6,0.001355,0.000647,-0.001106,0.000361,  47.779
   445.8,0.001358,0.000646,-0.001070,0.000338,  47.781
   446.0,0.001358,0.000644,-0.001063,0.000374,  47.782
   446.2,0.001358,0.000646,-0.001078,0.000396,  47.778
   446.4,0.001360,0.000645,-0.001104,0.000374,  47.780
   446.6,0.001360,0.000645,-0.001092,0.000374,  47.780
   446.8,0.001360,0.000648,-0.001059,0.000374,  47.783
   447.0,0.001360,0.000649,-0.001008,0.000351,  47.782
   447.2,0.001360,0.000648,-0.001014,0.000364,  47.784
   447.4,0.001360,0.000651,-0.001036,0.000399,  47.782
   447.6,0.001360,0.000652,-0.001064,0.000377,  47.781
   447.8,0.001366,0.000650,-0.001045,0.000390,  47.779
   448.0,0.001366,0.000648,-0.001010,0.000399,  47.780
   448.2,0.001360,0.000651,-0.000959,0.000364,  47.782
   448.4,0.001366,0.000655,-0.000983,0.000377,  47.778
   448.6,0.001369,0.000657,-0.001049,0.000412,  47.779
   448.8,0.001363,0.000650,-0.001150,0.000377,  47.782
   449.0,0.001372,0.000655,-0.001148,0.000377,  47.782
   449.2,0.001372,0.000655,-0.001125,0.000412,  47.781
   449.4,0.001365,0.000652,-0.001057,0.000377,  47.786
   449.6,0.001372,0.000650,-0.001065,0.000377,  47.784
   449.8,0.001372,0.000651,-0.001097,0.000412,  47.785
   450.0,0.001372,0.000651,-0.001149,0.000377,  47.781
   450.2,0.001369,0.000654,-0.001157,0.000390,  47.781
   450.4,0.001366,0.000654,-0.001164,0.000425,  47.785
   450.6,0.001366,0.000657,-0.001162,0.000390,  47.786
   450.8,0.001363,0.000654,-0.001151,0.000390,  47.785
   451.0,0.001363,0.000651,-0.001139,0.000399,  47.788
   451.2,0.001365,0.000654,-0.001120,0.000412,  47.788
   451.4,0.001365,0.000658,-0.001118,0.000377,  47.788
   451.6,0.001365,0.000658,-0.001133,0.000390,  47.785
   451.8,0.001368,0.000658,-0.001154,0.000403,  47.783
   452.0,0.001368,0.000663,-0.001145,0.000394,  47.785
   452.2,0.001374,0.000661,-0.001126,0.000394,  47.784
   452.4,0.001374,0.000659,-0.001105,0.000394,  47.784
   452.6,0.001368,0.000664,-0.001062,0.000371,  47.781
   452.8,0.001369,0.000664,-0.001026,0.000358,  47.783
   453.0,0.001372,0.000660,-0.000985,0.000394,  47.779
   453.2,0.001365,0.000660,-0.000931,0.000407,  47.777
   453.4,0.001372,0.000660,-0.000955,0.000394,  47.781
   453.6,0.001380,0.000660,-0.001028,0.000394,  47.781
   453.8,0.001378,0.000665,-0.001127,0.000407,  47.782
   454.0,0.001384,0.000665,-0.001162,0.000407,  47.778
   454.2,0.001387,0.000660,-0.001162,0.000407,  47.778
   454.4,0.001384,0.000665,-0.001153,0.000419,  47.776
   454.6,0.001378,0.000660,-0.001168,0.000419,  47.773
   454.8,0.001378,0.000654,-0.001197,0.000407,  47.773
   455.0,0.001378,0.000655,-0.001229,0.000419,  47.775
   455.2,0.001381,0.000660,-0.001238,0.000384,  47.775
   455.4,0.001381,0.000657,-0.001253,0.000371,  47.769
   455.6,0.001381,0.000655,-0.001274,0.000384,  47.770
   455.8,0.001373,0.000651,-0.001279,0.000349,  47.768
   456.0,0.001366,0.000647,-0.001277,0.000384,  47.770
   456.2,0.001366,0.000649,-0.001268,0.000384,  47.772
   456.4,0.001373,0.000647,-0.001290,0.000349,  47.764
   456.6,0.001379,0.000645,-0.001323,0.000384,  47.761
   456.8,0.001381,0.000649,-0.001369,0.000397,  47.765
   457.0,0.001381,0.000654,-0.001357,0.000362,  47.764
   457.2,0.001390,0.000650,-0.001321,0.000397,  47.763
   457.4,0.001393,0.000654,-0.001260,0.000410,  47.761
   457.6,0.001393,0.000659,-0.001263,0.000388,  47.762
   457.8,0.001395,0.000657,-0.001282,0.000410,  47.765
   458.0,0.001398,0.000659,-0.001315,0.000410,  47.767
   458.2,0.001392,0.000662,-0.001311,0.000388,  47.763
   458.4,0.001392,0.000666,-0.001300,0.000423,  47.766
   458.6,0.001388,0.000661,-0.001274,0.000423,  47.766
   458.8,0.001392,0.000665,-0.001390,0.000388,  47.762
   459.0,0.001398,0.000667,-0.001593,0.000423,  47.761
   459.2,0.001394,0.000664,-0.001853,0.000423,  47.764
   459.4,0.001394,0.000667,-0.001884,0.000401,  47.764
   459.6,0.001398,0.000664,-0.001831,0.000436,  47.766
   459.8,0.001394,0.000661,-0.001707,0.000436,  47.765
   460.0,0.001401,0.000663,-0.001679,0.000414,  47.765
   460.2,0.001407,0.000658,-0.001648,0.000449,  47.766
   460.4,0.001403,0.000658,-0.001631,0.000449,  47.763
   460.6,0.001410,0.000663,-0.001595,0.000426,  47.760
   460.8,0.001410,0.000658,-0.001545,0.000426,  47.766
   461.0,0.001406,0.000658,-0.001498,0.000426,  47.764
   461.2,0.001412,0.000663,-0.001432,0.000439,  47.765
   461.4,0.001410,0.000658,-0.001428,0.000439,  47.764
   461.6,0.001403,0.000655,-0.001445,0.000426,  47.767
   461.8,0.001410,0.000659,-0.001471,0.000439,  47.768
   462.0,0.001410,0.000661,-0.001460,0.000439,  47.771
   462.2,0.001403,0.000659,-0.001434,0.000439,  47.768
   462.4,0.001406,0.000667,-0.001398,0.000452,  47.769
   462.6,0.001406,0.000668,-0.001387,0.000417,  47.774
   462.8,0.001400,0.000674,-0.001370,0.000417,  47.775
   463.0,0.001402,0.000674,-0.001360,0.000430,  47.773
   463.2,0.001406,0.000674,-0.001358,0.000395,  47.774
   463.4,0.001400,0.000680,-0.001351,0.000430,  47.778
   463.6,0.001402,0.000678,-0.001351,0.000430,  47.775
   463.8,0.001406,0.000683,-0.001330,0.000395,  47.776
   464.0,0.001400,0.000683,-0.001281,0.000430,  47.783
   464.2,0.001408,0.000681,-0.001246,0.000443,  47.779
   464.4,0.001412,0.000679,-0.001268,0.000408,  47.780
   464.6,0.001406,0.000675,-0.001304,0.000443,  47.782
   464.8,0.001417,0.000679,-0.001371,0.000443,  47.783
   465.0,0.001417,0.000682,-0.001422,0.000408,  47.785
   465.2,0.001411,0.000679,-0.001472,0.000417,  47.782
   465.4,0.001420,0.000683,-0.001523,0.000430,  47.787
   465.6,0.001424,0.000682,-0.001504,0.000395,  47.783
   465.8,0.001424,0.000679,-0.001449,0.000443,  47.783
   466.0,0.001426,0.000683,-0.001363,0.000443,  47.787
   466.2,0.001432,0.000685,-0.001369,0.000443,  47.786
   466.4,0.001435,0.000686,-0.001395,0.000465,  47.787
   466.6,0.001429,0.000687,-0.001464,0.000465,  47.787
   466.8,0.001431,0.000690,-0.001453,0.000443,  47.792
   467.0,0.001438,0.000688,-0.001404,0.000456,  47.796
   467.2,0.001434,0.000691,-0.001337,0.000469,  47.795
   467.4,0.001438,0.000686,-0.001352,0.000446,  47.799
   467.6,0.001438,0.000684,-0.001400,0.000469,  47.799
   467.8,0.001440,0.000684,-0.001462,0.000433,  47.800
   468.0,0.001440,0.000686,-0.001477,0.000446,  47.800
   468.2,0.001446,0.000689,-0.001477,0.000446,  47.804
   468.4,0.001443,0.000688,-0.001470,0.000446,  47.803
   468.6,0.001440,0.000687,-0.001456,0.000424,  47.806
   468.8,0.001438,0.000689,-0.001422,0.000459,  47.810
   469.0,0.001434,0.000687,-0.001389,0.000459,  47.807
   469.2,0.001440,0.000688,-0.001389,0.000459,  47.807
   469.4,0.001440,0.000687,-0.001411,0.000446,  47.809
   469.6,0.001437,0.000687,-0.001443,0.000469,  47.810
   469.8,0.001443,0.000691,-0.001501,0.000446,  47.812
   470.0,0.001443,0.000689,-0.001506,0.000446,  47.814
   470.2,0.001439,0.000694,-0.001499,0.000459,  47.816
   470.4,0.001448,0.000699,-0.001489,0.000437,  47.823
   470.6,0.001451,0.000699,-0.001480,0.000472,  47.819
   470.8,0.001447,0.000696,-0.001463,0.000472,  47.819
   471.0,0.001456,0.000694,-0.001446,0.000450,  47.820
   471.2,0.001453,0.000691,-0.001437,0.000485,  47.822
   471.4,0.001450,0.000700,-0.001422,0.000485,  47.821
   471.6,0.001456,0.000701,-0.001420,0.000463,  47.825
   471.8,0.001456,0.000701,-0.001418,0.000463,  47.829
   472.0,0.001450,0.000705,-0.001416,0.000463,  47.826
   472.2,0.001453,0.000700,-0.001414,0.000441,  47.830
   472.4,0.001451,0.000704,-0.001446,0.000463,  47.830
   472.6,0.001451,0.000704,-0.001509,0.000485,  47.831
   472.8,0.001451,0.000705,-0.001586,0.000463,  47.833
   473.0,0.001457,0.000708,-0.001627,0.000463,  47.836
   473.2,0.001459,0.000707,-0.001660,0.000476,  47.835
   473.4,0.001459,0.000708,-0.001687,0.000453,  47.837
   473.6,0.001468,0.000712,-0.001798,0.000453,  47.854
   473.8,0.001471,0.000709,-0.001925,0.000453,  47.851
   474.0,0.001471,0.000714,-0.002104,0.000431,  47.859
   474.2,0.001471,0.000716,-0.002127,0.000479,  47.859
   474.4,0.001473,0.000715,-0.002078,0.000466,  47.860
   474.6,0.001476,0.000719,-0.001972,0.000431,  47.862
   474.8,0.001485,0.000722,-0.001886,0.000479,  47.863
   475.0,0.001487,0.000720,-0.001770,0.000479,  47.866
   475.2,0.001481,0.000721,-0.001636,0.000444,  47.867
   475.4,0.001493,0.000722,-0.001566,0.000479,  47.869
   475.6,0.001493,0.000718,-0.001518,0.000479,  47.873
   475.8,0.001495,0.000722,-0.001506,0.000444,  47.872
   476.0,0.001501,0.000727,-0.001480,0.000492,  47.870
   476.2,0.001499,0.000724,-0.001456,0.000492,  47.870
   476.4,0.001499,0.000726,-0.001454,0.000457,  47.873
   476.6,0.001499,0.000725,-0.001454,0.000505,  47.874
   476.8,0.001499,0.000727,-0.001454,0.000492,  47.873
   477.0,0.001505,0.000729,-0.001476,0.000492,  47.877
   477.2,0.001508,0.000730,-0.001474,0.000492,  47.878
   477.4,0.001508,0.000730,-0.001467,0.000505,  47.878
   477.6,0.001514,0.000736,-0.001459,0.000492,  47.880
   477.8,0.001523,0.000736,-0.001459,0.000470,  47.878
   478.0,0.001520,0.000731,-0.001459,0.000470,  47.884
   478.2,0.001514,0.000733,-0.001467,0.000470,  47.881
   478.4,0.001523,0.000732,-0.001484,0.000448,  47.881
   478.6,0.001520,0.000734,-0.001482,0.000448,  47.881
   478.8,0.001516,0.000733,-0.001472,0.000483,  47.882
   479.0,0.001525,0.000735,-0.001457,0.000461,  47.883
   479.2,0.001525,0.000737,-0.001472,0.000461,  47.885
   479.4,0.001522,0.000743,-0.001502,0.000496,  47.883
   479.6,0.001524,0.000744,-0.001537,0.000473,  47.878
   479.8,0.001524,0.000746,-0.001519,0.000473,  47.889
   480.0,0.001521,0.000748,-0.001478,0.000509,  47.881
   480.2,0.001527,0.000741,-0.001418,0.000486,  47.883
   480.4,0.001530,0.000743,-0.001432,0.000486,  47.884
   480.6,0.001527,0.000741,-0.001468,0.000486,  47.887
   480.8,0.001533,0.000739,-0.001535,0.000499,  47.883
   481.0,0.001533,0.000744,-0.001543,0.000499,  47.875
   481.2,0.001529,0.000746,-0.001531,0.000499,  47.881
   481.4,0.001529,0.000745,-0.001490,0.000512,  47.879
   481.6,0.001529,0.000749,-0.001498,0.000512,  47.876
   481.8,0.001526,0.000753,-0.001515,0.000499,  47.879
   482.0,0.001526,0.000749,-0.001543,0.000499,  47.876
   482.2,0.001529,0.000753,-0.001528,0.000512,  47.876
   482.4,0.001523,0.000752,-0.001519,0.000512,  47.875
   482.6,0.001535,0.000755,-0.001507,0.000512,  47.873
   482.8,0.001543,0.000754,-0.001522,0.000525,  47.868
   483.0,0.001543,0.000752,-0.001561,0.000525,  47.873
   483.2,0.001546,0.000752,-0.001619,0.000525,  47.873
   483.4,0.001546,0.000752,-0.001608,0.000525,  47.867
   483.6,0.001543,0.000755,-0.001567,0.000525,  47.867
   483.8,0.001543,0.000757,-0.001509,0.000525,  47.869
   484.0,0.001543,0.000758,-0.001482,0.000538,  47.866
   484.2,0.001543,0.000762,-0.001466,0.000538,  47.867
   484.4,0.001537,0.000763,-0.001451,0.000551,  47.862
   484.6,0.001546,0.000768,-0.001468,0.000551,  47.863
   484.8,0.001543,0.000767,-0.001501,0.000551,  47.861
   485.0,0.001537,0.000763,-0.001559,0.000564,  47.859
   485.2,0.001550,0.000766,-0.001591,0.000551,  47.860
   485.4,0.001553,0.000769,-0.001639,0.000551,  47.859
   485.6,0.001550,0.000769,-0.001682,0.000551,  47.858
   485.8,0.001558,0.000773,-0.001690,0.000564,  47.856
   486.0,0.001561,0.000775,-0.001690,0.000564,  47.852
   486.2,0.001557,0.000773,-0.001668,0.000564,  47.855
   486.4,0.001560,0.000769,-0.001759,0.000564,  47.846
   486.6,0.001560,0.000769,-0.001906,0.000564,  47.851
   486.8,0.001559,0.000771,-0.002102,0.000564,  47.847
   487.0,0.001559,0.000774,-0.002348,0.000577,  47.849
   487.2,0.001565,0.000776,-0.002303,0.000577,  47.844
   487.4,0.001562,0.000773,-0.002163,0.000577,  47.843
   487.6,0.001562,0.000778,-0.001932,0.000590,  47.849
   487.8,0.001565,0.000780,-0.001846,0.000577,  47.845
   488.0,0.001559,0.000778,-0.001779,0.000577,  47.846
   488.2,0.001559,0.000782,-0.001738,0.000590,  47.847
   488.4,0.001565,0.000782,-0.001697,0.000577,  47.842
   488.6,0.001559,0.000785,-0.001674,0.000577,  47.842
   488.8,0.001562,0.000788,-0.001676,0.000555,  47.844
   489.0,0.001570,0.000788,-0.001609,0.000555,  47.840
   489.2,0.001564,0.000792,-0.001527,0.000555,  47.844
   489.4,0.001573,0.000791,-0.001426,0.000532,  47.841
   489.6,0.001579,0.000795,-0.001407,0.000532,  47.845
   489.8,0.001573,0.000792,-0.001433,0.000568,  47.841
   490.0,0.001582,0.000799,-0.001486,0.000581,  47.841
   490.2,0.001579,0.000801,-0.001452,0.000581,  47.842
   490.4,0.001579,0.000802,-0.001407,0.000581,  47.838
   490.6,0.001582,0.000796,-0.001338,0.000594,  47.835
   490.8,0.001586,0.000801,-0.001328,0.000594,  47.838
   491.0,0.001588,0.000801,-0.001338,0.000581,  47.834
   491.2,0.001585,0.000797,-0.001371,0.000581,  47.832
   491.4,0.001591,0.000797,-0.001338,0.000594,  47.836
   491.6,0.001593,0.000799,-0.001278,0.000594,  47.837
   491.8,0.001587,0.000797,-0.001195,0.000594,  47.835
   492.0,0.001591,0.000799,-0.001222,0.000607,  47.833
   492.2,0.001591,0.000801,-0.001304,0.000594,  47.833
   492.4,0.001593,0.000798,-0.001437,0.000594,  47.834
   492.6,0.001587,0.000798,-0.001478,0.000607,  47.836
   492.8,0.001596,0.000802,-0.001504,0.000594,  47.835
   493.0,0.001590,0.000805,-0.001511,0.000594,  47.832
   493.2,0.001590,0.000808,-0.001485,0.000607,  47.836
   493.4,0.001599,0.000807,-0.001440,0.000607,  47.837
   493.6,0.001599,0.000811,-0.001365,0.000607,  47.837
   493.8,0.001592,0.000812,-0.001346,0.000620,  47.833
   494.0,0.001599,0.000810,-0.001337,0.000620,  47.833
   494.2,0.001599,0.000811,-0.001339,0.000620,  47.834
   494.4,0.001592,0.000816,-0.001305,0.000597,  47.840
   494.6,0.001599,0.000816,-0.001277,0.000646,  47.835
   494.8,0.001601,0.000818,-0.001228,0.000646,  47.835
   495.0,0.001598,0.000816,-0.001236,0.000646,  47.834
   495.2,0.001606,0.000818,-0.001270,0.000646,  47.836
   495.4,0.001609,0.000820,-0.001324,0.000646,  47.833
   495.6,0.001603,0.000822,-0.001350,0.000659,  47.831
   495.8,0.001606,0.000825,-0.001369,0.000623,  47.835
   496.0,0.001609,0.000823,-0.001401,0.000610,  47.827
   496.2,0.001605,0.000826,-0.001420,0.000623,  47.817
   496.4,0.001614,0.000826,-0.001418,0.000588,  47.812
   496.6,0.001617,0.000829,-0.001408,0.000623,  47.814
   496.8,0.001614,0.000830,-0.001375,0.000636,  47.812
   497.0,0.001618,0.000834,-0.001390,0.000601,  47.810
   497.2,0.001620,0.000836,-0.001414,0.000636,  47.813
   497.4,0.001620,0.000834,-0.001442,0.000649,  47.812
   497.6,0.001620,0.000839,-0.001431,0.000614,  47.815
   497.8,0.001623,0.000842,-0.001392,0.000649,  47.812
   498.0,0.001623,0.000842,-0.001334,0.000662,  47.816
   498.2,0.001627,0.000844,-0.001332,0.000627,  47.810
   498.4,0.001629,0.000841,-0.001343,0.000662,  47.811
   498.6,0.001632,0.000843,-0.001371,0.000675,  47.813
   498.8,0.001641,0.000846,-0.001364,0.000640,  47.809
   499.0,0.001647,0.000841,-0.001352,0.000662,  47.814
   499.2,0.001647,0.000849,-0.001321,0.000662,  47.814
   499.4,0.001647,0.000850,-0.001394,0.000627,  47.812
   499.6,0.001647,0.000853,-0.001509,0.000662,  47.809
   499.8,0.001647,0.000856,-0.001681,0.000662,  47.807
   500.0,0.001641,0.000857,-0.001694,0.000640,  47.813
   500.2,0.001637,0.000858,-0.001638,0.000688,  47.811
   500.4,0.001637,0.000856,-0.001552,0.000688,  47.808
   500.6,0.001643,0.000855,-0.001920,0.000653,  47.808
   500.8,0.001646,0.000851,-0.002501,0.000688,  47.812
   501.0,0.001648,0.000855,-0.003286,0.000688,  47.813
   501.2,0.001648,0.000859,-0.003300,0.000653,  47.811
   501.4,0.001648,0.000861,-0.003026,0.000688,  47.810
   501.6,0.001647,0.000864,-0.002486,0.000688,  47.815
   501.8,0.001651,0.000867,-0.002306,0.000666,  47.815
   502.0,0.001651,0.000867,-0.002160,0.000701,  47.815
   502.2,0.001647,0.000869,-0.002069,0.000714,  47.818
   502.4,0.001651,0.000872,-0.001951,0.000679,  47.814
   502.6,0.001654,0.000872,-0.001828,0.000679,  47.820
   502.8,0.001662,0.000869,-0.001720,0.000692,  47.821
   503.0,0.001660,0.000867,-0.001660,0.000679,  47.815
   503.2,0.001660,0.000867,-0.001628,0.000679,  47.818
   503.4,0.001669,0.000867,-0.001615,0.000679,  47.818
   503.6,0.001666,0.000867,-0.001599,0.000656,  47.816
   503.8,0.001666,0.000861,-0.001606,0.000656,  47.820
   504.0,0.001662,0.000864,-0.001615,0.000656,  47.821
   504.2,0.001662,0.000867,-0.001615,0.000634,  47.820
   504.4,0.001669,0.000864,-0.001608,0.000669,  47.818
   504.6,0.001665,0.000866,-0.001615,0.000669,  47.819
   504.8,0.001671,0.000867,-0.001610,0.000682,  47.823
   505.0,0.001677,0.000864,-0.001584,0.000634,  47.823
   505.2,0.001674,0.000868,-0.001557,0.000669,  47.823
   505.4,0.001677,0.000872,-0.001516,0.000682,  47.825
   505.6,0.001677,0.000876,-0.001497,0.000647,  47.827
   505.8,0.001674,0.000880,-0.001488,0.000695,  47.819
   506.0,0.001677,0.000885,-0.001488,0.000695,  47.825
   506.2,0.001684,0.000889,-0.001460,0.000660,  47.826
   506.4,0.001680,0.000887,-0.001424,0.000695,  47.827
   506.6,0.001677,0.000891,-0.001368,0.000708,  47.822
   506.8,0.001684,0.000887,-0.001380,0.000673,  47.826
   507.0,0.001680,0.000887,-0.001445,0.000708,  47.826
   507.2,0.001677,0.000891,-0.001529,0.000721,  47.826
   507.4,0.001684,0.000896,-0.001539,0.000686,  47.821
   507.6,0.001680,0.000893,-0.001544,0.000708,  47.825
   507.8,0.001680,0.000893,-0.001525,0.000708,  47.825
   508.0,0.001686,0.000893,-0.001499,0.000673,  47.822
   508.2,0.001683,0.000893,-0.001471,0.000708,  47.820
   508.4,0.001689,0.000895,-0.001422,0.000708,  47.822
   508.6,0.001695,0.000901,-0.001398,0.000686,  47.823
   508.8,0.001691,0.000901,-0.001403,0.000721,  47.824
   509.0,0.001698,0.000903,-0.001418,0.000721,  47.820
   509.2,0.001698,0.000906,-0.001721,0.000699,  47.822
   509.4,0.001694,0.000904,-0.002170,0.000734,  47.825
   509.6,0.001703,0.000904,-0.002772,0.000734,  47.821
   509.8,0.001700,0.000901,-0.002762,0.000699,  47.820
   510.0,0.001700,0.000901,-0.002524,0.000721,  47.821
   510.2,0.001697,0.000900,-0.002062,0.000721,  47.823
   510.4,0.001697,0.000900,-0.001927,0.000699,  47.819
   510.6,0.001703,0.000897,-0.001823,0.000734,  47.820
   510.8,0.001705,0.000898,-0.001782,0.000712,  47.821
   511.0,0.001705,0.000905,-0.001696,0.000712,  47.824
   511.2,0.001712,0.000903,-0.001597,0.000725,  47.824
   511.4,0.001712,0.000906,-0.001500,0.000702,  47.820
   511.6,0.001708,0.000913,-0.001434,0.000725,  47.820
   511.8,0.001712,0.000913,-0.001399,0.000725,  47.823
   512.0,0.001714,0.000914,-0.001369,0.000725,  47.820
   512.2,0.001717,0.000917,-0.001369,0.000702,  47.819
   512.4,0.001723,0.000919,-0.001403,0.000689,  47.824
   512.6,0.001726,0.000921,-0.001461,0.000738,  47.821
   512.8,0.001726,0.000920,-0.001475,0.000702,  47.822
   513.0,0.001723,0.000925,-0.001475,0.000725,  47.820
   513.2,0.001726,0.000925,-0.001466,0.000747,  47.823
   513.4,0.001726,0.000931,-0.001444,0.000760,  47.827
   513.6,0.001732,0.000934,-0.001442,0.000725,  47.823
   513.8,0.001735,0.000930,-0.001436,0.000760,  47.818
   514.0,0.001728,0.000934,-0.001442,0.000773,  47.815
   514.2,0.001737,0.000934,-0.001449,0.000738,  47.822
   514.4,0.001737,0.000929,-0.001459,0.000773,  47.820
   514.6,0.001731,0.000931,-0.001475,0.000751,  47.816
   514.8,0.001737,0.000927,-0.001548,0.000751,  47.819
   515.0,0.001740,0.000931,-0.001655,0.000751,  47.814
   515.2,0.001734,0.000932,-0.001808,0.000728,  47.820
   515.4,0.001740,0.000930,-0.001806,0.000764,  47.820
   515.6,0.001740,0.000932,-0.001733,0.000764,  47.821
   515.8,0.001734,0.000930,-0.001617,0.000741,  47.819
   516.0,0.001737,0.000928,-0.001572,0.000741,  47.820
   516.2,0.001737,0.000928,-0.001523,0.000728,  47.820
   516.4,0.001731,0.000933,-0.001490,0.000706,  47.816
   516.6,0.001740,0.000935,-0.001461,0.000706,  47.817
   516.8,0.001742,0.000934,-0.001430,0.000741,  47.818
   517.0,0.001736,0.000936,-0.001420,0.000719,  47.819
   517.2,0.001740,0.000934,-0.001428,0.000719,  47.816
   517.4,0.001740,0.000934,-0.001452,0.000754,  47.821
   517.6,0.001736,0.000933,-0.001495,0.000732,  47.821
   517.8,0.001745,0.000938,-0.001484,0.000745,  47.820
   518.0,0.001745,0.000938,-0.001457,0.000767,  47.820
   518.2,0.001739,0.000936,-0.001422,0.000732,  47.819
   518.4,0.001745,0.000944,-0.001435,0.000745,  47.819
   518.6,0.001745,0.000943,-0.001461,0.000780,  47.820
   518.8,0.001748,0.000945,-0.001499,0.000745,  47.818
   519.0,0.001745,0.000945,-0.001588,0.000745,  47.821
   519.2,0.001745,0.000943,-0.001717,0.000780,  47.822
   519.4,0.001748,0.000947,-0.001859,0.000745,  47.821
   519.6,0.001750,0.000947,-0.001876,0.000745,  47.818
   519.8,0.001750,0.000945,-0.001850,0.000780,  47.819
   520.0,0.001753,0.000946,-0.001775,0.000745,  47.819
   520.2,0.001747,0.000948,-0.001732,0.000745,  47.821
   520.4,0.001753,0.000949,-0.001683,0.000780,  47.821
   520.6,0.001755,0.000947,-0.001646,0.000745,  47.817
   520.8,0.001749,0.000946,-0.001739,0.000758,  47.818
   521.0,0.001753,0.000948,-0.001879,0.000793,  47.817
   521.2,0.001755,0.000952,-0.002084,0.000793,  47.821
   521.4,0.001755,0.000955,-0.002073,0.000784,  47.817
   521.6,0.001759,0.000957,-0.001986,0.000806,  47.821
   521.8,0.001762,0.000952,-0.001800,0.000784,  47.821
   522.0,0.001762,0.000957,-0.001742,0.000784,  47.823
   522.2,0.001762,0.000958,-0.001714,0.000748,  47.821
   522.4,0.001770,0.000952,-0.001692,0.000784,  47.819
   522.6,0.001768,0.000955,-0.001701,0.000761,  47.823
   522.8,0.001768,0.000957,-0.001621,0.000797,  47.823
   523.0,0.001777,0.000953,-0.001531,0.000784,  47.825
   523.2,0.001777,0.000957,-0.001425,0.000761,  47.821
   523.4,0.001777,0.000959,-0.001372,0.000797,  47.823
   523.6,0.001773,0.000959,-0.001336,0.000784,  47.825
   523.8,0.001773,0.000962,-0.001310,0.000748,  47.822
   524.0,0.001777,0.000964,-0.001308,0.000784,  47.825
   524.2,0.001776,0.000961,-0.001325,0.000758,  47.821
   524.4,0.001776,0.000969,-0.001359,0.000735,  47.825
   524.6,0.001782,0.000967,-0.001349,0.000784,  47.820
   524.8,0.001778,0.000969,-0.001330,0.000784,  47.824
   525.0,0.001787,0.000971,-0.001304,0.000761,  47.825
   525.2,0.001791,0.000973,-0.001353,0.000797,  47.820
   525.4,0.001784,0.000970,-0.001427,0.000797,  47.823
   525.6,0.001793,0.000970,-0.001531,0.000774,  47.822
   525.8,0.001793,0.000972,-0.001547,0.000810,  47.822
   526.0,0.001790,0.000973,-0.001558,0.000810,  47.823
   526.2,0.001798,0.000980,-0.001527,0.000787,  47.819
   526.4,0.001810,0.000985,-0.001510,0.000787,  47.822
   526.6,0.001806,0.000987,-0.001491,0.000787,  47.825
   526.8,0.001810,0.000989,-0.001474,0.000752,  47.829
   527.0,0.001816,0.000990,-0.001481,0.000752,  47.825
   527.2,0.001816,0.000995,-0.001498,0.000787,  47.829
   527.4,0.001812,0.000995,-0.001527,0.000765,  47.829
   527.6,0.001810,0.000996,-0.001534,0.000765,  47.826
   527.8,0.001806,0.000997,-0.001525,0.000800,  47.825
   528.0,0.001803,0.000999,-0.001504,0.000778,  47.830
   528.2,0.001811,0.000995,-0.001502,0.000791,  47.828
   528.4,0.001811,0.000993,-0.001495,0.000813,  47.830
   528.6,0.001808,0.000993,-0.001487,0.000778,  47.825
   528.8,0.001817,0.000996,-0.001461,0.000791,  47.830
   529.0,0.001817,0.000999,-0.001427,0.000778,  47.827
   529.2,0.001810,0.001004,-0.001384,0.000778,  47.827
   529.4,0.001820,0.001008,-0.001392,0.000791,  47.823
   529.6,0.001824,0.001010,-0.001425,0.000755,  47.824
   529.8,0.001824,0.001014,-0.001485,0.000791,  47.824
   530.0,0.001826,0.001011,-0.001493,0.000755,  47.823
   530.2,0.001833,0.001011,-0.001493,0.000755,  47.825
   530.4,0.001833,0.001010,-0.001483,0.000791,  47.828
   530.6,0.001826,0.001012,-0.001459,0.000791,  47.827
   530.8,0.001830,0.001009,-0.001438,0.000804,  47.824
   531.0,0.001824,0.001007,-0.001390,0.000804,  47.821
   531.2,0.001826,0.001012,-0.001354,0.000817,  47.827
   531.4,0.001829,0.001014,-0.001369,0.000817,  47.826
   531.6,0.001830,0.001019,-0.001403,0.000817,  47.821
   531.8,0.001841,0.001019,-0.001453,0.000830,  47.820
   532.0,0.001849,0.001017,-0.001569,0.000817,  47.818
   532.2,0.001843,0.001014,-0.001746,0.000817,  47.821
   532.4,0.001848,0.001012,-0.001948,0.000830,  47.825
   532.6,0.001843,0.001012,-0.001924,0.000830,  47.821
   532.8,0.001842,0.001005,-0.001829,0.000843,  47.821
   533.0,0.001839,0.001005,-0.001630,0.000856,  47.820
   533.2,0.001839,0.001006,-0.001580,0.000843,  47.820
   533.4,0.001841,0.001005,-0.001563,0.000843,  47.820
   533.6,0.001847,0.001002,-0.001567,0.000820,  47.813
   533.8,0.001844,0.001003,-0.001531,0.000820,  47.814
   534.0,0.001844,0.001003,-0.001483,0.000820,  47.813
   534.2,0.001844,0.001004,-0.001432,0.000798,  47.813
   534.4,0.001841,0.001005,-0.001430,0.000798,  47.818
   534.6,0.001841,0.001005,-0.001455,0.000820,  47.816
   534.8,0.001841,0.001012,-0.001498,0.000833,  47.817
   535.0,0.001841,0.001011,-0.001531,0.000833,  47.817
   535.2,0.001841,0.001007,-0.001578,0.000833,  47.817
   535.4,0.001841,0.001014,-0.001616,0.000846,  47.813
   535.6,0.001841,0.001016,-0.001630,0.000846,  47.820
   535.8,0.001841,0.001016,-0.001636,0.000846,  47.815
   536.0,0.001841,0.001021,-0.001619,0.000859,  47.819
   536.2,0.001844,0.001024,-0.001576,0.000859,  47.815
   536.4,0.001844,0.001026,-0.001523,0.000846,  47.814
   536.6,0.001849,0.001023,-0.001449,0.000846,  47.813
   536.8,0.001849,0.001025,-0.001430,0.000859,  47.817
   537.0,0.001849,0.001027,-0.001430,0.000859,  47.812
   537.2,0.001852,0.001021,-0.001461,0.000859,  47.818
   537.4,0.001852,0.001025,-0.001491,0.000872,  47.815
   537.6,0.001855,0.001025,-0.001510,0.000859,  47.808
   537.8,0.001858,0.001021,-0.001559,0.000859,  47.812
   538.0,0.001849,0.001023,-0.001555,0.000824,  47.808
   538.2,0.001853,0.001028,-0.001523,0.000859,  47.805
   538.4,0.001855,0.001028,-0.001474,0.000859,  47.805
   538.6,0.001847,0.001030,-0.001424,0.000824,  47.814
   538.8,0.001853,0.001030,-0.001367,0.000859,  47.810
   539.0,0.001855,0.001030,-0.001306,0.000872,  47.810
   539.2,0.001847,0.001026,-0.001232,0.000872,  47.810
   539.4,0.001853,0.001023,-0.001550,0.000885,  47.810
   539.6,0.001855,0.001021,-0.002028,0.000885,  47.807
   539.8,0.001847,0.001029,-0.002655,0.000885,  47.812
   540.0,0.001853,0.001031,-0.002707,0.000898,  47.809
   540.2,0.001855,0.001029,-0.002565,0.000885,  47.808
   540.4,0.001849,0.001034,-0.002224,0.000898,  47.812
   540.6,0.001855,0.001038,-0.002138,0.000898,  47.804
   540.8,0.001858,0.001034,-0.002087,0.000898,  47.810
   541.0,0.001852,0.001044,-0.002070,0.000911,  47.806
   541.2,0.001858,0.001042,-0.001992,0.000898,  47.806
   541.4,0.001863,0.001040,-0.001906,0.000898,  47.801
   541.6,0.001863,0.001046,-0.001805,0.000911,  47.801
   541.8,0.001872,0.001048,-0.001825,0.000911,  47.796
   542.0,0.001878,0.001046,-0.001898,0.000911,  47.791
   542.2,0.001878,0.001050,-0.002023,0.000924,  47.783
   542.4,0.001876,0.001052,-0.002011,0.000924,  47.786
   542.6,0.001882,0.001048,-0.001954,0.000911,  47.784
   542.8,0.001882,0.001056,-0.001847,0.000924,  47.787
   543.0,0.001885,0.001058,-0.001860,0.000889,  47.781
   543.2,0.001881,0.001052,-0.001896,0.000889,  47.781
   543.4,0.001881,0.001059,-0.001963,0.000902,  47.779
   543.6,0.001885,0.001059,-0.001920,0.000866,  47.781
   543.8,0.001885,0.001057,-0.001843,0.000902,  47.783
   544.0,0.001885,0.001061,-0.001720,0.000915,  47.775
   544.2,0.001891,0.001066,-0.001757,0.000879,  47.775
   544.4,0.001888,0.001068,-0.001839,0.000902,  47.774
   544.6,0.001891,0.001065,-0.001985,0.000915,  47.776
   544.8,0.001891,0.001065,-0.001962,0.000879,  47.776
   545.0,0.001893,0.001063,-0.001863,0.000902,  47.774
   545.2,0.001890,0.001066,-0.001704,0.000915,  47.772
   545.4,0.001899,0.001071,-0.001659,0.000879,  47.777
   545.6,0.001896,0.001067,-0.001635,0.000915,  47.776
   545.8,0.001890,0.001064,-0.001627,0.000928,  47.778
   546.0,0.001893,0.001062,-0.001639,0.000892,  47.774
   546.2,0.001891,0.001060,-0.001696,0.000892,  47.772
   546.4,0.001885,0.001064,-0.001773,0.000892,  47.773
   546.6,0.001891,0.001068,-0.001807,0.000905,  47.773
   546.8,0.001891,0.001068,-0.001833,0.000892,  47.771
   547.0,0.001885,0.001068,-0.001863,0.000892,  47.773
   547.2,0.001893,0.001074,-0.001851,0.000905,  47.776
   547.4,0.001893,0.001078,-0.001796,0.000892,  47.773
   547.6,0.001890,0.001080,-0.001748,0.000915,  47.777
   547.8,0.001899,0.001090,-0.001664,0.000915,  47.769
   548.0,0.001907,0.001090,-0.001664,0.000892,  47.769
   548.2,0.001904,0.001089,-0.001690,0.000954,  47.770
   548.4,0.001904,0.001089,-0.001734,0.000967,  47.769
   548.6,0.001910,0.001084,-0.001743,0.000944,  47.768
   548.8,0.001906,0.001091,-0.001760,0.000931,  47.771
   549.0,0.001915,0.001090,-0.001775,0.000931,  47.770
   549.2,0.001921,0.001087,-0.001758,0.000944,  47.768
   549.4,0.001924,0.001089,-0.001741,0.000931,  47.770
   549.6,0.001924,0.001093,-0.001707,0.000944,  47.773
   549.8,0.001928,0.001093,-0.001672,0.000944,  47.769
   550.0,0.001930,0.001097,-0.001623,0.000944,  47.775
   550.2,0.001930,0.001101,-0.001578,0.000957,  47.771
   550.4,0.001936,0.001101,-0.001591,0.000957,  47.775
   550.6,0.001939,0.001099,-0.001632,0.000957,  47.769
   550.8,0.001939,0.001098,-0.001692,0.000970,  47.764
   551.0,0.001939,0.001100,-0.001692,0.000970,  47.770
   551.2,0.001942,0.001100,-0.001688,0.000957,  47.769
   551.4,0.001947,0.001105,-0.001666,0.000970,  47.770
   551.6,0.001947,0.001108,-0.001649,0.000935,  47.769
   551.8,0.001949,0.001110,-0.001623,0.000922,  47.774
   552.0,0.001952,0.001112,-0.001606,0.000935,  47.778
   552.2,0.001952,0.001116,-0.001579,0.000899,  47.776
   552.4,0.001955,0.001118,-0.001546,0.000935,  47.773
   552.6,0.001961,0.001113,-0.001507,0.000948,  47.774
   552.8,0.001964,0.001113,-0.001553,0.000912,  47.776
   553.0,0.001967,0.001117,-0.001633,0.000948,  47.777
   553.2,0.001970,0.001117,-0.001744,0.000961,  47.780
   553.4,0.001970,0.001123,-0.001729,0.000925,  47.774
   553.6,0.001972,0.001122,-0.001686,0.000948,  47.776
   553.8,0.001966,0.001126,-0.001589,0.000961,  47.776
   554.0,0.001969,0.001126,-0.001608,0.000925,  47.777
   554.2,0.001969,0.001126,-0.001677,0.000961,  47.773
   554.4,0.001972,0.001129,-0.001786,0.000974,  47.780
   554.6,0.001974,0.001127,-0.001774,0.000938,  47.777
   554.8,0.001976,0.001125,-0.001724,0.000974,  47.779
   555.0,0.001976,0.001129,-0.001632,0.000987,  47.779
   555.2,0.001975,0.001128,-0.001579,0.000951,  47.779
   555.4,0.001977,0.001128,-0.001542,0.000974,  47.777
   555.6,0.001973,0.001130,-0.001506,0.000987,  47.778
   555.8,0.001976,0.001133,-0.001470,0.000974,  47.780
   556.0,0.001978,0.001133,-0.001444,0.001000,  47.783
   556.2,0.001981,0.001133,-0.001429,0.000987,  47.782
   556.4,0.001984,0.001137,-0.001521,0.000987,  47.780
   556.6,0.001984,0.001137,-0.001670,0.000987,  47.780
   556.8,0.001989,0.001140,-0.001883,0.000987,  47.784
   557.0,0.001991,0.001149,-0.002158,0.000987,  47.782
   557.2,0.001998,0.001148,-0.002160,0.000964,  47.777
   557.4,0.001994,0.001148,-0.002112,0.000987,  47.786
   557.6,0.001991,0.001151,-0.001985,0.000987,  47.781
   557.8,0.001991,0.001148,-0.001942,0.000964,  47.777
   558.0,0.001994,0.001146,-0.001888,0.001000,  47.776
   558.2,0.001994,0.001151,-0.001852,0.001000,  47.776
   558.4,0.001994,0.001148,-0.001800,0.000964,  47.774
   558.6,0.001990,0.001148,-0.001740,0.001000,  47.778
   558.8,0.001990,0.001152,-0.001673,0.001000,  47.777
   559.0,0.001990,0.001152,-0.001654,0.000964,  47.776
   559.2,0.001993,0.001157,-0.001646,0.000987,  47.768
   559.4,0.001990,0.001155,-0.001673,0.000951,  47.770
   559.6,0.001997,0.001157,-0.001668,0.000977,  47.773
   559.8,0.002005,0.001157,-0.001652,0.000977,  47.773
   560.0,0.002003,0.001160,-0.001629,0.000942,  47.777
   560.2,0.001997,0.001158,-0.001644,0.000990,  47.773
   560.4,0.001999,0.001158,-0.001668,0.000977,  47.778
   560.6,0.001999,0.001162,-0.001699,0.000955,  47.778
   560.8,0.002005,0.001162,-0.001929,0.001003,  47.776
   561.0,0.002002,0.001159,-0.002272,0.001003,  47.774
   561.2,0.002008,0.001161,-0.002708,0.000981,  47.777
   561.4,0.002012,0.001159,-0.002708,0.001016,  47.778
   561.6,0.002008,0.001161,-0.002564,0.001003,  47.781
   561.8,0.002012,0.001161,-0.002246,0.000981,  47.782
   562.0,0.002009,0.001165,-0.002139,0.001016,  47.782
   562.2,0.002009,0.001167,-0.002067,0.001003,  47.781
   562.4,0.002012,0.001165,-0.002033,0.000981,  47.784
   562.6,0.002012,0.001170,-0.001966,0.001016,  47.787
   562.8,0.002014,0.001172,-0.001900,0.001016,  47.790
   563.0,0.002008,0.001168,-0.001850,0.000994,  47.792
   563.2,0.002014,0.001172,-0.001788,0.001016,  47.793
   563.4,0.002014,0.001176,-0.001713,0.001016,  47.792
   563.6,0.002008,0.001172,-0.001646,0.000994,  47.789
   563.8,0.002014,0.001171,-0.001601,0.001029,  47.792
   564.0,0.002014,0.001173,-0.001559,0.001029,  47.793
   564.2,0.002008,0.001175,-0.001531,0.001042,  47.795
   564.4,0.002014,0.001172,-0.001529,0.001007,  47.792
   564.6,0.002012,0.001170,-0.001553,0.001055,  47.794
   564.8,0.002011,0.001170,-0.001582,0.001020,  47.796
   565.0,0.002017,0.001174,-0.001572,0.001033,  47.795
   565.2,0.002023,0.001180,-0.001561,0.001033,  47.797
   565.4,0.002019,0.001181,-0.001520,0.001020,  47.797
   565.6,0.002022,0.001185,-0.001484,0.000984,  47.795
   565.8,0.002026,0.001191,-0.001491,0.000997,  47.797
   566.0,0.002019,0.001192,-0.001516,0.001033,  47.796
   566.2,0.002022,0.001190,-0.001537,0.000997,  47.800
   566.4,0.002028,0.001195,-0.001580,0.001010,  47.802
   566.6,0.002025,0.001197,-0.001647,0.001033,  47.802
   566.8,0.002025,0.001192,-0.001724,0.000997,  47.803
   567.0,0.002034,0.001190,-0.001739,0.001010,  47.806
   567.2,0.002030,0.001187,-0.001731,0.001033,  47.805
   567.4,0.002034,0.001189,-0.001698,0.000997,  47.802
   567.6,0.002040,0.001187,-0.001662,0.001010,  47.803
   567.8,0.002040,0.001190,-0.001613,0.001046,  47.805
   568.0,0.002037,0.001186,-0.001568,0.001010,  47.803
   568.2,0.002041,0.001190,-0.001574,0.001023,  47.811
   568.4,0.002043,0.001190,-0.001591,0.001059,  47.809
   568.6,0.002037,0.001190,-0.001641,0.001023,  47.809
   568.8,0.002046,0.001191,-0.001641,0.001036,  47.809
   569.0,0.002049,0.001193,-0.001632,0.001059,  47.812
   569.2,0.002042,0.001195,-0.001609,0.001023,  47.812
   569.4,0.002051,0.001201,-0.001568,0.001036,  47.815
   569.6,0.002054,0.001203,-0.001516,0.001023,  47.817
   569.8,0.002045,0.001201,-0.001463,0.000988,  47.814
   570.0,0.002051,0.001199,-0.001463,0.001036,  47.815
   570.2,0.002056,0.001201,-0.001487,0.001023,  47.812
   570.4,0.002050,0.001196,-0.001545,0.001001,  47.813
   570.6,0.002059,0.001201,-0.001514,0.001036,  47.814
   570.8,0.002062,0.001204,-0.001478,0.001036,  47.819
   571.0,0.002064,0.001206,-0.001416,0.001014,  47.822
   571.2,0.002055,0.001209,-0.001399,0.001049,  47.820
   571.4,0.002062,0.001214,-0.001401,0.001062,  47.824
   571.6,0.002067,0.001222,-0.001427,0.001040,  47.826
   571.8,0.002067,0.001223,-0.001474,0.001075,  47.824
   572.0,0.002070,0.001221,-0.001514,0.001075,  47.827
   572.2,0.002070,0.001222,-0.001591,0.001053,  47.827
   572.4,0.002070,0.001219,-0.001632,0.001088,  47.830
   572.6,0.002070,0.001219,-0.001675,0.001075,  47.830
   572.8,0.002073,0.001219,-0.001708,0.001075,  47.833
   573.0,0.002073,0.001217,-0.001714,0.001053,  47.836
   573.2,0.002082,0.001218,-0.001692,0.001075,  47.838
   573.4,0.002084,0.001220,-0.001665,0.001075,  47.832
   573.6,0.002078,0.001221,-0.001665,0.001088,  47.835
   573.8,0.002084,0.001220,-0.001673,0.001088,  47.838
   574.0,0.002087,0.001225,-0.001690,0.001088,  47.839
   574.2,0.002083,0.001232,-0.001680,0.001053,  47.843
   574.4,0.002092,0.001232,-0.001663,0.001088,  47.847
   574.6,0.002092,0.001232,-0.001645,0.001088,  47.844
   574.8,0.002086,0.001230,-0.001613,0.001066,  47.842
   575.0,0.002092,0.001234,-0.001603,0.001101,  47.848
   575.2,0.002095,0.001231,-0.001603,0.001101,  47.849
   575.4,0.002097,0.001229,-0.001609,0.001079,  47.849
   575.6,0.002104,0.001233,-0.001616,0.001092,  47.850
   575.8,0.002106,0.001236,-0.001635,0.001079,  47.856
   576.0,0.002109,0.001234,-0.001661,0.001044,  47.855
   576.2,0.002106,0.001234,-0.001652,0.001057,  47.855
   576.4,0.002112,0.001236,-0.001628,0.001079,  47.853
   576.6,0.002112,0.001240,-0.001594,0.001044,  47.857
   576.8,0.002110,0.001244,-0.001684,0.001057,  47.856
   577.0,0.002116,0.001248,-0.001831,0.001092,  47.857
   577.2,0.002119,0.001248,-0.002029,0.001057,  47.859
   577.4,0.002112,0.001248,-0.002010,0.001057,  47.855
   577.6,0.002112,0.001249,-0.001924,0.001092,  47.856
   577.8,0.002119,0.001251,-0.001752,0.001057,  47.860
   578.0,0.002122,0.001251,-0.001825,0.001070,  47.859
   578.2,0.002116,0.001251,-0.001980,0.001105,  47.860
   578.4,0.002121,0.001254,-0.002221,0.001070,  47.862
   578.6,0.002121,0.001256,-0.002245,0.001083,  47.860
   578.8,0.002118,0.001253,-0.002204,0.001105,  47.863
   579.0,0.002120,0.001254,-0.002085,0.001083,  47.865
   579.2,0.002129,0.001258,-0.002018,0.001083,  47.863
   579.4,0.002125,0.001253,-0.001956,0.001118,  47.869
   579.6,0.002123,0.001257,-0.001866,0.001096,  47.865
   579.8,0.002126,0.001260,-0.001790,0.001096,  47.873
   580.0,0.002124,0.001260,-0.001713,0.001131,  47.887
   580.2,0.002124,0.001260,-0.001631,0.001109,  47.885
   580.4,0.002124,0.001260,-0.001606,0.001109,  47.886
   580.6,0.002126,0.001263,-0.001629,0.001131,  47.883
   580.8,0.002123,0.001262,-0.001659,0.001109,  47.892
   581.0,0.002129,0.001261,-0.001649,0.001109,  47.890
   581.2,0.002129,0.001263,-0.001631,0.001096,  47.890
   581.4,0.002125,0.001262,-0.001604,0.001109,  47.896
   581.6,0.002123,0.001262,-0.001593,0.001122,  47.895
   581.8,0.002129,0.001261,-0.001581,0.001122,  47.901
   582.0,0.002128,0.001267,-0.001572,0.001122,  47.902
   582.2,0.002128,0.001269,-0.001598,0.001135,  47.902
   582.4,0.002137,0.001268,-0.001649,0.001122,  47.902
   582.6,0.002133,0.001268,-0.001726,0.001122,  47.904
   582.8,0.002136,0.001268,-0.001748,0.001122,  47.905
   583.0,0.002142,0.001268,-0.001748,0.001122,  47.907
   583.2,0.002138,0.001267,-0.001726,0.001086,  47.905
   583.4,0.002138,0.001271,-0.001726,0.001064,  47.909
   583.6,0.002147,0.001273,-0.001716,0.001064,  47.908
   583.8,0.002144,0.001273,-0.001709,0.001099,  47.912
   584.0,0.002147,0.001276,-0.001694,0.001135,  47.918
   584.2,0.002153,0.001280,-0.001694,0.001135,  47.913
   584.4,0.002150,0.001278,-0.001694,0.001135,  47.913
   584.6,0.002153,0.001274,-0.001701,0.001170,  47.919
   584.8,0.002153,0.001276,-0.001683,0.001170,  47.914
   585.0,0.002150,0.001282,-0.001658,0.001135,  47.918
   585.2,0.002156,0.001281,-0.001625,0.001148,  47.919
   585.4,0.002156,0.001281,-0.001604,0.001148,  47.917
   585.6,0.002153,0.001286,-0.001579,0.001148,  47.920
   585.8,0.002161,0.001284,-0.001555,0.001148,  47.919
   586.0,0.002161,0.001289,-0.001521,0.001148,  47.923
   586.2,0.002160,0.001288,-0.001488,0.001170,  47.924
   586.4,0.002167,0.001295,-0.001447,0.001135,  47.917
   586.6,0.002173,0.001292,-0.001456,0.001135,  47.920
   586.8,0.002169,0.001289,-0.001499,0.001183,  47.915
   587.0,0.002172,0.001290,-0.001574,0.001161,  47.922
   587.2,0.002175,0.001298,-0.001613,0.001174,  47.922
   587.4,0.002169,0.001299,-0.001639,0.001196,  47.923
   587.6,0.002174,0.001299,-0.001660,0.001161,  47.923
   587.8,0.002181,0.001310,-0.001683,0.001174,  47.920
   588.0,0.002177,0.001314,-0.001690,0.001196,  47.918
   588.2,0.002186,0.001312,-0.001677,0.001161,  47.921
   588.4,0.002195,0.001317,-0.001634,0.001187,  47.924
   588.6,0.002195,0.001319,-0.001567,0.001187,  47.920
   588.8,0.002197,0.001323,-0.001473,0.001164,  47.921
   589.0,0.002200,0.001327,-0.001422,0.001164,  47.922
   589.2,0.002206,0.001322,-0.001381,0.001164,  47.916
   589.4,0.002202,0.001331,-0.001364,0.001142,  47.924
   589.6,0.002214,0.001338,-0.001381,0.001106,  47.920
   589.8,0.002216,0.001340,-0.001422,0.001142,  47.919
   590.0,0.002222,0.001340,-0.001479,0.001155,  47.921
   590.2,0.002218,0.001342,-0.001455,0.001119,  47.926
   590.4,0.002224,0.001342,-0.001409,0.001155,  47.919
   590.6,0.002227,0.001345,-0.001318,0.001155,  47.925
   590.8,0.002221,0.001347,-0.001286,0.001168,  47.920
   591.0,0.002227,0.001347,-0.001278,0.001168,  47.921
   591.2,0.002229,0.001355,-0.001280,0.001168,  47.919
   591.4,0.002223,0.001357,-0.001331,0.001181,  47.923
   591.6,0.002227,0.001354,-0.001417,0.001181,  47.921
   591.8,0.002232,0.001363,-0.001543,0.001168,  47.918
   592.0,0.002235,0.001365,-0.001575,0.001181,  47.918
   592.2,0.002241,0.001364,-0.001565,0.001145,  47.921
   592.4,0.002243,0.001368,-0.001524,0.001181,  47.919
   592.6,0.002246,0.001370,-0.001451,0.001194,  47.916
   592.8,0.002247,0.001368,-0.001432,0.001158,  47.916
   593.0,0.002247,0.001371,-0.001402,0.001194,  47.913
   593.2,0.002246,0.001376,-0.001378,0.001207,  47.911
   593.4,0.002252,0.001376,-0.001361,0.001184,  47.908
   593.6,0.002261,0.001374,-0.001344,0.001207,  47.908
   593.8,0.002261,0.001376,-0.001335,0.001207,  47.907
   594.0,0.002267,0.001378,-0.001340,0.001184,  47.907
   594.2,0.002270,0.001373,-0.001337,0.001207,  47.908
   594.4,0.002270,0.001381,-0.001354,0.001207,  47.907
   594.6,0.002266,0.001385,-0.001427,0.001184,  47.904
   594.8,0.002263,0.001384,-0.001535,0.001220,  47.904
   595.0,0.002260,0.001380,-0.001678,0.001220,  47.902
   595.2,0.002266,0.001377,-0.001693,0.001184,  47.907
   595.4,0.002269,0.001377,-0.001666,0.001220,  47.907
   595.6,0.002266,0.001376,-0.001601,0.001220,  47.906
   595.8,0.002266,0.001380,-0.001548,0.001184,  47.907
   596.0,0.002269,0.001376,-0.001479,0.001220,  47.907
   596.2,0.002266,0.001376,-0.001396,0.001220,  47.905
   596.4,0.002264,0.001376,-0.001404,0.001184,  47.906
   596.6,0.002272,0.001374,-0.001447,0.001220,  47.899
   596.8,0.002270,0.001374,-0.001519,0.001220,  47.903
   597.0,0.002267,0.001380,-0.001526,0.001197,  47.905
   597.2,0.002267,0.001378,-0.001526,0.001233,  47.906
   597.4,0.002272,0.001379,-0.001502,0.001246,  47.905
   597.6,0.002270,0.001382,-0.001457,0.001210,  47.903
   597.8,0.002272,0.001378,-0.001382,0.001246,  47.896
   598.0,0.002272,0.001379,-0.001297,0.001259,  47.900
   598.2,0.002275,0.001387,-0.001247,0.001223,  47.902
   598.4,0.002272,0.001387,-0.001211,0.001259,  47.898
   598.6,0.002275,0.001385,-0.001179,0.001272,  47.903
   598.8,0.002275,0.001390,-0.001164,0.001236,  47.900
   599.0,0.002284,0.001389,-0.001172,0.001259,  47.896
   599.2,0.002280,0.001389,-0.001194,0.001259,  47.897
   599.4,0.002280,0.001391,-0.001220,0.001259,  47.899
   599.6,0.002286,0.001390,-0.001271,0.001259,  47.897
   599.8,0.002283,0.001390,-0.001331,0.001259,  47.895
   600.0,0.002286,0.001390,-0.001348,0.001259,  47.896
   600.2,0.002289,0.001387,-0.001350,0.001259,  47.893
   600.4,0.002283,0.001392,-0.001337,0.001259,  47.897
   600.6,0.002286,0.001396,-0.001328,0.001272,  47.892
   600.8,0.002292,0.001395,-0.001311,0.001236,  47.896
   601.0,0.002286,0.001397,-0.001297,0.001236,  47.892
   601.2,0.002286,0.001401,-0.001271,0.001249,  47.896
   601.4,0.002292,0.001399,-0.001271,0.001236,  47.893
   601.6,0.002286,0.001403,-0.001282,0.001236,  47.897
   601.8,0.002294,0.001406,-0.001307,0.001249,  47.891
   602.0,0.002301,0.001404,-0.001340,0.001249,  47.884
   602.2,0.002297,0.001410,-0.001382,0.001249,  47.893
   602.4,0.002303,0.001415,-0.001440,0.001262,  47.887
   602.6,0.002303,0.001418,-0.001415,0.001262,  47.889
   602.8,0.002300,0.001424,-0.001378,0.001262,  47.891
   603.0,0.002308,0.001420,-0.001316,0.001262,  47.892
   603.2,0.002311,0.001422,-0.001428,0.001262,  47.890
   603.4,0.002307,0.001419,-0.001607,0.001262,  47.887
   603.6,0.002311,0.001424,-0.001863,0.001262,  47.891
   603.8,0.002308,0.001428,-0.001861,0.001262,  47.891
   604.0,0.002305,0.001430,-0.001770,0.001262,  47.886
   604.2,0.002308,0.001429,-0.001588,0.001262,  47.893
   604.4,0.002315,0.001429,-0.001513,0.001262,  47.889
   604.6,0.002311,0.001432,-0.001453,0.001262,  47.894
   604.8,0.002315,0.001430,-0.001405,0.001275,  47.895
   605.0,0.002321,0.001432,-0.001495,0.001275,  47.893
   605.2,0.002317,0.001429,-0.001669,0.001275,  47.899
   605.4,0.002321,0.001431,-0.001910,0.001288,  47.897
   605.6,0.002321,0.001428,-0.002009,0.001288,  47.898
   605.8,0.002317,0.001426,-0.002074,0.001275,  47.903
   606.0,0.002321,0.001429,-0.002108,0.001275,  47.900
   606.2,0.002321,0.001434,-0.002084,0.001288,  47.897
   606.4,0.002321,0.001436,-0.002016,0.001288,  47.900
   606.6,0.002326,0.001431,-0.001897,0.001288,  47.905
   606.8,0.002323,0.001431,-0.001822,0.001301,  47.902
   607.0,0.002326,0.001433,-0.001738,0.001301,  47.907
   607.2,0.002326,0.001429,-0.001654,0.001301,  47.906
   607.4,0.002326,0.001433,-0.001579,0.001279,  47.901
   607.6,0.002329,0.001435,-0.001509,0.001279,  47.907
   607.8,0.002325,0.001433,-0.001435,0.001279,  47.906
   608.0,0.002331,0.001433,-0.001491,0.001257,  47.906
   608.2,0.002329,0.001436,-0.001619,0.001279,  47.912
   608.4,0.002322,0.001436,-0.001812,0.001292,  47.904
   608.6,0.002331,0.001438,-0.001776,0.001270,  47.908
   608.8,0.002331,0.001438,-0.001644,0.001305,  47.907
   609.0,0.002325,0.001440,-0.001443,0.001318,  47.908
   609.2,0.002336,0.001443,-0.001359,0.001283,  47.910
   609.4,0.002336,0.001445,-0.001286,0.001318,  47.909
   609.6,0.002339,0.001447,-0.001245,0.001305,  47.911
   609.8,0.002339,0.001452,-0.001221,0.001270,  47.913
   610.0,0.002345,0.001456,-0.001219,0.001305,  47.913
   610.2,0.002348,0.001458,-0.001237,0.001305,  47.909
   610.4,0.002339,0.001458,-0.001281,0.001318,  47.908
   610.6,0.002345,0.001460,-0.001780,0.001283,  47.908
   610.8,0.002344,0.001461,-0.002478,0.001305,  47.913
   611.0,0.002347,0.001460,-0.003375,0.001318,  47.912
   611.2,0.002352,0.001459,-0.003416,0.001283,  47.914
   611.4,0.002355,0.001462,-0.003117,0.001318,  47.913
   611.6,0.002357,0.001463,-0.002491,0.001331,  47.912
   611.8,0.002361,0.001465,-0.002303,0.001296,  47.916
   612.0,0.002361,0.001466,-0.002167,0.001331,  47.915
   612.2,0.002360,0.001467,-0.002102,0.001344,  47.918
   612.4,0.002366,0.001469,-0.001967,0.001309,  47.918
   612.6,0.002366,0.001472,-0.001827,0.001344,  47.919
   612.8,0.002362,0.001469,-0.001687,0.001344,  47.919
   613.0,0.002366,0.001472,-0.001629,0.001309,  47.922
   613.2,0.002369,0.001472,-0.001612,0.001344,  47.921
   613.4,0.002371,0.001477,-0.001640,0.001322,  47.919
   613.6,0.002377,0.001480,-0.001565,0.001322,  47.918
   613.8,0.002380,0.001480,-0.001457,0.001322,  47.921
   614.0,0.002380,0.001482,-0.001331,0.001299,  47.919
   614.2,0.002386,0.001482,-0.001249,0.001348,  47.922
   614.4,0.002389,0.001484,-0.001181,0.001335,  47.922
   614.6,0.002380,0.001483,-0.001133,0.001299,  47.918
   614.8,0.002386,0.001482,-0.001133,0.001348,  47.915
   615.0,0.002389,0.001486,-0.001159,0.001335,  47.916
   615.2,0.002386,0.001486,-0.001232,0.001299,  47.915
   615.4,0.002392,0.001488,-0.001245,0.001348,  47.915
   615.6,0.002392,0.001490,-0.001230,0.001348,  47.919
   615.8,0.002392,0.001488,-0.001204,0.001312,  47.918
   616.0,0.002392,0.001488,-0.001194,0.001348,  47.915
   616.2,0.002399,0.001485,-0.001183,0.001348,  47.916
   616.4,0.002395,0.001487,-0.001160,0.001312,  47.917
   616.6,0.002392,0.001489,-0.001160,0.001361,  47.917
   616.8,0.002399,0.001488,-0.001192,0.001361,  47.921
   617.0,0.002395,0.001491,-0.001233,0.001338,  47.914
   617.2,0.002392,0.001489,-0.001233,0.001374,  47.919
   617.4,0.002392,0.001487,-0.001231,0.001374,  47.919
   617.6,0.002395,0.001490,-0.001217,0.001374,  47.915
   617.8,0.002395,0.001491,-0.001277,0.001387,  47.917
   618.0,0.002401,0.001491,-0.001396,0.001338,  47.921
   618.2,0.002410,0.001484,-0.001546,0.001374,  47.920
   618.4,0.002410,0.001487,-0.001563,0.001351,  47.921
   618.6,0.002401,0.001489,-0.001539,0.001338,  47.923
   618.8,0.002404,0.001484,-0.001481,0.001361,  47.918
   619.0,0.002401,0.001489,-0.001447,0.001325,  47.921
   619.2,0.002405,0.001491,-0.001391,0.001374,  47.924
   619.4,0.002401,0.001489,-0.001360,0.001361,  47.925
   619.6,0.002399,0.001489,-0.001295,0.001338,  47.925
   619.8,0.002405,0.001496,-0.001285,0.001374,  47.928
   620.0,0.002402,0.001497,-0.001302,0.001374,  47.933
   620.2,0.002407,0.001499,-0.001349,0.001351,  47.927
   620.4,0.002421,0.001504,-0.001420,0.001387,  47.932
   620.6,0.002420,0.001502,-0.001517,0.001387,  47.934
   620.8,0.002417,0.001498,-0.001635,0.001364,  47.936
   621.0,0.002418,0.001498,-0.001624,0.001400,  47.937
   621.2,0.002417,0.001496,-0.001564,0.001400,  47.939
   621.4,0.002417,0.001500,-0.001442,0.001377,  47.938
   621.6,0.002417,0.001499,-0.001406,0.001400,  47.941
   621.8,0.002414,0.001497,-0.001373,0.001400,  47.939
   622.0,0.002414,0.001499,-0.001350,0.001377,  47.943
   622.2,0.002420,0.001501,-0.001315,0.001400,  47.948
   622.4,0.002419,0.001499,-0.001279,0.001400,  47.947
   622.6,0.002419,0.001501,-0.001230,0.001377,  47.945
   622.8,0.002425,0.001501,-0.001242,0.001400,  47.952
   623.0,0.002421,0.001499,-0.001292,0.001400,  47.954
   623.2,0.002424,0.001501,-0.001384,0.001377,  47.952
   623.4,0.002428,0.001506,-0.001384,0.001413,  47.950
   623.6,0.002421,0.001508,-0.001350,0.001413,  47.954
   623.8,0.002424,0.001512,-0.001305,0.001390,  47.950
   624.0,0.002428,0.001507,-0.001303,0.001426,  47.952
   624.2,0.002421,0.001513,-0.001311,0.001413,  47.953
   624.4,0.002427,0.001517,-0.001324,0.001390,  47.952
   624.6,0.002433,0.001518,-0.001322,0.001426,  47.950
   624.8,0.002433,0.001518,-0.001313,0.001426,  47.949
   625.0,0.002436,0.001518,-0.001298,0.001403,  47.950
   625.2,0.002433,0.001521,-0.001305,0.001439,  47.950
   625.4,0.002433,0.001517,-0.001320,0.001439,  47.948
   625.6,0.002436,0.001518,-0.001332,0.001403,  47.952
   625.8,0.002439,0.001527,-0.001438,0.001439,  47.944
   626.0,0.002445,0.001524,-0.001601,0.001413,  47.948
   626.2,0.002449,0.001526,-0.001814,0.001377,  47.948
   626.4,0.002453,0.001529,-0.001848,0.001413,  47.944
   626.6,0.002457,0.001522,-0.001823,0.001426,  47.947
   626.8,0.002460,0.001529,-0.001736,0.001426,  47.944
   627.0,0.002459,0.001532,-0.001659,0.001439,  47.951
   627.2,0.002458,0.001532,-0.001556,0.001403,  47.949
   627.4,0.002457,0.001534,-0.001415,0.001439,  47.946
   627.6,0.002453,0.001535,-0.001389,0.001416,  47.946
   627.8,0.002463,0.001534,-0.001396,0.001416,  47.947
   628.0,0.002466,0.001539,-0.001447,0.001452,  47.948
   628.2,0.002459,0.001537,-0.001462,0.001416,  47.949
   628.4,0.002466,0.001536,-0.001456,0.001465,  47.949
   628.6,0.002471,0.001540,-0.001471,0.001452,  47.947
   628.8,0.002465,0.001538,-0.001473,0.001416,  47.947
   629.0,0.002467,0.001541,-0.001425,0.001465,  47.947
   629.2,0.002470,0.001544,-0.001380,0.001465,  47.947
   629.4,0.002470,0.001549,-0.001312,0.001429,  47.948
   629.6,0.002473,0.001545,-0.001291,0.001442,  47.948
   629.8,0.002473,0.001543,-0.001274,0.001442,  47.944
   630.0,0.002470,0.001546,-0.001274,0.001420,  47.942
   630.2,0.002479,0.001546,-0.001299,0.001420,  47.942
   630.4,0.002479,0.001543,-0.001327,0.001455,  47.942
   630.6,0.002472,0.001550,-0.001370,0.001433,  47.941
   630.8,0.002479,0.001551,-0.001376,0.001420,  47.948
   631.0,0.002479,0.001546,-0.001353,0.001455,  47.945
   631.2,0.002472,0.001556,-0.001327,0.001433,  47.945
   631.4,0.002479,0.001555,-0.001327,0.001420,  47.945
   631.6,0.002481,0.001557,-0.001359,0.001455,  47.943
   631.8,0.002484,0.001555,-0.001394,0.001433,  47.943
   632.0,0.002495,0.001557,-0.001409,0.001433,  47.943
   632.2,0.002498,0.001553,-0.001426,0.001468,  47.944
   632.4,0.002498,0.001557,-0.001441,0.001446,  47.944
   632.6,0.002498,0.001562,-0.001563,0.001446,  47.942
   632.8,0.002500,0.001560,-0.001744,0.001446,  47.937
   633.0,0.002500,0.001569,-0.001974,0.001424,  47.940
   633.2,0.002500,0.001575,-0.001957,0.001446,  47.940
   633.4,0.002507,0.001577,-0.001860,0.001468,  47.939
   633.6,0.002504,0.001573,-0.001664,0.001446,  47.934
   633.8,0.002501,0.001575,-0.001596,0.001459,  47.939
   634.0,0.002501,0.001574,-0.001561,0.001459,  47.931
   634.2,0.002504,0.001576,-0.001536,0.001437,  47.935
   634.4,0.002508,0.001578,-0.001493,0.001472,  47.934
   634.6,0.002508,0.001576,-0.001448,0.001459,  47.935
   634.8,0.002510,0.001578,-0.001397,0.001437,  47.930
   635.0,0.002514,0.001577,-0.001380,0.001472,  47.931
   635.2,0.002511,0.001571,-0.001378,0.001459,  47.932
   635.4,0.002508,0.001576,-0.001388,0.001437,  47.932
   635.6,0.002514,0.001572,-0.001369,0.001472,  47.930
   635.8,0.002511,0.001570,-0.001350,0.001472,  47.927
