Run Name,Run 5
Run Date,11:28:56 AM   04-06-15
Method Name,50% CRL group 3 April 8 2014.1
Export Format Version, 1.00
Method ID, 2291
Points/Second, 5.00
Number of Records,   3050
Offset from Run Start Time,00:00:00
Run End Time,00:10:11
Time,Second
QuadTec 1, (280.0 nm), AU
QuadTec 2, (260.0 nm), AU
Gradient Pump,<Not Selected>
QuadTec 3, (214.0 nm), AU
QuadTec 4, (405.0 nm), AU
Conductivity,mS/cm
Trace 6,<Not Available>
GP Pressure,<Not Selected>
Volume,<Not Selected>
Fraction,<Not Available>
Time,QuadTec 1,QuadTec 2,QuadTec 3,QuadTec 4,Conductivity
     0.0,-0.022304,0.000000,-0.001082,0.000000,  23.368
     0.2,-0.022295,0.000000,-0.001196,0.000000,  23.369
     0.4,-0.022298,0.000000,-0.001387,0.000000,  23.366
     0.6,-0.022290,0.000000,-0.001666,0.000000,  23.366
     0.8,0.000000,0.000000,-0.001640,0.000000,  23.366
     1.0,0.000000,0.000000,-0.001484,0.000000,  23.365
     1.2,0.000000,0.000000,-0.001547,0.000000,  23.367
     1.4,0.000000,0.000000,-0.001547,0.000000,  23.368
     1.6,0.000000,0.000000,-0.001547,0.000000,  23.369
     1.8,0.000000,0.000000,-0.001547,0.000000,  23.366
     2.0,0.000000,0.000000,0.000000,0.000000,  23.366
     2.2,0.000000,0.000000,0.000000,0.000000,  23.369
     2.4,0.000000,0.000000,0.000000,0.000000,  23.369
     2.6,0.000000,0.000000,0.000000,0.000000,  23.363
     2.8,0.000000,0.000000,0.000000,0.000000,  23.362
     3.0,0.000000,0.000000,0.000000,0.000000,  23.360
     3.2,0.000000,0.000000,0.000000,0.000000,  23.355
     3.4,0.000000,0.000000,0.000000,0.000000,  23.343
     3.6,0.000000,0.000000,0.000000,0.000000,  23.338
     3.8,0.000000,0.000000,0.000000,0.000000,  23.325
     4.0,0.000000,0.000000,0.000000,0.000000,  23.322
     4.2,0.000000,0.000000,0.000000,0.000000,  23.319
     4.4,0.000000,0.000000,0.000000,0.000000,  23.309
     4.6,0.000000,0.000043,0.000000,-0.000011,  23.301
     4.8,0.000049,0.000047,0.000000,0.000016,  23.295
     5.0,0.000047,0.000059,0.000000,0.000016,  23.294
     5.2,0.000061,0.000066,0.000000,-0.000008,  23.290
     5.4,0.000070,0.000075,0.000000,0.000029,  23.290
     5.6,0.000086,0.000084,0.000000,0.000043,  23.283
     5.8,0.000091,0.000086,-0.000767,0.000018,  23.285
     6.0,0.000110,0.000098,-0.000783,0.000056,  23.282
     6.2,0.000126,0.000106,-0.000808,0.000069,  23.278
     6.4,0.000134,0.000125,-0.000858,0.000045,  23.279
     6.6,0.000154,0.000141,-0.000917,0.000096,  23.276
     6.8,0.000169,0.000154,-0.000994,0.000109,  23.275
     7.0,0.000177,0.000163,-0.001079,0.000098,  23.274
     7.2,0.000197,0.000186,-0.001206,0.000149,  23.272
     7.4,0.000212,0.000203,-0.001344,0.000149,  23.271
     7.6,0.000220,0.000209,-0.001516,0.000125,  23.270
     7.8,0.000237,0.000226,-0.001722,0.000176,  23.269
     8.0,0.000252,0.000243,-0.001945,0.000176,  23.266
     8.2,0.000257,0.000244,-0.002178,0.000152,  23.268
     8.4,0.000270,0.000258,-0.002245,0.000189,  23.264
     8.6,0.000288,0.000280,-0.002270,0.000189,  23.267
     8.8,0.000307,0.000295,-0.002218,0.000179,  23.264
     9.0,0.000335,0.000325,-0.002191,0.000256,  23.267
     9.2,0.000364,0.000363,-0.002154,0.000310,  23.267
     9.4,0.000406,0.000406,-0.002086,0.000326,  23.263
     9.6,0.000469,0.000459,-0.002093,0.000430,  23.258
     9.8,0.000533,0.000509,-0.002135,0.000483,  23.249
    10.0,0.000592,0.000553,-0.002187,0.000513,  23.245
    10.2,0.000640,0.000606,-0.002238,0.000604,  23.243
    10.4,0.000699,0.000649,-0.002330,0.000644,  23.239
    10.6,0.000745,0.000684,-0.002431,0.000646,  23.235
    10.8,0.000783,0.000721,-0.002490,0.000697,  23.236
    11.0,0.000813,0.000748,-0.002565,0.000711,  23.229
    11.2,0.000832,0.000760,-0.002614,0.000724,  23.225
    11.4,0.000841,0.000764,-0.002578,0.000724,  23.222
    11.6,0.000843,0.000766,-0.002500,0.000711,  23.224
    11.8,0.000836,0.000756,-0.002387,0.000697,  23.226
    12.0,0.000817,0.000741,-0.002369,0.000684,  23.229
    12.2,0.000799,0.000722,-0.002403,0.000657,  23.227
    12.4,0.000784,0.000704,-0.002488,0.000630,  23.228
    12.6,0.000755,0.000695,-0.002481,0.000579,  23.232
    12.8,0.000741,0.000680,-0.002464,0.000604,  23.231
    13.0,0.000725,0.000664,-0.002464,0.000577,  23.232
    13.2,0.000696,0.000651,-0.002482,0.000526,  23.231
    13.4,0.000685,0.000634,-0.002534,0.000550,  23.231
    13.6,0.000673,0.000622,-0.002578,0.000523,  23.228
    13.8,0.000650,0.000612,-0.002656,0.000473,  23.226
    14.0,0.000642,0.000600,-0.002639,0.000483,  23.230
    14.2,0.000629,0.000588,-0.002588,0.000470,  23.231
    14.4,0.000609,0.000577,-0.002503,0.000432,  23.227
    14.6,0.000601,0.000568,-0.002469,0.000457,  23.228
    14.8,0.000595,0.000560,-0.002452,0.000443,  23.223
    15.0,0.000579,0.000559,-0.002461,0.000392,  23.224
    15.2,0.000583,0.000554,-0.002462,0.000430,  23.222
    15.4,0.000577,0.000549,-0.002505,0.000430,  23.220
    15.6,0.000571,0.000547,-0.002557,0.000379,  23.225
    15.8,0.000569,0.000547,-0.002591,0.000417,  23.219
    16.0,0.000563,0.000542,-0.002600,0.000417,  23.219
    16.2,0.000553,0.000541,-0.002618,0.000392,  23.218
    16.4,0.000547,0.000541,-0.002575,0.000379,  23.217
    16.6,0.000544,0.000537,-0.002532,0.000366,  23.214
    16.8,0.000538,0.000529,-0.002480,0.000341,  23.214
    17.0,0.000535,0.000524,-0.002497,0.000328,  23.215
    17.2,0.000550,0.000536,-0.002549,0.000366,  23.212
    17.4,0.000575,0.000545,-0.002635,0.000368,  23.208
    17.6,0.000609,0.000564,-0.003130,0.000395,  23.211
    17.8,0.000637,0.000590,-0.003838,0.000486,  23.209
    18.0,0.000660,0.000615,-0.004757,0.000502,  23.203
    18.2,0.000695,0.000651,-0.004773,0.000529,  23.200
    18.4,0.000729,0.000682,-0.004441,0.000606,  23.190
    18.6,0.000763,0.000703,-0.003750,0.000622,  23.188
    18.8,0.000797,0.000734,-0.003596,0.000635,  23.182
    19.0,0.000831,0.000758,-0.003561,0.000700,  23.176
    19.2,0.000856,0.000772,-0.003628,0.000689,  23.174
    19.4,0.000869,0.000792,-0.003592,0.000689,  23.177
    19.6,0.000881,0.000796,-0.003548,0.000727,  23.170
    19.8,0.000884,0.000794,-0.003530,0.000689,  23.168
    20.0,0.000875,0.000793,-0.003520,0.000662,  23.171
    20.2,0.000856,0.000781,-0.003527,0.000673,  23.170
    20.4,0.000841,0.000761,-0.003534,0.000660,  23.168
    20.6,0.000819,0.000745,-0.003507,0.000633,  23.178
    20.8,0.000791,0.000728,-0.003456,0.000595,  23.178
    21.0,0.000770,0.000709,-0.003379,0.000606,  23.178
    21.2,0.000745,0.000691,-0.003303,0.000579,  23.184
    21.4,0.000720,0.000676,-0.003268,0.000553,  23.182
    21.6,0.000702,0.000657,-0.003217,0.000526,  23.182
    21.8,0.000680,0.000640,-0.003312,0.000475,  23.181
    22.0,0.000661,0.000626,-0.003492,0.000462,  23.181
    22.2,0.000649,0.000608,-0.003774,0.000473,  23.185
    22.4,0.000634,0.000594,-0.003825,0.000422,  23.180
    22.6,0.000618,0.000580,-0.003825,0.000408,  23.182
    22.8,0.000613,0.000565,-0.003734,0.000432,  23.183
    23.0,0.000601,0.000556,-0.003615,0.000395,  23.188
    23.2,0.000585,0.000546,-0.003529,0.000381,  23.181
    23.4,0.000584,0.000541,-0.003435,0.000406,  23.175
    23.6,0.000574,0.000534,-0.003290,0.000355,  23.178
    23.8,0.000558,0.000532,-0.003247,0.000355,  23.173
    24.0,0.000555,0.000525,-0.003213,0.000392,  23.172
    24.2,0.000548,0.000526,-0.003248,0.000341,  23.174
    24.4,0.000542,0.000518,-0.003248,0.000328,  23.174
    24.6,0.000539,0.000517,-0.003239,0.000352,  23.174
    24.8,0.000536,0.000517,-0.003248,0.000328,  23.171
    25.0,0.000537,0.000513,-0.003265,0.000328,  23.170
    25.2,0.000530,0.000511,-0.003299,0.000352,  23.168
    25.4,0.000530,0.000511,-0.003334,0.000328,  23.170
    25.6,0.000537,0.000503,-0.003300,0.000341,  23.170
    25.8,0.000551,0.000512,-0.003299,0.000379,  23.167
    26.0,0.000582,0.000530,-0.003231,0.000381,  23.165
    26.2,0.000630,0.000564,-0.003215,0.000422,  23.167
    26.4,0.000660,0.000593,-0.003248,0.000499,  23.163
    26.6,0.000707,0.000618,-0.003291,0.000515,  23.162
    26.8,0.000758,0.000660,-0.003367,0.000579,  23.151
    27.0,0.000789,0.000694,-0.003453,0.000630,  23.150
    27.2,0.000814,0.000715,-0.003581,0.000633,  23.146
    27.4,0.000835,0.000748,-0.003630,0.000697,  23.143
    27.6,0.000848,0.000769,-0.003654,0.000711,  23.135
    27.8,0.000863,0.000786,-0.003634,0.000700,  23.135
    28.0,0.000875,0.000795,-0.003726,0.000737,  23.135
    28.2,0.000885,0.000797,-0.003853,0.000737,  23.134
    28.4,0.000877,0.000787,-0.004024,0.000700,  23.132
    28.6,0.000869,0.000779,-0.004108,0.000711,  23.134
    28.8,0.000848,0.000758,-0.004166,0.000684,  23.134
    29.0,0.000825,0.000741,-0.004209,0.000671,  23.137
    29.2,0.000811,0.000721,-0.004242,0.000657,  23.143
    29.4,0.000783,0.000699,-0.004276,0.000630,  23.140
    29.6,0.000754,0.000683,-0.004268,0.000617,  23.142
    29.8,0.000743,0.000668,-0.004209,0.000617,  23.143
    30.0,0.000721,0.000659,-0.004115,0.000590,  23.142
    30.2,0.000695,0.000640,-0.004013,0.000564,  23.146
    30.4,0.000687,0.000629,-0.004082,0.000513,  23.147
    30.6,0.000671,0.000614,-0.004211,0.000537,  23.145
    30.8,0.000652,0.000609,-0.004433,0.000510,  23.145
    31.0,0.000644,0.000595,-0.004425,0.000459,  23.147
    31.2,0.000625,0.000582,-0.004348,0.000483,  23.150
    31.4,0.000605,0.000578,-0.004179,0.000470,  23.148
    31.6,0.000600,0.000570,-0.003973,0.000432,  23.147
    31.8,0.000591,0.000559,-0.003914,0.000457,  23.146
    32.0,0.000574,0.000555,-0.003880,0.000443,  23.146
    32.2,0.000576,0.000548,-0.003863,0.000392,  23.149
    32.4,0.000566,0.000544,-0.003804,0.000430,  23.147
    32.6,0.000553,0.000538,-0.003753,0.000430,  23.146
    32.8,0.000557,0.000541,-0.003694,0.000379,  23.144
    33.0,0.000554,0.000541,-0.003694,0.000417,  23.144
    33.2,0.000543,0.000536,-0.003720,0.000417,  23.145
    33.4,0.000548,0.000533,-0.003755,0.000392,  23.142
    33.6,0.000548,0.000530,-0.003712,0.000417,  23.139
    33.8,0.000550,0.000530,-0.003634,0.000403,  23.142
    34.0,0.000563,0.000533,-0.003506,0.000392,  23.139
    34.2,0.000576,0.000536,-0.003378,0.000443,  23.142
    34.4,0.000599,0.000547,-0.003233,0.000470,  23.136
    34.6,0.000641,0.000575,-0.003079,0.000473,  23.139
    34.8,0.000684,0.000617,-0.003352,0.000564,  23.136
    35.0,0.000717,0.000642,-0.003839,0.000604,  23.132
    35.2,0.000764,0.000673,-0.004522,0.000606,  23.131
    35.4,0.000804,0.000714,-0.004649,0.000697,  23.125
    35.6,0.000835,0.000737,-0.004589,0.000724,  23.125
    35.8,0.000860,0.000767,-0.004350,0.000713,  23.120
    36.0,0.000875,0.000791,-0.004323,0.000777,  23.116
    36.2,0.000888,0.000805,-0.004305,0.000777,  23.114
    36.4,0.000908,0.000814,-0.004321,0.000753,  23.114
    36.6,0.000914,0.000822,-0.004379,0.000777,  23.111
    36.8,0.000914,0.000816,-0.004472,0.000751,  23.116
    37.0,0.000900,0.000810,-0.004575,0.000713,  23.115
    37.2,0.000885,0.000796,-0.004574,0.000724,  23.114
    37.4,0.000867,0.000776,-0.004530,0.000684,  23.118
    37.6,0.000841,0.000767,-0.004453,0.000671,  23.119
    37.8,0.000827,0.000748,-0.004393,0.000657,  23.116
    38.0,0.000810,0.000726,-0.004359,0.000630,  23.121
    38.2,0.000787,0.000716,-0.004291,0.000617,  23.122
    38.4,0.000773,0.000700,-0.004206,0.000617,  23.124
    38.6,0.000751,0.000682,-0.004121,0.000590,  23.123
    38.8,0.000728,0.000667,-0.004002,0.000564,  23.124
    39.0,0.000717,0.000655,-0.003952,0.000513,  23.127
    39.2,0.000702,0.000640,-0.003909,0.000537,  23.128
    39.4,0.000682,0.000630,-0.003901,0.000523,  23.127
    39.6,0.000674,0.000621,-0.003918,0.000473,  23.127
    39.8,0.000659,0.000608,-0.003909,0.000497,  23.124
    40.0,0.000642,0.000601,-0.003867,0.000483,  23.128
    40.2,0.000643,0.000591,-0.003843,0.000446,  23.126
    40.4,0.000631,0.000582,-0.003818,0.000483,  23.125
    40.6,0.000614,0.000575,-0.003827,0.000457,  23.125
    40.8,0.000618,0.000578,-0.003819,0.000406,  23.126
    41.0,0.000609,0.000571,-0.003964,0.000443,  23.125
    41.2,0.000595,0.000568,-0.004212,0.000430,  23.123
    41.4,0.000600,0.000560,-0.004528,0.000379,  23.120
    41.6,0.000597,0.000558,-0.004503,0.000417,  23.118
    41.8,0.000586,0.000550,-0.004332,0.000430,  23.120
    42.0,0.000580,0.000553,-0.004034,0.000392,  23.119
    42.2,0.000577,0.000551,-0.003940,0.000430,  23.120
    42.4,0.000582,0.000553,-0.003871,0.000430,  23.123
    42.6,0.000597,0.000559,-0.003804,0.000419,  23.121
    42.8,0.000623,0.000574,-0.003821,0.000483,  23.118
    43.0,0.000647,0.000587,-0.003898,0.000523,  23.118
    43.2,0.000690,0.000625,-0.004010,0.000539,  23.114
    43.4,0.000741,0.000664,-0.004010,0.000617,  23.113
    43.6,0.000775,0.000692,-0.004001,0.000657,  23.111
    43.8,0.000806,0.000730,-0.003950,0.000673,  23.106
    44.0,0.000833,0.000760,-0.003949,0.000737,  23.107
    44.2,0.000855,0.000783,-0.003973,0.000751,  23.099
    44.4,0.000883,0.000815,-0.004015,0.000740,  23.096
    44.6,0.000905,0.000834,-0.004064,0.000791,  23.097
    44.8,0.000929,0.000843,-0.004122,0.000791,  23.095
    45.0,0.000931,0.000853,-0.004206,0.000753,  23.099
    45.2,0.000931,0.000851,-0.004392,0.000777,  23.094
    45.4,0.000926,0.000843,-0.004613,0.000751,  23.101
    45.6,0.000906,0.000839,-0.004911,0.000713,  23.103
    45.8,0.000891,0.000820,-0.004953,0.000724,  23.103
    46.0,0.000874,0.000800,-0.004935,0.000684,  23.108
    46.2,0.000845,0.000789,-0.004809,0.000633,  23.106
    46.4,0.000823,0.000767,-0.004946,0.000644,  23.111
    46.6,0.000806,0.000745,-0.005208,0.000617,  23.111
    46.8,0.000780,0.000732,-0.005574,0.000604,  23.109
    47.0,0.000758,0.000713,-0.005609,0.000590,  23.109
    47.2,0.000750,0.000690,-0.005583,0.000590,  23.114
    47.4,0.000727,0.000685,-0.005440,0.000564,  23.113
    47.6,0.000716,0.000671,-0.005228,0.000564,  23.113
    47.8,0.000708,0.000657,-0.004956,0.000550,  23.113
    48.0,0.000688,0.000643,-0.004599,0.000537,  23.112
    48.2,0.000683,0.000639,-0.004420,0.000499,  23.113
    48.4,0.000674,0.000629,-0.004309,0.000510,  23.115
    48.6,0.000660,0.000620,-0.004209,0.000497,  23.113
    48.8,0.000655,0.000618,-0.004209,0.000459,  23.115
    49.0,0.000643,0.000608,-0.004097,0.000483,  23.115
    49.2,0.000633,0.000605,-0.003979,0.000457,  23.113
    49.4,0.000634,0.000594,-0.003867,0.000419,  23.113
    49.6,0.000628,0.000589,-0.003817,0.000470,  23.111
    49.8,0.000617,0.000583,-0.003809,0.000457,  23.109
    50.0,0.000625,0.000584,-0.003878,0.000419,  23.114
    50.2,0.000621,0.000582,-0.003887,0.000470,  23.113
    50.4,0.000621,0.000576,-0.003888,0.000457,  23.112
    50.6,0.000615,0.000581,-0.003914,0.000419,  23.111
    50.8,0.000620,0.000578,-0.003973,0.000470,  23.111
    51.0,0.000638,0.000587,-0.004017,0.000457,  23.110
    51.2,0.000659,0.000607,-0.004095,0.000446,  23.112
    51.4,0.000700,0.000629,-0.004682,0.000537,  23.114
    51.6,0.000737,0.000652,-0.005540,0.000577,  23.110
    51.8,0.000770,0.000688,-0.006707,0.000579,  23.111
    52.0,0.000817,0.000725,-0.006714,0.000671,  23.108
    52.2,0.000855,0.000759,-0.006275,0.000711,  23.109
    52.4,0.000884,0.000790,-0.005436,0.000700,  23.104
    52.6,0.000923,0.000821,-0.005163,0.000764,  23.107
    52.8,0.000944,0.000847,-0.004941,0.000791,  23.105
    53.0,0.000955,0.000864,-0.004805,0.000767,  23.096
    53.2,0.000975,0.000880,-0.004880,0.000804,  23.100
    53.4,0.000978,0.000885,-0.005066,0.000804,  23.095
    53.6,0.000971,0.000886,-0.005397,0.000804,  23.096
    53.8,0.000972,0.000885,-0.005422,0.000777,  23.097
    54.0,0.000960,0.000872,-0.005363,0.000775,  23.102
    54.2,0.000947,0.000860,-0.005219,0.000724,  23.100
    54.4,0.000918,0.000854,-0.005091,0.000711,  23.100
    54.6,0.000904,0.000834,-0.004955,0.000697,  23.099
    54.8,0.000889,0.000813,-0.004793,0.000684,  23.106
    55.0,0.000856,0.000792,-0.004684,0.000633,  23.106
    55.2,0.000842,0.000772,-0.004632,0.000657,  23.109
    55.4,0.000827,0.000760,-0.004591,0.000630,  23.108
    55.6,0.000805,0.000754,-0.004472,0.000604,  23.102
    55.8,0.000794,0.000741,-0.004352,0.000590,  23.105
    56.0,0.000782,0.000732,-0.004207,0.000590,  23.107
    56.2,0.000769,0.000728,-0.004105,0.000539,  23.107
    56.4,0.000760,0.000718,-0.004003,0.000564,  23.108
    56.6,0.000754,0.000709,-0.003927,0.000550,  23.107
    56.8,0.000745,0.000704,-0.003876,0.000499,  23.103
    57.0,0.000738,0.000699,-0.003843,0.000537,  23.105
    57.2,0.000735,0.000689,-0.003843,0.000537,  23.103
    57.4,0.000729,0.000686,-0.003861,0.000513,  23.105
    57.6,0.000733,0.000684,-0.003827,0.000550,  23.106
    57.8,0.000730,0.000682,-0.003818,0.000537,  23.105
    58.0,0.000723,0.000682,-0.003794,0.000513,  23.104
    58.2,0.000727,0.000682,-0.003742,0.000537,  23.106
    58.4,0.000727,0.000687,-0.003682,0.000510,  23.107
    58.6,0.000717,0.000689,-0.003597,0.000486,  23.105
    58.8,0.000721,0.000694,-0.003563,0.000523,  23.101
    59.0,0.000727,0.000693,-0.003572,0.000510,  23.100
    59.2,0.000723,0.000693,-0.003607,0.000486,  23.102
    59.4,0.000733,0.000692,-0.003583,0.000537,  23.101
    59.6,0.000758,0.000706,-0.003566,0.000550,  23.100
    59.8,0.000785,0.000724,-0.003557,0.000539,  23.100
    60.0,0.000828,0.000757,-0.003540,0.000617,  23.102
    60.2,0.000868,0.000783,-0.003540,0.000671,  23.097
    60.4,0.000905,0.000825,-0.003557,0.000686,  23.097
    60.6,0.000949,0.000869,-0.003599,0.000764,  23.093
    60.8,0.000989,0.000898,-0.003676,0.000804,  23.090
    61.0,0.001026,0.000929,-0.003770,0.000807,  23.088
    61.2,0.001060,0.000967,-0.003812,0.000871,  23.091
    61.4,0.001082,0.000987,-0.003844,0.000885,  23.088
    61.6,0.001094,0.001001,-0.003852,0.000898,  23.089
    61.8,0.001103,0.001014,-0.004251,0.000885,  23.087
    62.0,0.001104,0.001016,-0.004855,0.000909,  23.085
    62.2,0.001091,0.001017,-0.005678,0.000909,  23.089
    62.4,0.001086,0.001002,-0.005762,0.000858,  23.089
    62.6,0.001067,0.000983,-0.005584,0.000855,  23.090
    62.8,0.001049,0.000971,-0.005152,0.000828,  23.091
    63.0,0.001027,0.000943,-0.004981,0.000777,  23.091
    63.2,0.001007,0.000924,-0.004828,0.000762,  23.092
    63.4,0.000985,0.000905,-0.004684,0.000735,  23.092
    63.6,0.000967,0.000891,-0.004522,0.000684,  23.093
    63.8,0.000945,0.000880,-0.004395,0.000708,  23.093
    64.0,0.000926,0.000866,-0.004276,0.000695,  23.094
    64.2,0.000911,0.000861,-0.004429,0.000644,  23.095
    64.4,0.000889,0.000849,-0.004727,0.000681,  23.093
    64.6,0.000874,0.000834,-0.005171,0.000681,  23.092
    64.8,0.000861,0.000819,-0.005137,0.000617,  23.091
    65.0,0.000846,0.000801,-0.004959,0.000668,  23.093
    65.2,0.000837,0.000787,-0.004620,0.000641,  23.089
    65.4,0.000824,0.000784,-0.004603,0.000641,  23.093
    65.6,0.000812,0.000777,-0.004672,0.000590,  23.094
    65.8,0.000809,0.000770,-0.004800,0.000577,  23.093
    66.0,0.000803,0.000765,-0.004749,0.000539,  23.092
    66.2,0.000796,0.000762,-0.004606,0.000577,  23.090
    66.4,0.000790,0.000758,-0.004394,0.000564,  23.091
    66.6,0.000784,0.000753,-0.004266,0.000526,  23.090
    66.8,0.000775,0.000751,-0.004146,0.000564,  23.093
    67.0,0.000776,0.000744,-0.004018,0.000564,  23.091
    67.2,0.000773,0.000735,-0.003907,0.000513,  23.090
    67.4,0.000770,0.000732,-0.003890,0.000550,  23.091
    67.6,0.000784,0.000724,-0.003925,0.000550,  23.092
    67.8,0.000790,0.000728,-0.003986,0.000526,  23.088
    68.0,0.000792,0.000730,-0.003960,0.000577,  23.090
    68.2,0.000819,0.000749,-0.003892,0.000617,  23.091
    68.4,0.000850,0.000773,-0.003823,0.000620,  23.088
    68.6,0.000887,0.000801,-0.003780,0.000697,  23.087
    68.8,0.000921,0.000828,-0.003745,0.000724,  23.085
    69.0,0.000955,0.000853,-0.003720,0.000727,  23.078
    69.2,0.000986,0.000881,-0.003633,0.000804,  23.080
    69.4,0.001011,0.000902,-0.003521,0.000831,  23.079
    69.6,0.001033,0.000923,-0.003391,0.000820,  23.080
    69.8,0.001051,0.000947,-0.003399,0.000871,  23.078
    70.0,0.001056,0.000954,-0.003483,0.000871,  23.077
    70.2,0.001059,0.000961,-0.003644,0.000834,  23.081
    70.4,0.001059,0.000966,-0.003745,0.000871,  23.079
    70.6,0.001053,0.000953,-0.003872,0.000844,  23.076
    70.8,0.001032,0.000945,-0.003991,0.000793,  23.077
    71.0,0.001011,0.000938,-0.004143,0.000818,  23.081
    71.2,0.000993,0.000923,-0.004297,0.000791,  23.080
    71.4,0.000985,0.000901,-0.004477,0.000727,  23.081
    71.6,0.000962,0.000888,-0.004494,0.000751,  23.082
    71.8,0.000946,0.000869,-0.004426,0.000724,  23.083
    72.0,0.000928,0.000844,-0.004281,0.000673,  23.083
    72.2,0.000906,0.000826,-0.004248,0.000697,  23.083
    72.4,0.000878,0.000807,-0.004266,0.000657,  23.078
    72.6,0.000860,0.000790,-0.004284,0.000620,  23.082
    72.8,0.000841,0.000779,-0.004224,0.000630,  23.079
    73.0,0.000826,0.000770,-0.004165,0.000617,  23.084
    73.2,0.000816,0.000758,-0.004079,0.000604,  23.083
    73.4,0.000801,0.000753,-0.004063,0.000617,  23.081
    73.6,0.000789,0.000748,-0.004081,0.000604,  23.082
    73.8,0.000779,0.000735,-0.004125,0.000590,  23.079
    74.0,0.000770,0.000723,-0.004065,0.000590,  23.083
    74.2,0.000758,0.000718,-0.003971,0.000577,  23.080
    74.4,0.000751,0.000711,-0.003809,0.000564,  23.081
    74.6,0.000745,0.000704,-0.003792,0.000513,  23.080
    74.8,0.000739,0.000701,-0.003827,0.000550,  23.079
    75.0,0.000736,0.000690,-0.003913,0.000550,  23.078
    75.2,0.000730,0.000683,-0.003929,0.000499,  23.075
    75.4,0.000727,0.000678,-0.003922,0.000537,  23.080
    75.6,0.000724,0.000679,-0.003913,0.000537,  23.078
    75.8,0.000721,0.000682,-0.003888,0.000513,  23.082
    76.0,0.000717,0.000685,-0.003836,0.000537,  23.077
    76.2,0.000727,0.000690,-0.003777,0.000523,  23.077
    76.4,0.000745,0.000697,-0.003708,0.000526,  23.082
    76.6,0.000770,0.000704,-0.003675,0.000590,  23.072
    76.8,0.000804,0.000721,-0.003658,0.000630,  23.072
    77.0,0.000838,0.000753,-0.003658,0.000646,  23.077
    77.2,0.000875,0.000793,-0.003803,0.000724,  23.077
    77.4,0.000912,0.000824,-0.004016,0.000751,  23.071
    77.6,0.000949,0.000846,-0.004297,0.000753,  23.065
    77.8,0.000980,0.000882,-0.004348,0.000831,  23.063
    78.0,0.001008,0.000905,-0.004330,0.000844,  23.065
    78.2,0.001030,0.000925,-0.004227,0.000834,  23.062
    78.4,0.001042,0.000942,-0.004788,0.000885,  23.062
    78.6,0.001048,0.000952,-0.005687,0.000871,  23.060
    78.8,0.001045,0.000955,-0.006879,0.000834,  23.061
    79.0,0.001033,0.000949,-0.006979,0.000858,  23.059
    79.2,0.001020,0.000944,-0.006692,0.000831,  23.060
    79.4,0.000999,0.000937,-0.006016,0.000818,  23.061
    79.6,0.000978,0.000920,-0.005795,0.000791,  23.065
    79.8,0.000967,0.000900,-0.005583,0.000788,  23.071
    80.0,0.000937,0.000881,-0.005396,0.000775,  23.064
    80.2,0.000929,0.000865,-0.005192,0.000724,  23.071
    80.4,0.000913,0.000848,-0.004955,0.000735,  23.070
    80.6,0.000891,0.000827,-0.004716,0.000721,  23.069
    80.8,0.000876,0.000808,-0.004588,0.000695,  23.070
    81.0,0.000855,0.000793,-0.004538,0.000692,  23.070
    81.2,0.000832,0.000776,-0.004539,0.000679,  23.072
    81.4,0.000821,0.000762,-0.004437,0.000628,  23.067
    81.6,0.000810,0.000750,-0.004326,0.000628,  23.071
    81.8,0.000793,0.000735,-0.004191,0.000614,  23.071
    82.0,0.000785,0.000725,-0.004157,0.000577,  23.073
    82.2,0.000776,0.000716,-0.004166,0.000614,  23.070
    82.4,0.000762,0.000707,-0.004227,0.000601,  23.071
    82.6,0.000757,0.000700,-0.004202,0.000601,  23.072
    82.8,0.000748,0.000696,-0.004202,0.000588,  23.070
    83.0,0.000734,0.000688,-0.004176,0.000574,  23.071
    83.2,0.000728,0.000685,-0.004134,0.000574,  23.071
    83.4,0.000722,0.000683,-0.004074,0.000537,  23.073
    83.6,0.000714,0.000673,-0.004024,0.000574,  23.069
    83.8,0.000708,0.000674,-0.003964,0.000588,  23.066
    84.0,0.000712,0.000671,-0.003896,0.000550,  23.071
    84.2,0.000705,0.000663,-0.003844,0.000574,  23.072
    84.4,0.000702,0.000664,-0.003775,0.000588,  23.073
    84.6,0.000703,0.000666,-0.003801,0.000550,  23.073
    84.8,0.000714,0.000668,-0.003870,0.000574,  23.073
    85.0,0.000742,0.000685,-0.003947,0.000614,  23.073
    85.2,0.000784,0.000708,-0.003938,0.000604,  23.069
    85.4,0.000810,0.000731,-0.003896,0.000668,  23.071
    85.6,0.000847,0.000759,-0.003803,0.000721,  23.068
    85.8,0.000895,0.000792,-0.003751,0.000724,  23.069
    86.0,0.000921,0.000821,-0.003733,0.000802,  23.068
    86.2,0.000955,0.000854,-0.003732,0.000842,  23.066
    86.4,0.000994,0.000880,-0.003799,0.000831,  23.062
    86.6,0.001008,0.000904,-0.003927,0.000882,  23.054
    86.8,0.001020,0.000923,-0.004131,0.000871,  23.053
    87.0,0.001034,0.000930,-0.004241,0.000871,  23.053
    87.2,0.001027,0.000932,-0.004326,0.000858,  23.052
    87.4,0.001017,0.000936,-0.004436,0.000820,  23.053
    87.6,0.001006,0.000928,-0.004461,0.000831,  23.053
    87.8,0.000994,0.000913,-0.004459,0.000804,  23.057
    88.0,0.000974,0.000899,-0.004425,0.000777,  23.055
    88.2,0.000960,0.000882,-0.004399,0.000751,  23.055
    88.4,0.000949,0.000862,-0.004407,0.000748,  23.059
    88.6,0.000923,0.000842,-0.004390,0.000721,  23.060
    88.8,0.000908,0.000826,-0.004423,0.000671,  23.060
    89.0,0.000884,0.000806,-0.004467,0.000695,  23.060
    89.2,0.000858,0.000797,-0.004537,0.000681,  23.060
    89.4,0.000850,0.000784,-0.004477,0.000630,  23.063
    89.6,0.000828,0.000764,-0.004383,0.000641,  23.064
    89.8,0.000805,0.000757,-0.004213,0.000641,  23.065
    90.0,0.000800,0.000741,-0.004171,0.000604,  23.063
    90.2,0.000788,0.000726,-0.004180,0.000614,  23.061
    90.4,0.000768,0.000721,-0.004241,0.000601,  23.062
    90.6,0.000763,0.000708,-0.004198,0.000564,  23.060
    90.8,0.000754,0.000696,-0.004147,0.000588,  23.061
    91.0,0.000740,0.000688,-0.004054,0.000588,  23.062
    91.2,0.000738,0.000681,-0.003976,0.000588,  23.057
    91.4,0.000729,0.000674,-0.003900,0.000574,  23.059
    91.6,0.000719,0.000664,-0.003831,0.000574,  23.059
    91.8,0.000723,0.000669,-0.003857,0.000550,  23.061
    92.0,0.000717,0.000658,-0.003927,0.000550,  23.057
    92.2,0.000709,0.000658,-0.004048,0.000537,  23.057
    92.4,0.000714,0.000655,-0.004083,0.000513,  23.058
    92.6,0.000708,0.000650,-0.004092,0.000537,  23.057
    92.8,0.000700,0.000649,-0.004083,0.000523,  23.056
    93.0,0.000711,0.000654,-0.004066,0.000513,  23.058
    93.2,0.000714,0.000673,-0.004040,0.000550,  23.055
    93.4,0.000728,0.000694,-0.004015,0.000564,  23.061
    93.6,0.000766,0.000720,-0.003955,0.000566,  23.056
    93.8,0.000806,0.000742,-0.004092,0.000644,  23.056
    94.0,0.000836,0.000771,-0.004372,0.000684,  23.055
    94.2,0.000881,0.000787,-0.004739,0.000673,  23.055
    94.4,0.000918,0.000814,-0.004730,0.000751,  23.053
    94.6,0.000944,0.000835,-0.004618,0.000791,  23.053
    94.8,0.000980,0.000866,-0.004370,0.000780,  23.050
    95.0,0.001012,0.000893,-0.004513,0.000831,  23.047
    95.2,0.001023,0.000910,-0.004810,0.000858,  23.048
    95.4,0.001032,0.000927,-0.005226,0.000834,  23.048
    95.6,0.001043,0.000933,-0.005310,0.000871,  23.050
    95.8,0.001032,0.000930,-0.005309,0.000844,  23.046
    96.0,0.001020,0.000928,-0.005207,0.000793,  23.050
    96.2,0.001003,0.000918,-0.005529,0.000818,  23.049
    96.4,0.000980,0.000904,-0.006004,0.000791,  23.053
    96.6,0.000958,0.000887,-0.006663,0.000727,  23.052
    96.8,0.000938,0.000863,-0.006579,0.000751,  23.054
    97.0,0.000919,0.000849,-0.006240,0.000724,  23.056
    97.2,0.000896,0.000835,-0.005630,0.000673,  23.058
    97.4,0.000881,0.000816,-0.005350,0.000697,  23.058
    97.6,0.000868,0.000799,-0.005155,0.000671,  23.058
    97.8,0.000849,0.000788,-0.004977,0.000620,  23.055
    98.0,0.000840,0.000772,-0.004823,0.000630,  23.058
    98.2,0.000822,0.000752,-0.004688,0.000617,  23.058
    98.4,0.000802,0.000746,-0.004587,0.000579,  23.058
    98.6,0.000800,0.000742,-0.004468,0.000604,  23.060
    98.8,0.000785,0.000729,-0.004350,0.000577,  23.056
    99.0,0.000768,0.000724,-0.004248,0.000539,  23.061
    99.2,0.000766,0.000722,-0.004197,0.000577,  23.055
    99.4,0.000760,0.000712,-0.004189,0.000564,  23.061
    99.6,0.000750,0.000711,-0.004207,0.000564,  23.058
    99.8,0.000751,0.000703,-0.004174,0.000564,  23.058
   100.0,0.000748,0.000698,-0.004148,0.000577,  23.064
   100.2,0.000740,0.000694,-0.004106,0.000564,  23.063
   100.4,0.000742,0.000692,-0.004081,0.000564,  23.057
   100.6,0.000735,0.000686,-0.004064,0.000550,  23.063
   100.8,0.000725,0.000685,-0.004030,0.000537,  23.060
   101.0,0.000729,0.000680,-0.003979,0.000499,  23.061
   101.2,0.000726,0.000679,-0.003902,0.000537,  23.059
   101.4,0.000728,0.000684,-0.003834,0.000537,  23.062
   101.6,0.000748,0.000697,-0.003817,0.000539,  23.057
   101.8,0.000766,0.000719,-0.003808,0.000590,  23.057
   102.0,0.000787,0.000744,-0.003826,0.000617,  23.059
   102.2,0.000831,0.000780,-0.003885,0.000620,  23.061
   102.4,0.000871,0.000809,-0.003876,0.000697,  23.057
   102.6,0.000898,0.000843,-0.003860,0.000724,  23.059
   102.8,0.000943,0.000874,-0.003826,0.000727,  23.057
   103.0,0.000983,0.000896,-0.003843,0.000804,  23.054
   103.2,0.001006,0.000915,-0.003910,0.000818,  23.051
   103.4,0.001035,0.000935,-0.003986,0.000807,  23.047
   103.6,0.001054,0.000947,-0.004028,0.000871,  23.048
   103.8,0.001059,0.000959,-0.004078,0.000871,  23.051
   104.0,0.001066,0.000966,-0.004129,0.000834,  23.051
   104.2,0.001060,0.000968,-0.004127,0.000871,  23.053
   104.4,0.001046,0.000960,-0.004135,0.000844,  23.050
   104.6,0.001035,0.000953,-0.004134,0.000793,  23.051
   104.8,0.001014,0.000941,-0.004201,0.000818,  23.052
   105.0,0.000988,0.000921,-0.004305,0.000791,  23.052
   105.2,0.000973,0.000902,-0.004450,0.000740,  23.057
   105.4,0.000956,0.000886,-0.004467,0.000751,  23.057
   105.6,0.000930,0.000870,-0.004417,0.000737,  23.060
   105.8,0.000908,0.000853,-0.004332,0.000700,  23.057
   106.0,0.000897,0.000836,-0.004315,0.000711,  23.061
   106.2,0.000879,0.000827,-0.004299,0.000684,  23.060
   106.4,0.000866,0.000816,-0.004317,0.000633,  23.061
   106.6,0.000844,0.000799,-0.004249,0.000657,  23.056
   106.8,0.000842,0.000789,-0.004147,0.000644,  23.055
   107.0,0.000832,0.000782,-0.004019,0.000593,  23.059
   107.2,0.000820,0.000767,-0.003968,0.000617,  23.059
   107.4,0.000818,0.000752,-0.003961,0.000604,  23.060
   107.6,0.000805,0.000743,-0.003995,0.000566,  23.058
   107.8,0.000803,0.000736,-0.003936,0.000604,  23.058
   108.0,0.000797,0.000735,-0.003876,0.000590,  23.058
   108.2,0.000786,0.000727,-0.003808,0.000577,  23.058
   108.4,0.000787,0.000725,-0.003765,0.000590,  23.060
   108.6,0.000781,0.000723,-0.003723,0.000577,  23.058
   108.8,0.000778,0.000717,-0.003681,0.000577,  23.060
   109.0,0.000775,0.000706,-0.003579,0.000577,  23.060
   109.2,0.000773,0.000701,-0.003442,0.000564,  23.061
   109.4,0.000763,0.000698,-0.003254,0.000564,  23.058
   109.6,0.000760,0.000702,-0.003220,0.000526,  23.058
   109.8,0.000756,0.000715,-0.003280,0.000564,  23.054
   110.0,0.000761,0.000722,-0.003400,0.000564,  23.058
   110.2,0.000790,0.000737,-0.003443,0.000539,  23.058
   110.4,0.000815,0.000766,-0.003460,0.000617,  23.055
   110.6,0.000839,0.000792,-0.003519,0.000657,  23.054
   110.8,0.000886,0.000823,-0.003528,0.000660,  23.052
   111.0,0.000926,0.000849,-0.003605,0.000737,  23.055
   111.2,0.000953,0.000867,-0.003665,0.000777,  23.048
   111.4,0.000995,0.000889,-0.003768,0.000793,  23.051
   111.6,0.001025,0.000910,-0.003835,0.000858,  23.049
   111.8,0.001040,0.000926,-0.003869,0.000871,  23.049
   112.0,0.001066,0.000951,-0.003919,0.000860,  23.050
   112.2,0.001078,0.000964,-0.003994,0.000898,  23.049
   112.4,0.001077,0.000974,-0.004070,0.000885,  23.047
   112.6,0.001078,0.000971,-0.004164,0.000847,  23.047
   112.8,0.001063,0.000963,-0.004179,0.000871,  23.050
   113.0,0.001043,0.000959,-0.004153,0.000844,  23.047
   113.2,0.001024,0.000944,-0.004085,0.000793,  23.051
   113.4,0.000999,0.000925,-0.004135,0.000818,  23.055
   113.6,0.000970,0.000911,-0.004204,0.000777,  23.055
   113.8,0.000949,0.000889,-0.004324,0.000727,  23.052
   114.0,0.000931,0.000867,-0.004324,0.000751,  23.054
   114.2,0.000913,0.000854,-0.004290,0.000724,  23.058
   114.4,0.000901,0.000835,-0.004231,0.000673,  23.056
   114.6,0.000885,0.000823,-0.004222,0.000697,  23.060
   114.8,0.000880,0.000811,-0.004180,0.000671,  23.058
   115.0,0.000868,0.000793,-0.004173,0.000620,  23.058
   115.2,0.000860,0.000781,-0.004173,0.000644,  23.060
   115.4,0.000844,0.000766,-0.004165,0.000630,  23.061
   115.6,0.000835,0.000748,-0.004166,0.000593,  23.056
   115.8,0.000818,0.000747,-0.004097,0.000617,  23.057
   116.0,0.000813,0.000741,-0.004003,0.000590,  23.062
   116.2,0.000797,0.000727,-0.003858,0.000553,  23.062
   116.4,0.000790,0.000726,-0.003816,0.000590,  23.060
   116.6,0.000784,0.000719,-0.003816,0.000590,  23.056
   116.8,0.000771,0.000715,-0.003834,0.000590,  23.057
   117.0,0.000772,0.000707,-0.003817,0.000590,  23.057
   117.2,0.000769,0.000700,-0.003817,0.000590,  23.056
   117.4,0.000766,0.000703,-0.003834,0.000564,  23.057
   117.6,0.000760,0.000698,-0.004516,0.000564,  23.056
   117.8,0.000764,0.000690,-0.005594,0.000564,  23.054
   118.0,0.000764,0.000696,-0.007016,0.000564,  23.057
   118.2,0.000753,0.000695,-0.007067,0.000526,  23.056
   118.4,0.000758,0.000701,-0.006611,0.000577,  23.059
   118.6,0.000773,0.000720,-0.005672,0.000577,  23.060
   118.8,0.000794,0.000746,-0.005375,0.000566,  23.057
   119.0,0.000838,0.000769,-0.005129,0.000644,  23.056
   119.2,0.000869,0.000803,-0.004959,0.000684,  23.061
   119.4,0.000899,0.000836,-0.004874,0.000673,  23.055
   119.6,0.000946,0.000862,-0.004695,0.000751,  23.049
   119.8,0.000980,0.000890,-0.004551,0.000791,  23.051
   120.0,0.001001,0.000916,-0.004431,0.000780,  23.046
   120.2,0.001033,0.000935,-0.004353,0.000831,  23.049
   120.4,0.001051,0.000950,-0.004293,0.000858,  23.049
   120.6,0.001056,0.000957,-0.004308,0.000847,  23.046
   120.8,0.001070,0.000959,-0.004350,0.000885,  23.050
   121.0,0.001070,0.000964,-0.004417,0.000871,  23.047
   121.2,0.001053,0.000962,-0.004528,0.000834,  23.044
   121.4,0.001039,0.000949,-0.004587,0.000858,  23.050
   121.6,0.001024,0.000934,-0.004671,0.000818,  23.049
   121.8,0.000998,0.000922,-0.004756,0.000767,  23.050
   122.0,0.000980,0.000901,-0.004721,0.000791,  23.050
   122.2,0.000959,0.000884,-0.004620,0.000764,  23.053
   122.4,0.000933,0.000867,-0.004509,0.000713,  23.053
   122.6,0.000918,0.000851,-0.005027,0.000724,  23.057
   122.8,0.000900,0.000837,-0.005808,0.000711,  23.059
   123.0,0.000874,0.000817,-0.006901,0.000660,  23.058
   123.2,0.000863,0.000797,-0.006953,0.000684,  23.057
   123.4,0.000850,0.000785,-0.006615,0.000657,  23.054
   123.6,0.000831,0.000769,-0.005914,0.000620,  23.059
   123.8,0.000829,0.000766,-0.005626,0.000630,  23.054
   124.0,0.000820,0.000757,-0.005397,0.000617,  23.056
   124.2,0.000810,0.000747,-0.005185,0.000579,  23.056
   124.4,0.000801,0.000738,-0.004965,0.000604,  23.054
   124.6,0.000792,0.000725,-0.004795,0.000590,  23.056
   124.8,0.000782,0.000718,-0.004650,0.000553,  23.058
   125.0,0.000769,0.000716,-0.004480,0.000590,  23.057
   125.2,0.000767,0.000701,-0.004309,0.000577,  23.060
   125.4,0.000761,0.000697,-0.004173,0.000539,  23.058
   125.6,0.000750,0.000699,-0.004275,0.000577,  23.059
   125.8,0.000755,0.000691,-0.004497,0.000564,  23.057
   126.0,0.000752,0.000691,-0.004880,0.000564,  23.060
   126.2,0.000748,0.000701,-0.004802,0.000564,  23.056
   126.4,0.000756,0.000698,-0.004565,0.000564,  23.059
   126.6,0.000762,0.000697,-0.004182,0.000550,  23.058
   126.8,0.000765,0.000697,-0.004267,0.000564,  23.059
   127.0,0.000779,0.000709,-0.004515,0.000590,  23.058
   127.2,0.000804,0.000734,-0.004949,0.000617,  23.059
   127.4,0.000830,0.000772,-0.004958,0.000633,  23.057
   127.6,0.000881,0.000799,-0.004823,0.000697,  23.055
   127.8,0.000918,0.000830,-0.004593,0.000737,  23.051
   128.0,0.000948,0.000867,-0.004491,0.000740,  23.051
   128.2,0.000995,0.000893,-0.004405,0.000818,  23.048
   128.4,0.001029,0.000924,-0.004320,0.000844,  23.050
   128.6,0.001050,0.000949,-0.004259,0.000834,  23.054
   128.8,0.001079,0.000966,-0.004258,0.000860,  23.045
   129.0,0.001091,0.000980,-0.004266,0.000874,  23.047
   129.2,0.001093,0.000987,-0.004307,0.000836,  23.049
   129.4,0.001103,0.000986,-0.004348,0.000823,  23.048
   129.6,0.001097,0.000984,-0.004399,0.000847,  23.050
   129.8,0.001074,0.000977,-0.004475,0.000809,  23.051
   130.0,0.001063,0.000968,-0.004509,0.000783,  23.051
   130.2,0.001048,0.000953,-0.004559,0.000793,  23.051
   130.4,0.001016,0.000936,-0.004594,0.000742,  23.055
   130.6,0.000995,0.000919,-0.004594,0.000753,  23.054
   130.8,0.000974,0.000897,-0.004611,0.000764,  23.056
   131.0,0.000948,0.000884,-0.004586,0.000713,  23.059
   131.2,0.000933,0.000865,-0.004501,0.000724,  23.063
   131.4,0.000915,0.000840,-0.004390,0.000711,  23.058
   131.6,0.000889,0.000832,-0.004245,0.000660,  23.061
   131.8,0.000878,0.000819,-0.004178,0.000684,  23.065
   132.0,0.000865,0.000801,-0.004161,0.000657,  23.059
   132.2,0.000849,0.000797,-0.004179,0.000620,  23.063
   132.4,0.000839,0.000788,-0.004155,0.000630,  23.061
   132.6,0.000833,0.000780,-0.004164,0.000617,  23.061
   132.8,0.000827,0.000771,-0.004156,0.000579,  23.063
   133.0,0.000818,0.000767,-0.004095,0.000604,  23.060
   133.2,0.000808,0.000759,-0.003993,0.000590,  23.062
   133.4,0.000802,0.000751,-0.003848,0.000553,  23.063
   133.6,0.000796,0.000746,-0.003813,0.000577,  23.062
   133.8,0.000787,0.000736,-0.003772,0.000564,  23.067
   134.0,0.000784,0.000734,-0.003781,0.000513,  23.066
   134.2,0.000778,0.000730,-0.003738,0.000550,  23.063
   134.4,0.000771,0.000722,-0.003688,0.000550,  23.064
   134.6,0.000768,0.000719,-0.003662,0.000550,  23.065
   134.8,0.000765,0.000722,-0.003627,0.000550,  23.065
   135.0,0.000759,0.000722,-0.003576,0.000550,  23.061
   135.2,0.000771,0.000730,-0.003551,0.000550,  23.065
   135.4,0.000784,0.000741,-0.003593,0.000564,  23.057
   135.6,0.000813,0.000759,-0.003654,0.000604,  23.059
   135.8,0.000847,0.000786,-0.003766,0.000644,  23.061
   136.0,0.000873,0.000817,-0.003818,0.000660,  23.060
   136.2,0.000924,0.000846,-0.003861,0.000724,  23.057
   136.4,0.000961,0.000871,-0.003903,0.000751,  23.056
   136.6,0.000988,0.000900,-0.003937,0.000767,  23.050
   136.8,0.001029,0.000923,-0.003937,0.000831,  23.050
   137.0,0.001057,0.000946,-0.003979,0.000858,  23.048
   137.2,0.001071,0.000974,-0.004003,0.000847,  23.045
   137.4,0.001094,0.000986,-0.004045,0.000898,  23.046
   137.6,0.001100,0.000995,-0.004078,0.000898,  23.042
   137.8,0.001093,0.000998,-0.004137,0.000874,  23.043
   138.0,0.001088,0.000998,-0.004187,0.000885,  23.041
   138.2,0.001076,0.000990,-0.004254,0.000858,  23.040
   138.4,0.001053,0.000974,-0.004339,0.000807,  23.043
   138.6,0.001032,0.000957,-0.004364,0.000818,  23.045
   138.8,0.001014,0.000942,-0.004364,0.000791,  23.044
   139.0,0.000985,0.000921,-0.004372,0.000740,  23.045
   139.2,0.000967,0.000900,-0.004389,0.000751,  23.051
   139.4,0.000946,0.000880,-0.004398,0.000737,  23.048
   139.6,0.000927,0.000864,-0.004408,0.000700,  23.047
   139.8,0.000913,0.000849,-0.004374,0.000711,  23.043
   140.0,0.000902,0.000832,-0.004348,0.000684,  23.053
   140.2,0.000885,0.000821,-0.004306,0.000633,  23.048
   140.4,0.000878,0.000807,-0.004246,0.000657,  23.053
   140.6,0.000869,0.000795,-0.004196,0.000630,  23.053
   140.8,0.000849,0.000781,-0.004155,0.000593,  23.051
   141.0,0.000835,0.000775,-0.004112,0.000617,  23.053
   141.2,0.000829,0.000766,-0.004078,0.000617,  23.049
   141.4,0.000818,0.000751,-0.004054,0.000579,  23.053
   141.6,0.000812,0.000749,-0.004002,0.000604,  23.057
   141.8,0.000809,0.000741,-0.003959,0.000577,  23.057
   142.0,0.000799,0.000738,-0.003892,0.000526,  23.050
   142.2,0.000792,0.000735,-0.003892,0.000564,  23.054
   142.4,0.000794,0.000733,-0.003918,0.000550,  23.058
   142.6,0.000791,0.000730,-0.003962,0.000499,  23.057
   142.8,0.000788,0.000729,-0.003988,0.000537,  23.052
   143.0,0.000781,0.000723,-0.004031,0.000550,  23.057
   143.2,0.000781,0.000718,-0.004100,0.000513,  23.053
   143.4,0.000778,0.000716,-0.004270,0.000550,  23.054
   143.6,0.000775,0.000720,-0.004534,0.000550,  23.051
   143.8,0.000794,0.000740,-0.004857,0.000564,  23.051
   144.0,0.000818,0.000757,-0.004866,0.000590,  23.056
   144.2,0.000849,0.000777,-0.004781,0.000655,  23.052
   144.4,0.000879,0.000814,-0.004561,0.000695,  23.053
   144.6,0.000916,0.000849,-0.004509,0.000735,  23.047
   144.8,0.000959,0.000878,-0.004459,0.000775,  23.046
   145.0,0.000997,0.000910,-0.004450,0.000828,  23.043
   145.2,0.001031,0.000939,-0.004389,0.000869,  23.047
   145.4,0.001069,0.000963,-0.004329,0.000858,  23.043
   145.6,0.001101,0.000987,-0.004225,0.000922,  23.038
   145.8,0.001120,0.001003,-0.004139,0.000949,  23.038
   146.0,0.001121,0.001013,-0.004147,0.000911,  23.040
   146.2,0.001125,0.001015,-0.004206,0.000935,  23.040
   146.4,0.001121,0.001011,-0.004325,0.000949,  23.039
   146.6,0.001109,0.001006,-0.004359,0.000885,  23.043
   146.8,0.001097,0.000999,-0.004400,0.000895,  23.044
   147.0,0.001078,0.000984,-0.004426,0.000882,  23.046
   147.2,0.001053,0.000972,-0.004400,0.000818,  23.046
   147.4,0.001038,0.000953,-0.004348,0.000828,  23.049
   147.6,0.001016,0.000934,-0.004280,0.000802,  23.052
   147.8,0.000995,0.000915,-0.004246,0.000751,  23.051
   148.0,0.000979,0.000904,-0.004239,0.000762,  23.052
   148.2,0.000961,0.000888,-0.004240,0.000748,  23.050
   148.4,0.000950,0.000872,-0.004164,0.000697,  23.057
   148.6,0.000927,0.000860,-0.004054,0.000708,  23.056
   148.8,0.000911,0.000845,-0.003927,0.000695,  23.057
   149.0,0.000900,0.000830,-0.003834,0.000668,  23.054
   149.2,0.000883,0.000811,-0.003774,0.000692,  23.055
   149.4,0.000871,0.000804,-0.003748,0.000692,  23.061
   149.6,0.000866,0.000795,-0.003680,0.000679,  23.061
   149.8,0.000857,0.000785,-0.003620,0.000665,  23.062
   150.0,0.000846,0.000781,-0.003544,0.000665,  23.060
   150.2,0.000848,0.000780,-0.003544,0.000665,  23.058
   150.4,0.000844,0.000773,-0.003571,0.000652,  23.057
   150.6,0.000834,0.000760,-0.003649,0.000652,  23.058
   150.8,0.000835,0.000761,-0.003623,0.000665,  23.059
   151.0,0.000829,0.000759,-0.003530,0.000652,  23.059
   151.2,0.000818,0.000751,-0.003410,0.000639,  23.063
   151.4,0.000815,0.000752,-0.003377,0.000639,  23.060
   151.6,0.000820,0.000752,-0.003403,0.000625,  23.062
   151.8,0.000812,0.000746,-0.003438,0.000625,  23.062
   152.0,0.000815,0.000747,-0.003421,0.000601,  23.062
   152.2,0.000826,0.000761,-0.003421,0.000614,  23.066
   152.4,0.000843,0.000782,-0.003413,0.000641,  23.063
   152.6,0.000880,0.000810,-0.003353,0.000630,  23.061
   152.8,0.000928,0.000842,-0.003277,0.000708,  23.062
   153.0,0.000961,0.000876,-0.003208,0.000748,  23.064
   153.2,0.001004,0.000916,-0.003157,0.000788,  23.054
   153.4,0.001047,0.000947,-0.003097,0.000815,  23.052
   153.6,0.001087,0.000978,-0.003096,0.000855,  23.054
   153.8,0.001121,0.001009,-0.003087,0.000882,  23.052
   154.0,0.001149,0.001022,-0.003087,0.000885,  23.052
   154.2,0.001168,0.001041,-0.003103,0.000935,  23.055
   154.4,0.001180,0.001055,-0.003163,0.000949,  23.049
   154.6,0.001183,0.001057,-0.003249,0.000911,  23.053
   154.8,0.001177,0.001046,-0.003351,0.000935,  23.048
   155.0,0.001165,0.001038,-0.003505,0.000935,  23.053
   155.2,0.001154,0.001031,-0.003548,0.000885,  23.055
   155.4,0.001128,0.001019,-0.003555,0.000882,  23.058
   155.6,0.001109,0.001007,-0.003539,0.000869,  23.061
   155.8,0.001095,0.000992,-0.003505,0.000818,  23.062
   156.0,0.001072,0.000974,-0.003470,0.000828,  23.067
   156.2,0.001050,0.000957,-0.003403,0.000815,  23.064
   156.4,0.001033,0.000941,-0.003378,0.000751,  23.066
   156.6,0.001010,0.000923,-0.003404,0.000775,  23.066
   156.8,0.000995,0.000907,-0.003465,0.000775,  23.066
   157.0,0.000984,0.000892,-0.003405,0.000711,  23.070
   157.2,0.000967,0.000880,-0.003278,0.000721,  23.071
   157.4,0.000951,0.000866,-0.003159,0.000708,  23.071
   157.6,0.000946,0.000857,-0.003629,0.000657,  23.072
   157.8,0.000937,0.000850,-0.004363,0.000668,  23.070
   158.0,0.000932,0.000838,-0.005376,0.000668,  23.070
   158.2,0.000939,0.000834,-0.005377,0.000617,  23.072
   158.4,0.000926,0.000833,-0.005029,0.000655,  23.070
   158.6,0.000926,0.000829,-0.004299,0.000655,  23.073
   158.8,0.000922,0.000825,-0.004036,0.000617,  23.074
   159.0,0.000919,0.000828,-0.003815,0.000641,  23.071
   159.2,0.000912,0.000828,-0.003645,0.000641,  23.075
   159.4,0.000912,0.000822,-0.003458,0.000604,  23.075
   159.6,0.000912,0.000819,-0.003270,0.000628,  23.076
   159.8,0.000904,0.000822,-0.003091,0.000628,  23.072
   160.0,0.000904,0.000824,-0.002920,0.000590,  23.071
   160.2,0.000897,0.000823,-0.002750,0.000628,  23.075
   160.4,0.000902,0.000828,-0.002614,0.000641,  23.076
   160.6,0.000914,0.000838,-0.002700,0.000630,  23.075
   160.8,0.000937,0.000865,-0.002915,0.000695,  23.074
   161.0,0.000964,0.000896,-0.003232,0.000721,  23.074
   161.2,0.001004,0.000932,-0.003173,0.000724,  23.076
   161.4,0.001058,0.000971,-0.003020,0.000788,  23.070
   161.6,0.001094,0.001004,-0.002729,0.000815,  23.073
   161.8,0.001137,0.001040,-0.002558,0.000855,  23.071
   162.0,0.001191,0.001063,-0.002396,0.000882,  23.068
   162.2,0.001220,0.001095,-0.002234,0.000933,  23.066
   162.4,0.001248,0.001122,-0.002182,0.000973,  23.068
   162.6,0.001280,0.001133,-0.002174,0.000986,  23.069
   162.8,0.001289,0.001153,-0.002218,0.001000,  23.068
   163.0,0.001292,0.001160,-0.002218,0.001000,  23.069
   163.2,0.001296,0.001151,-0.002218,0.001000,  23.067
   163.4,0.001282,0.001149,-0.002210,0.000973,  23.070
   163.6,0.001277,0.001134,-0.002227,0.000960,  23.068
   163.8,0.001263,0.001119,-0.002201,0.000946,  23.073
   164.0,0.001240,0.001107,-0.002184,0.000919,  23.074
   164.2,0.001229,0.001095,-0.002143,0.000906,  23.072
   164.4,0.001215,0.001084,-0.002126,0.000855,  23.074
   164.6,0.001192,0.001069,-0.002110,0.000828,  23.076
   164.8,0.001177,0.001053,-0.002095,0.000815,  23.077
   165.0,0.001165,0.001039,-0.002225,0.000751,  23.077
   165.2,0.001149,0.001033,-0.002457,0.000775,  23.077
   165.4,0.001133,0.001018,-0.002775,0.000775,  23.078
   165.6,0.001128,0.001001,-0.002690,0.000724,  23.076
   165.8,0.001115,0.000988,-0.002461,0.000735,  23.081
   166.0,0.001105,0.000979,-0.002110,0.000721,  23.080
   166.2,0.001104,0.000974,-0.001896,0.000684,  23.081
   166.4,0.001093,0.000969,-0.001674,0.000708,  23.084
   166.6,0.001087,0.000960,-0.001468,0.000695,  23.083
   166.8,0.001081,0.000964,-0.001296,0.000644,  23.084
   167.0,0.001078,0.000961,-0.001133,0.000668,  23.086
   167.2,0.001074,0.000964,-0.000972,0.000668,  23.084
   167.4,0.001067,0.000964,-0.000887,0.000630,  23.082
   167.6,0.001071,0.000959,-0.000862,0.000641,  23.084
   167.8,0.001071,0.000959,-0.000856,0.000641,  23.084
   168.0,0.001064,0.000953,-0.000771,0.000617,  23.083
   168.2,0.001071,0.000950,-0.000670,0.000641,  23.086
   168.4,0.001070,0.000949,-0.000559,0.000641,  23.084
   168.6,0.001078,0.000951,-0.000499,0.000617,  23.086
   168.8,0.001081,0.000955,-0.000432,0.000641,  23.084
   169.0,0.001092,0.000969,-0.000383,0.000668,  23.085
   169.2,0.001124,0.000997,-0.000263,0.000657,  23.087
   169.4,0.001152,0.001028,-0.000109,0.000721,  23.084
   169.6,0.001185,0.001064,0.000089,0.000748,  23.085
   169.8,0.001238,0.001112,0.000156,0.000751,  23.084
   170.0,0.001294,0.001150,0.000180,0.000802,  23.083
   170.2,0.001333,0.001183,0.000160,0.000842,  23.081
   170.4,0.001384,0.001213,0.000262,0.000882,  23.081
   170.6,0.001424,0.001244,0.000389,0.000922,  23.083
   170.8,0.001451,0.001270,0.000517,0.000935,  23.084
   171.0,0.001489,0.001290,0.000619,0.000962,  23.080
   171.2,0.001508,0.001306,0.000679,0.000938,  23.084
   171.4,0.001513,0.001313,0.000739,0.000989,  23.079
   171.6,0.001526,0.001318,0.000773,0.001002,  23.084
   171.8,0.001523,0.001313,0.000877,0.000951,  23.081
   172.0,0.001506,0.001307,0.001006,0.000962,  23.083
   172.2,0.001502,0.001289,0.001161,0.000949,  23.090
   172.4,0.001480,0.001277,0.001229,0.000885,  23.090
   172.6,0.001460,0.001267,0.001245,0.000895,  23.087
   172.8,0.001452,0.001249,0.001208,0.000869,  23.090
   173.0,0.001438,0.001239,0.001276,0.000804,  23.091
   173.2,0.001418,0.001230,0.001369,0.000828,  23.094
   173.4,0.001402,0.001218,0.001454,0.000815,  23.094
   173.6,0.001387,0.001212,0.001565,0.000751,  23.096
   173.8,0.001367,0.001203,0.001685,0.000775,  23.097
   174.0,0.001365,0.001193,0.001779,0.000775,  23.096
   174.2,0.001363,0.001181,0.001908,0.000711,  23.099
   174.4,0.001350,0.001177,0.002036,0.000721,  23.099
   174.6,0.001344,0.001174,0.002165,0.000708,  23.099
   174.8,0.001351,0.001169,0.002294,0.000671,  23.097
   175.0,0.001347,0.001173,0.002405,0.000695,  23.094
   175.2,0.001347,0.001170,0.002533,0.000695,  23.102
   175.4,0.001354,0.001171,0.002652,0.000644,  23.098
   175.6,0.001357,0.001171,0.002747,0.000681,  23.098
   175.8,0.001360,0.001179,0.002857,0.000695,  23.099
   176.0,0.001363,0.001182,0.002924,0.000644,  23.104
   176.2,0.001370,0.001181,0.002921,0.000668,  23.100
   176.4,0.001379,0.001185,0.002899,0.000681,  23.103
   176.6,0.001382,0.001189,0.003053,0.000630,  23.099
   176.8,0.001396,0.001191,0.003226,0.000655,  23.100
   177.0,0.001398,0.001198,0.003468,0.000668,  23.102
   177.2,0.001411,0.001205,0.003649,0.000630,  23.100
   177.4,0.001417,0.001224,0.003810,0.000668,  23.101
   177.6,0.001447,0.001254,0.003965,0.000708,  23.101
   177.8,0.001490,0.001296,0.003997,0.000697,  23.100
   178.0,0.001546,0.001339,0.003968,0.000775,  23.099
   178.2,0.001594,0.001386,0.003868,0.000802,  23.100
   178.4,0.001653,0.001435,0.004066,0.000804,  23.105
   178.6,0.001726,0.001480,0.004377,0.000869,  23.099
   178.8,0.001771,0.001526,0.004784,0.000909,  23.097
   179.0,0.001824,0.001568,0.005025,0.000935,  23.093
   179.2,0.001870,0.001595,0.005229,0.000962,  23.097
   179.4,0.001903,0.001631,0.005381,0.000989,  23.101
   179.6,0.001938,0.001654,0.005570,0.001002,  23.097
   179.8,0.001957,0.001662,0.005743,0.000978,  23.098
   180.0,0.001962,0.001670,0.005959,0.001002,  23.100
   180.2,0.001969,0.001670,0.006133,0.001002,  23.102
   180.4,0.001963,0.001669,0.006261,0.000951,  23.098
   180.6,0.001949,0.001660,0.006336,0.000962,  23.102
   180.8,0.001944,0.001646,0.006377,0.000935,  23.102
   181.0,0.001926,0.001637,0.006532,0.000885,  23.103
   181.2,0.001906,0.001626,0.006688,0.000882,  23.102
   181.4,0.001901,0.001622,0.006880,0.000855,  23.107
   181.6,0.001893,0.001608,0.007071,0.000804,  23.104
   181.8,0.001873,0.001599,0.007280,0.000828,  23.102
   182.0,0.001864,0.001592,0.007462,0.000815,  23.105
   182.2,0.001865,0.001586,0.007663,0.000751,  23.107
   182.4,0.001855,0.001579,0.007899,0.000775,  23.107
   182.6,0.001851,0.001572,0.008133,0.000775,  23.108
   182.8,0.001856,0.001561,0.008271,0.000724,  23.109
   183.0,0.001851,0.001556,0.008366,0.000735,  23.109
   183.2,0.001855,0.001550,0.008414,0.000721,  23.109
   183.4,0.001858,0.001553,0.008553,0.000684,  23.106
   183.6,0.001853,0.001552,0.008699,0.000708,  23.107
   183.8,0.001867,0.001551,0.008837,0.000695,  23.111
   184.0,0.001877,0.001567,0.009030,0.000657,  23.108
   184.2,0.001887,0.001577,0.009274,0.000695,  23.105
   184.4,0.001893,0.001582,0.009546,0.000708,  23.108
   184.6,0.001905,0.001590,0.009719,0.000657,  23.108
   184.8,0.001912,0.001603,0.009883,0.000681,  23.109
   185.0,0.001924,0.001612,0.010046,0.000695,  23.108
   185.2,0.001933,0.001619,0.010254,0.000644,  23.107
   185.4,0.001946,0.001631,0.010488,0.000668,  23.102
   185.6,0.001957,0.001643,0.010722,0.000681,  23.108
   185.8,0.001983,0.001656,0.010965,0.000657,  23.104
   186.0,0.002012,0.001689,0.011209,0.000695,  23.104
   186.2,0.002054,0.001739,0.011434,0.000735,  23.112
   186.4,0.002127,0.001798,0.011678,0.000737,  23.107
   186.6,0.002204,0.001855,0.011939,0.000828,  23.102
   186.8,0.002271,0.001915,0.012192,0.000869,  23.107
   187.0,0.002350,0.001980,0.012496,0.000858,  23.105
   187.2,0.002424,0.002025,0.012801,0.000922,  23.098
   187.4,0.002482,0.002079,0.013106,0.000935,  23.102
   187.6,0.002545,0.002125,0.013322,0.000962,  23.096
   187.8,0.002598,0.002160,0.013518,0.000976,  23.100
   188.0,0.002631,0.002191,0.013645,0.001002,  23.104
   188.2,0.002670,0.002219,0.013970,0.001016,  23.099
   188.4,0.002688,0.002230,0.014357,0.000978,  23.103
   188.6,0.002693,0.002235,0.014835,0.000989,  23.103
   188.8,0.002704,0.002233,0.015136,0.000976,  23.104
   189.0,0.002688,0.002228,0.015394,0.000949,  23.105
   189.2,0.002674,0.002218,0.015614,0.000946,  23.107
   189.4,0.002676,0.002209,0.015775,0.000933,  23.110
   189.6,0.002660,0.002202,0.016023,0.000919,  23.115
   189.8,0.002643,0.002192,0.016272,0.000893,  23.116
   190.0,0.002645,0.002187,0.016528,0.000879,  23.119
   190.2,0.002635,0.002188,0.016760,0.000866,  23.120
   190.4,0.002625,0.002177,0.017017,0.000826,  23.118
   190.6,0.002629,0.002167,0.017266,0.000813,  23.119
   190.8,0.002629,0.002162,0.017498,0.000799,  23.124
   191.0,0.002625,0.002160,0.017737,0.000772,  23.120
   191.2,0.002635,0.002158,0.017985,0.000759,  23.131
   191.4,0.002642,0.002164,0.018215,0.000759,  23.128
   191.6,0.002643,0.002165,0.018428,0.000732,  23.122
   191.8,0.002657,0.002175,0.018603,0.000732,  23.126
   192.0,0.002670,0.002179,0.018833,0.000681,  23.126
   192.2,0.002678,0.002189,0.019046,0.000668,  23.125
   192.4,0.002697,0.002196,0.019266,0.000668,  23.129
   192.6,0.002713,0.002214,0.019497,0.000617,  23.128
   192.8,0.002728,0.002228,0.019710,0.000628,  23.127
   193.0,0.002740,0.002240,0.019949,0.000628,  23.131
   193.2,0.002760,0.002255,0.020233,0.000614,  23.132
   193.4,0.002775,0.002266,0.020528,0.000639,  23.132
   193.6,0.002789,0.002283,0.020856,0.000639,  23.128
   193.8,0.002814,0.002302,0.021223,0.000601,  23.130
   194.0,0.002850,0.002320,0.021617,0.000601,  23.132
   194.2,0.002887,0.002351,0.022012,0.000614,  23.134
   194.4,0.002933,0.002387,0.022415,0.000617,  23.131
   194.6,0.002994,0.002449,0.022817,0.000708,  23.132
   194.8,0.003081,0.002523,0.023192,0.000748,  23.132
   195.0,0.003180,0.002615,0.023569,0.000764,  23.134
   195.2,0.003306,0.002699,0.023943,0.000869,  23.135
   195.4,0.003408,0.002781,0.024263,0.000909,  23.131
   195.6,0.003505,0.002862,0.024738,0.000911,  23.132
   195.8,0.003598,0.002928,0.025267,0.000989,  23.129
   196.0,0.003679,0.002991,0.025841,0.001002,  23.127
   196.2,0.003750,0.003051,0.025809,0.001029,  23.130
   196.4,0.003809,0.003096,0.025533,0.001018,  23.129
   196.6,0.003856,0.003139,0.024955,0.001032,  23.131
   196.8,0.003887,0.003170,0.025368,0.001032,  23.126
   197.0,0.003906,0.003192,0.026177,0.001018,  23.133
   197.2,0.003918,0.003199,0.027369,0.001042,  23.132
   197.4,0.003925,0.003194,0.027973,0.001042,  23.136
   197.6,0.003912,0.003194,0.028506,0.000965,  23.140
   197.8,0.003909,0.003187,0.028920,0.000962,  23.144
   198.0,0.003903,0.003175,0.029233,0.000949,  23.153
   198.2,0.003894,0.003168,0.029291,0.000885,  23.152
   198.4,0.003894,0.003161,0.029172,0.000895,  23.154
   198.6,0.003883,0.003154,0.028874,0.000869,  23.159
   198.8,0.003883,0.003149,0.029185,0.000804,  23.156
   199.0,0.003889,0.003141,0.029737,0.000815,  23.163
   199.2,0.003885,0.003149,0.030516,0.000815,  23.164
   199.4,0.003895,0.003148,0.030977,0.000751,  23.161
   199.6,0.003905,0.003153,0.031362,0.000775,  23.170
   199.8,0.003913,0.003150,0.031709,0.000775,  23.167
   200.0,0.003933,0.003160,0.032106,0.000724,  23.164
   200.2,0.003951,0.003172,0.032484,0.000735,  23.164
   200.4,0.003963,0.003189,0.032879,0.000721,  23.172
   200.6,0.003992,0.003203,0.033209,0.000684,  23.173
   200.8,0.004020,0.003225,0.033510,0.000695,  23.172
   201.0,0.004048,0.003242,0.033772,0.000695,  23.177
   201.2,0.004087,0.003264,0.034036,0.000644,  23.181
   201.4,0.004121,0.003287,0.034298,0.000668,  23.186
   201.6,0.004148,0.003307,0.034479,0.000681,  23.185
   201.8,0.004182,0.003332,0.034923,0.000630,  23.187
   202.0,0.004202,0.003353,0.035499,0.000655,  23.182
   202.2,0.004230,0.003376,0.036168,0.000668,  23.186
   202.4,0.004252,0.003404,0.036754,0.000617,  23.191
   202.6,0.004282,0.003444,0.037322,0.000655,  23.194
   202.8,0.004346,0.003505,0.037917,0.000695,  23.193
   203.0,0.004444,0.003571,0.038503,0.000711,  23.193
   203.2,0.004556,0.003661,0.039041,0.000815,  23.197
   203.4,0.004687,0.003773,0.039588,0.000882,  23.194
   203.6,0.004826,0.003904,0.040154,0.000911,  23.198
   203.8,0.004992,0.004014,0.040664,0.001002,  23.197
   204.0,0.005127,0.004125,0.041184,0.001056,  23.199
   204.2,0.005247,0.004236,0.041697,0.001058,  23.200
   204.4,0.005370,0.004319,0.042189,0.001123,  23.209
   204.6,0.005470,0.004398,0.042642,0.001136,  23.208
   204.8,0.005544,0.004465,0.043466,0.001163,  23.210
   205.0,0.005620,0.004516,0.044467,0.001176,  23.216
   205.2,0.005674,0.004557,0.045628,0.001176,  23.222
   205.4,0.005707,0.004582,0.046427,0.001176,  23.229
   205.6,0.005728,0.004588,0.047103,0.001112,  23.230
   205.8,0.005737,0.004587,0.047655,0.001109,  23.238
   206.0,0.005730,0.004577,0.048140,0.001083,  23.249
   206.2,0.005713,0.004564,0.048531,0.001018,  23.252
   206.4,0.005703,0.004552,0.048797,0.001002,  23.257
   206.6,0.005689,0.004544,0.049002,0.000976,  23.259
   206.8,0.005687,0.004534,0.049374,0.000898,  23.267
   207.0,0.005687,0.004532,0.049777,0.000895,  23.271
   207.2,0.005690,0.004527,0.050189,0.000869,  23.274
   207.4,0.005696,0.004525,0.050524,0.000804,  23.282
   207.6,0.005706,0.004525,0.050875,0.000815,  23.280
   207.8,0.005718,0.004522,0.051169,0.000802,  23.285
   208.0,0.005734,0.004532,0.051524,0.000751,  23.290
   208.2,0.005756,0.004542,0.051888,0.000762,  23.294
   208.4,0.005778,0.004551,0.052270,0.000762,  23.297
   208.6,0.005799,0.004563,0.052634,0.000711,  23.297
   208.8,0.005828,0.004580,0.052995,0.000721,  23.302
   209.0,0.005859,0.004602,0.053336,0.000708,  23.301
   209.2,0.005893,0.004621,0.053740,0.000657,  23.310
   209.4,0.005934,0.004651,0.054162,0.000681,  23.312
   209.6,0.005981,0.004675,0.054624,0.000681,  23.314
   209.8,0.006031,0.004699,0.055167,0.000630,  23.315
   210.0,0.006081,0.004733,0.055761,0.000668,  23.320
   210.2,0.006120,0.004762,0.056405,0.000644,  23.326
   210.4,0.006167,0.004788,0.057036,0.000630,  23.331
   210.6,0.006201,0.004814,0.057656,0.000617,  23.331
   210.8,0.006244,0.004850,0.058265,0.000630,  23.333
   211.0,0.006282,0.004892,0.058937,0.000630,  23.340
   211.2,0.006327,0.004960,0.059649,0.000681,  23.341
   211.4,0.006448,0.005061,0.060382,0.000748,  23.343
   211.6,0.006604,0.005184,0.061077,0.000777,  23.348
   211.8,0.006796,0.005321,0.061801,0.000922,  23.353
   212.0,0.006976,0.005476,0.062506,0.001016,  23.353
   212.2,0.007178,0.005650,0.063239,0.001045,  23.359
   212.4,0.007388,0.005788,0.064010,0.001150,  23.363
   212.6,0.007558,0.005923,0.064789,0.001216,  23.364
   212.8,0.007708,0.006036,0.065617,0.001232,  23.371
   213.0,0.007851,0.006132,0.066489,0.001297,  23.378
   213.2,0.007967,0.006226,0.067419,0.001324,  23.384
   213.4,0.008051,0.006302,0.068522,0.001299,  23.399
   213.6,0.008130,0.006352,0.069684,0.001337,  23.406
   213.8,0.008181,0.006387,0.070959,0.001310,  23.421
   214.0,0.008198,0.006406,0.071855,0.001270,  23.422
   214.2,0.008206,0.006411,0.072597,0.001230,  23.437
   214.4,0.008209,0.006402,0.073179,0.001190,  23.451
   214.6,0.008192,0.006376,0.073746,0.001150,  23.458
   214.8,0.008175,0.006351,0.074254,0.001058,  23.471
   215.0,0.008162,0.006336,0.074666,0.001042,  23.483
   215.2,0.008145,0.006310,0.075006,0.001016,  23.493
   215.4,0.008140,0.006290,0.075422,0.000925,  23.496
   215.6,0.008140,0.006278,0.075846,0.000909,  23.506
   215.8,0.008143,0.006267,0.076218,0.000882,  23.517
   216.0,0.008157,0.006263,0.076655,0.000818,  23.520
   216.2,0.008169,0.006260,0.077114,0.000815,  23.529
   216.4,0.008188,0.006265,0.077585,0.000802,  23.540
   216.6,0.008207,0.006272,0.078031,0.000737,  23.544
   216.8,0.008235,0.006283,0.078486,0.000735,  23.555
   217.0,0.008267,0.006298,0.078889,0.000721,  23.559
   217.2,0.008308,0.006317,0.079410,0.000671,  23.567
   217.4,0.008352,0.006331,0.079986,0.000681,  23.574
   217.6,0.008396,0.006352,0.080583,0.000668,  23.577
   217.8,0.008443,0.006377,0.081289,0.000617,  23.584
   218.0,0.008496,0.006403,0.082015,0.000641,  23.595
   218.2,0.008553,0.006439,0.082810,0.000628,  23.605
   218.4,0.008613,0.006476,0.083473,0.000614,  23.606
   218.6,0.008673,0.006506,0.084078,0.000625,  23.617
   218.8,0.008736,0.006545,0.084625,0.000612,  23.626
   219.0,0.008799,0.006584,0.085260,0.000574,  23.630
   219.2,0.008865,0.006625,0.085904,0.000588,  23.634
   219.4,0.008926,0.006673,0.086543,0.000628,  23.641
   219.6,0.008996,0.006724,0.087285,0.000630,  23.649
   219.8,0.009076,0.006836,0.088082,0.000721,  23.657
   220.0,0.009262,0.006994,0.088914,0.000815,  23.662
   220.2,0.009495,0.007180,0.089762,0.000885,  23.673
   220.4,0.009775,0.007354,0.090631,0.001042,  23.678
   220.6,0.010018,0.007553,0.091537,0.001150,  23.691
   220.8,0.010262,0.007761,0.092641,0.001192,  23.696
   221.0,0.010508,0.007920,0.093791,0.001324,  23.704
   221.2,0.010707,0.008070,0.095094,0.001391,  23.718
   221.4,0.010884,0.008206,0.096435,0.001407,  23.734
   221.6,0.011039,0.008312,0.097823,0.001457,  23.754
   221.8,0.011163,0.008407,0.099273,0.001471,  23.776
   222.0,0.011258,0.008486,0.100477,0.001447,  23.791
   222.2,0.011331,0.008524,0.101591,0.001444,  23.810
   222.4,0.011369,0.008541,0.102565,0.001404,  23.829
   222.6,0.011378,0.008541,0.103448,0.001364,  23.853
   222.8,0.011356,0.008521,0.104224,0.001310,  23.875
   223.0,0.011350,0.008490,0.104879,0.001230,  23.889
   223.2,0.011324,0.008447,0.105463,0.001176,  23.911
   223.4,0.011289,0.008405,0.105954,0.001072,  23.931
   223.6,0.011274,0.008369,0.106330,0.001042,  23.942
   223.8,0.011255,0.008330,0.106604,0.000989,  23.962
   224.0,0.011246,0.008295,0.107082,0.000885,  23.973
   224.2,0.011243,0.008277,0.107574,0.000869,  23.989
   224.4,0.011236,0.008256,0.108096,0.000828,  24.005
   224.6,0.011252,0.008242,0.108647,0.000751,  24.015
   224.8,0.011268,0.008237,0.109206,0.000748,  24.030
   225.0,0.011283,0.008234,0.109758,0.000721,  24.034
   225.2,0.011319,0.008243,0.110255,0.000657,  24.049
   225.4,0.011354,0.008248,0.110717,0.000668,  24.064
   225.6,0.011384,0.008261,0.111150,0.000655,  24.075
   225.8,0.011433,0.008276,0.111786,0.000604,  24.093
   226.0,0.011480,0.008293,0.112488,0.000614,  24.098
   226.2,0.011521,0.008305,0.113286,0.000601,  24.110
   226.4,0.011582,0.008329,0.113998,0.000550,  24.125
   226.6,0.011639,0.008351,0.114705,0.000561,  24.138
   226.8,0.011692,0.008385,0.115384,0.000561,  24.153
   227.0,0.011762,0.008419,0.116130,0.000497,  24.162
   227.2,0.011829,0.008445,0.116914,0.000534,  24.172
   227.4,0.011885,0.008484,0.117708,0.000534,  24.188
   227.6,0.011956,0.008515,0.118488,0.000483,  24.198
   227.8,0.012045,0.008566,0.119300,0.000508,  24.215
   228.0,0.012136,0.008637,0.120098,0.000574,  24.223
   228.2,0.012254,0.008712,0.120964,0.000617,  24.238
   228.4,0.012371,0.008867,0.121876,0.000775,  24.249
   228.6,0.012600,0.009068,0.122836,0.000895,  24.260
   228.8,0.012876,0.009308,0.123738,0.000992,  24.279
   229.0,0.013204,0.009509,0.124574,0.001190,  24.292
   229.2,0.013465,0.009726,0.125382,0.001310,  24.312
   229.4,0.013705,0.009939,0.126554,0.001380,  24.326
   229.6,0.013955,0.010104,0.127888,0.001511,  24.350
   229.8,0.014146,0.010248,0.129364,0.001578,  24.375
   230.0,0.014298,0.010375,0.130777,0.001594,  24.398
   230.2,0.014436,0.010467,0.132224,0.001658,  24.429
   230.4,0.014519,0.010528,0.133700,0.001645,  24.459
   230.6,0.014556,0.010566,0.134964,0.001618,  24.495
   230.8,0.014570,0.010560,0.136124,0.001578,  24.536
   231.0,0.014551,0.010528,0.137170,0.001498,  24.568
   231.2,0.014496,0.010457,0.138009,0.001431,  24.594
   231.4,0.014427,0.010391,0.138655,0.001313,  24.622
   231.6,0.014363,0.010315,0.139138,0.001243,  24.650
   231.8,0.014282,0.010220,0.139536,0.001163,  24.682
   232.0,0.014207,0.010141,0.139856,0.001045,  24.700
   232.2,0.014146,0.010066,0.139981,0.000976,  24.727
   232.4,0.014081,0.009990,0.140012,0.000895,  24.746
   232.6,0.014031,0.009934,0.140317,0.000804,  24.773
   232.8,0.013993,0.009883,0.140637,0.000762,  24.800
   233.0,0.013960,0.009852,0.141005,0.000708,  24.817
   233.2,0.013949,0.009828,0.141522,0.000630,  24.836
   233.4,0.013936,0.009796,0.142118,0.000628,  24.850
   233.6,0.013933,0.009777,0.142793,0.000601,  24.875
   233.8,0.013946,0.009752,0.143383,0.000523,  24.894
   234.0,0.013953,0.009729,0.143950,0.000534,  24.908
   234.2,0.013962,0.009723,0.144470,0.000521,  24.928
   234.4,0.013978,0.009714,0.145213,0.000457,  24.943
   234.6,0.013997,0.009703,0.146092,0.000481,  24.965
   234.8,0.014017,0.009706,0.147029,0.000467,  24.983
   235.0,0.014036,0.009708,0.147736,0.000417,  24.996
   235.2,0.014061,0.009710,0.148341,0.000441,  25.013
   235.4,0.014093,0.009724,0.148865,0.000441,  25.035
   235.6,0.014125,0.009745,0.149519,0.000376,  25.050
   235.8,0.014154,0.009751,0.150191,0.000414,  25.071
   236.0,0.014185,0.009766,0.150839,0.000427,  25.087
   236.2,0.014214,0.009782,0.151488,0.000390,  25.105
   236.4,0.014291,0.009832,0.152146,0.000427,  25.122
   236.6,0.014385,0.009915,0.152780,0.000521,  25.142
   236.8,0.014503,0.010015,0.153473,0.000617,  25.169
   237.0,0.014647,0.010159,0.154207,0.000828,  25.178
   237.2,0.014841,0.010344,0.154919,0.000976,  25.203
   237.4,0.015072,0.010567,0.155501,0.001085,  25.226
   237.6,0.015331,0.010733,0.156068,0.001270,  25.244
   237.8,0.015516,0.010884,0.156521,0.001391,  25.274
   238.0,0.015683,0.011033,0.157317,0.001447,  25.302
   238.2,0.015823,0.011140,0.158278,0.001551,  25.335
   238.4,0.015919,0.011215,0.159339,0.001605,  25.375
   238.6,0.015983,0.011277,0.160239,0.001581,  25.416
   238.8,0.016015,0.011299,0.161148,0.001618,  25.469
   239.0,0.016003,0.011281,0.161994,0.001591,  25.510
   239.2,0.015948,0.011243,0.162660,0.001551,  25.550
   239.4,0.015859,0.011174,0.163211,0.001484,  25.597
   239.6,0.015769,0.011086,0.163655,0.001391,  25.642
   239.8,0.015657,0.010969,0.164142,0.001310,  25.688
   240.0,0.015526,0.010861,0.164573,0.001179,  25.714
   240.2,0.015414,0.010759,0.164979,0.001096,  25.758
   240.4,0.015302,0.010645,0.165269,0.001016,  25.782
   240.6,0.015187,0.010547,0.165517,0.000898,  25.817
   240.8,0.015091,0.010455,0.165666,0.000842,  25.856
   241.0,0.015005,0.010368,0.165724,0.000775,  25.876
   241.2,0.014919,0.010292,0.165797,0.000684,  25.907
   241.4,0.014852,0.010221,0.165803,0.000668,  25.930
   241.6,0.014795,0.010168,0.165776,0.000628,  25.954
   241.8,0.014747,0.010125,0.165975,0.000550,  25.985
   242.0,0.014708,0.010091,0.166281,0.000561,  26.004
   242.2,0.014670,0.010062,0.166697,0.000548,  26.028
   242.4,0.014638,0.010048,0.166978,0.000483,  26.054
   242.6,0.014616,0.010018,0.167268,0.000494,  26.075
   242.8,0.014597,0.009997,0.167484,0.000481,  26.102
   243.0,0.014581,0.009972,0.167808,0.000430,  26.121
   243.2,0.014565,0.009957,0.168158,0.000441,  26.145
   243.4,0.014552,0.009939,0.168525,0.000441,  26.166
   243.6,0.014542,0.009930,0.168927,0.000390,  26.188
   243.8,0.014533,0.009917,0.169355,0.000427,  26.217
   244.0,0.014523,0.009907,0.169808,0.000441,  26.235
   244.2,0.014520,0.009897,0.170017,0.000403,  26.257
   244.4,0.014528,0.009887,0.170140,0.000441,  26.281
   244.6,0.014528,0.009884,0.170154,0.000467,  26.303
   244.8,0.014531,0.009882,0.170406,0.000457,  26.333
   245.0,0.014586,0.009911,0.170750,0.000521,  26.350
   245.2,0.014656,0.009962,0.171154,0.000601,  26.375
   245.4,0.014735,0.010038,0.171448,0.000681,  26.392
   245.6,0.014789,0.010093,0.171718,0.000813,  26.422
   245.8,0.014840,0.010154,0.171929,0.000893,  26.452
   246.0,0.014882,0.010220,0.172166,0.000973,  26.472
   246.2,0.014920,0.010258,0.172352,0.001040,  26.505
   246.4,0.014949,0.010293,0.172480,0.001093,  26.542
   246.6,0.014965,0.010312,0.172573,0.001109,  26.581
   246.8,0.014967,0.010314,0.172665,0.001123,  26.637
   247.0,0.014950,0.010310,0.172721,0.001136,  26.670
   247.2,0.014921,0.010290,0.172772,0.001099,  26.721
   247.4,0.014887,0.010259,0.172814,0.001109,  26.771
   247.6,0.014839,0.010218,0.172865,0.001096,  26.824
   247.8,0.014772,0.010170,0.172950,0.001032,  26.883
   248.0,0.014696,0.010116,0.173003,0.001056,  26.917
   248.2,0.014639,0.010063,0.173055,0.001016,  26.965
   248.4,0.014575,0.010007,0.173201,0.000989,  27.001
   248.6,0.014508,0.009958,0.173339,0.000949,  27.038
   248.8,0.014455,0.009917,0.173510,0.000922,  27.080
   249.0,0.014405,0.009877,0.173503,0.000909,  27.109
   249.2,0.014351,0.009840,0.173417,0.000844,  27.141
   249.4,0.014296,0.009803,0.173220,0.000869,  27.169
   249.6,0.014254,0.009774,0.173135,0.000855,  27.192
   249.8,0.014216,0.009747,0.173059,0.000804,  27.225
   250.0,0.014174,0.009717,0.173007,0.000828,  27.242
   250.2,0.014139,0.009696,0.172938,0.000815,  27.267
   250.4,0.014107,0.009677,0.172888,0.000777,  27.290
   250.6,0.014081,0.009657,0.172845,0.000815,  27.310
   250.8,0.014056,0.009650,0.172795,0.000828,  27.339
   251.0,0.014030,0.009640,0.172769,0.000791,  27.352
   251.2,0.014004,0.009628,0.172736,0.000815,  27.377
   251.4,0.013985,0.009613,0.172686,0.000828,  27.392
   251.6,0.013966,0.009601,0.172610,0.000791,  27.417
   251.8,0.013942,0.009587,0.172534,0.000828,  27.437
   252.0,0.013926,0.009575,0.172416,0.000842,  27.455
   252.2,0.013915,0.009569,0.172357,0.000818,  27.476
   252.4,0.013902,0.009554,0.172317,0.000855,  27.496
   252.6,0.013883,0.009544,0.172326,0.000869,  27.512
   252.8,0.013864,0.009530,0.172208,0.000844,  27.536
   253.0,0.013841,0.009520,0.172004,0.000855,  27.547
   253.2,0.013819,0.009511,0.171758,0.000842,  27.566
   253.4,0.013787,0.009504,0.171564,0.000804,  27.585
   253.6,0.013711,0.009453,0.171395,0.000828,  27.601
   253.8,0.013612,0.009383,0.171202,0.000802,  27.628
   254.0,0.013488,0.009297,0.171060,0.000724,  27.644
   254.2,0.013396,0.009210,0.170927,0.000721,  27.661
   254.4,0.013310,0.009105,0.170768,0.000695,  27.681
   254.6,0.013216,0.008990,0.170373,0.000644,  27.706
   254.8,0.013141,0.008899,0.169869,0.000641,  27.738
   255.0,0.013055,0.008822,0.169206,0.000628,  27.759
   255.2,0.012966,0.008743,0.168655,0.000590,  27.788
   255.4,0.012884,0.008675,0.168081,0.000614,  27.817
   255.6,0.012827,0.008627,0.167443,0.000628,  27.849
   255.8,0.012779,0.008581,0.166819,0.000617,  27.886
   256.0,0.012744,0.008557,0.166122,0.000668,  27.914
   256.2,0.012731,0.008547,0.165384,0.000695,  27.938
   256.4,0.012734,0.008555,0.164872,0.000684,  27.962
   256.6,0.012750,0.008572,0.164385,0.000748,  27.992
   256.8,0.012777,0.008601,0.163981,0.000775,  28.014
   257.0,0.012805,0.008645,0.163577,0.000764,  28.029
   257.2,0.012834,0.008682,0.163164,0.000828,  28.044
   257.4,0.012870,0.008718,0.162792,0.000855,  28.060
   257.6,0.012896,0.008759,0.162537,0.000882,  28.072
   257.8,0.012917,0.008791,0.162349,0.000922,  28.086
   258.0,0.012939,0.008820,0.162210,0.000962,  28.094
   258.2,0.012952,0.008844,0.162030,0.000989,  28.109
   258.4,0.012965,0.008861,0.161857,0.000978,  28.119
   258.6,0.012961,0.008873,0.161709,0.001029,  28.123
   258.8,0.012958,0.008878,0.161512,0.001042,  28.131
   259.0,0.012953,0.008881,0.161241,0.001018,  28.142
   259.2,0.012939,0.008878,0.160905,0.001056,  28.153
   259.4,0.012923,0.008871,0.160559,0.001069,  28.156
   259.6,0.012918,0.008866,0.160240,0.001032,  28.162
   259.8,0.012898,0.008861,0.159929,0.001069,  28.169
   260.0,0.012882,0.008850,0.159593,0.001083,  28.175
   260.2,0.012873,0.008840,0.159258,0.001045,  28.176
   260.4,0.012850,0.008833,0.158874,0.001083,  28.185
   260.6,0.012831,0.008818,0.158498,0.001096,  28.189
   260.8,0.012819,0.008807,0.158033,0.001058,  28.187
   261.0,0.012793,0.008790,0.157503,0.001083,  28.191
   261.2,0.012771,0.008773,0.156932,0.001083,  28.196
   261.4,0.012742,0.008751,0.156591,0.001045,  28.205
   261.6,0.012685,0.008720,0.156316,0.001083,  28.202
   261.8,0.012609,0.008678,0.156154,0.001042,  28.203
   262.0,0.012513,0.008637,0.155863,0.000951,  28.205
   262.2,0.012383,0.008530,0.155482,0.000909,  28.206
   262.4,0.012239,0.008399,0.155093,0.000842,  28.208
   262.6,0.012064,0.008234,0.154818,0.000724,  28.207
   262.8,0.011927,0.008098,0.154528,0.000681,  28.206
   263.0,0.011803,0.007973,0.154287,0.000641,  28.202
   263.2,0.011685,0.007844,0.153747,0.000537,  28.202
   263.4,0.011595,0.007748,0.153038,0.000534,  28.197
   263.6,0.011534,0.007668,0.152186,0.000521,  28.192
   263.8,0.011490,0.007604,0.151392,0.000470,  28.182
   264.0,0.011475,0.007547,0.150560,0.000508,  28.177
   264.2,0.011453,0.007511,0.149704,0.000521,  28.169
   264.4,0.011434,0.007489,0.148867,0.000510,  28.155
   264.6,0.011425,0.007489,0.148006,0.000588,  28.141
   264.8,0.011433,0.007509,0.147116,0.000628,  28.124
   265.0,0.011472,0.007546,0.146195,0.000630,  28.109
   265.2,0.011517,0.007582,0.145276,0.000721,  28.097
   265.4,0.011547,0.007623,0.144273,0.000762,  28.081
   265.6,0.011596,0.007674,0.143713,0.000764,  28.073
   265.8,0.011641,0.007720,0.143391,0.000815,  28.056
   266.0,0.011669,0.007761,0.143218,0.000842,  28.044
   266.2,0.011704,0.007805,0.142887,0.000882,  28.036
   266.4,0.011738,0.007838,0.142612,0.000909,  28.018
   266.6,0.011753,0.007865,0.142353,0.000922,  28.007
   266.8,0.011776,0.007890,0.141827,0.000949,  27.994
   267.0,0.011789,0.007904,0.141192,0.000911,  27.975
   267.2,0.011791,0.007906,0.140465,0.000962,  27.967
   267.4,0.011788,0.007907,0.140191,0.000976,  27.954
   267.6,0.011778,0.007904,0.140059,0.000951,  27.937
   267.8,0.011768,0.007902,0.140137,0.000989,  27.925
   268.0,0.011758,0.007895,0.140363,0.000989,  27.915
   268.2,0.011750,0.007893,0.140340,0.000951,  27.897
   268.4,0.011736,0.007880,0.140317,0.000989,  27.886
   268.6,0.011727,0.007877,0.140278,0.000989,  27.872
   268.8,0.011721,0.007864,0.140168,0.000951,  27.852
   269.0,0.011704,0.007849,0.140028,0.000989,  27.837
   269.2,0.011699,0.007842,0.139825,0.000989,  27.830
   269.4,0.011691,0.007833,0.139591,0.000951,  27.812
   269.6,0.011671,0.007821,0.139286,0.000976,  27.795
   269.8,0.011662,0.007803,0.138920,0.000976,  27.778
   270.0,0.011643,0.007792,0.138694,0.000938,  27.764
   270.2,0.011595,0.007760,0.138461,0.000962,  27.748
   270.4,0.011542,0.007714,0.138251,0.000935,  27.730
   270.6,0.011469,0.007668,0.138025,0.000871,  27.712
   270.8,0.011395,0.007605,0.137815,0.000869,  27.693
   271.0,0.011322,0.007530,0.137605,0.000842,  27.680
   271.2,0.011243,0.007449,0.137396,0.000764,  27.653
   271.4,0.011182,0.007388,0.137209,0.000775,  27.624
   271.6,0.011131,0.007333,0.137046,0.000762,  27.595
   271.8,0.011098,0.007285,0.136418,0.000711,  27.558
   272.0,0.011066,0.007246,0.135537,0.000748,  27.534
   272.2,0.011036,0.007210,0.134472,0.000748,  27.492
   272.4,0.011034,0.007191,0.133879,0.000724,  27.451
   272.6,0.011028,0.007172,0.133370,0.000762,  27.413
   272.8,0.011014,0.007151,0.133001,0.000775,  27.359
   273.0,0.011018,0.007145,0.132547,0.000751,  27.327
   273.2,0.011015,0.007148,0.132079,0.000802,  27.287
   273.4,0.011014,0.007150,0.131627,0.000815,  27.246
   273.6,0.011021,0.007163,0.131205,0.000777,  27.215
   273.8,0.011041,0.007181,0.130808,0.000828,  27.173
   274.0,0.011046,0.007193,0.130396,0.000842,  27.149
   274.2,0.011055,0.007207,0.130105,0.000818,  27.125
   274.4,0.011075,0.007219,0.129839,0.000855,  27.096
   274.6,0.011077,0.007226,0.129618,0.000855,  27.071
   274.8,0.011081,0.007233,0.129397,0.000831,  27.045
   275.0,0.011091,0.007243,0.129169,0.000869,  27.023
   275.2,0.011087,0.007245,0.128956,0.000869,  26.999
   275.4,0.011087,0.007250,0.128887,0.000882,  26.979
   275.6,0.011088,0.007253,0.128901,0.000882,  26.955
   275.8,0.011077,0.007250,0.128969,0.000869,  26.933
   276.0,0.011074,0.007245,0.128907,0.000869,  26.915
   276.2,0.011075,0.007243,0.128816,0.000831,  26.896
   276.4,0.011062,0.007238,0.128687,0.000869,  26.873
   276.6,0.011063,0.007231,0.128505,0.000869,  26.856
   276.8,0.011064,0.007223,0.128353,0.000831,  26.829
   277.0,0.011053,0.007221,0.128178,0.000869,  26.813
   277.2,0.011054,0.007210,0.128004,0.000869,  26.797
   277.4,0.011048,0.007205,0.127950,0.000831,  26.774
   277.6,0.011037,0.007190,0.127904,0.000855,  26.754
   277.8,0.011039,0.007181,0.127941,0.000855,  26.736
   278.0,0.011032,0.007175,0.127804,0.000818,  26.718
   278.2,0.011022,0.007168,0.127585,0.000842,  26.703
   278.4,0.011026,0.007160,0.127290,0.000842,  26.682
   278.6,0.011024,0.007150,0.127252,0.000804,  26.658
   278.8,0.011010,0.007135,0.127297,0.000842,  26.635
   279.0,0.010997,0.007119,0.127394,0.000842,  26.618
   279.2,0.010992,0.007118,0.127371,0.000818,  26.596
   279.4,0.010982,0.007104,0.127318,0.000869,  26.578
   279.6,0.010978,0.007084,0.127249,0.000882,  26.555
   279.8,0.010986,0.007075,0.127128,0.000858,  26.519
   280.0,0.010983,0.007071,0.126946,0.000909,  26.494
   280.2,0.010975,0.007061,0.126749,0.000922,  26.466
   280.4,0.010980,0.007057,0.126499,0.000922,  26.425
   280.6,0.010976,0.007053,0.126181,0.000960,  26.388
   280.8,0.010970,0.007044,0.125818,0.000973,  26.342
   281.0,0.010961,0.007030,0.125441,0.000973,  26.308
   281.2,0.010954,0.007015,0.125048,0.000973,  26.269
   281.4,0.010937,0.007002,0.124619,0.000986,  26.236
   281.6,0.010928,0.006992,0.124303,0.000935,  26.199
   281.8,0.010916,0.006977,0.124024,0.000909,  26.160
   282.0,0.010896,0.006967,0.123760,0.000909,  26.139
   282.2,0.010880,0.006955,0.123526,0.000871,  26.112
   282.4,0.010872,0.006940,0.123323,0.000882,  26.084
   282.6,0.010852,0.006931,0.123143,0.000882,  26.064
   282.8,0.010839,0.006923,0.123074,0.000844,  26.040
   283.0,0.010831,0.006909,0.123081,0.000855,  26.026
   283.2,0.010814,0.006893,0.123162,0.000842,  26.009
   283.4,0.010801,0.006885,0.123057,0.000842,  25.993
   283.6,0.010796,0.006873,0.122847,0.000828,  25.978
   283.8,0.010782,0.006866,0.122579,0.000815,  25.959
   284.0,0.010776,0.006859,0.122497,0.000815,  25.946
   284.2,0.010774,0.006849,0.122399,0.000764,  25.929
   284.4,0.010760,0.006844,0.122354,0.000788,  25.918
   284.6,0.010751,0.006834,0.122286,0.000764,  25.902
   284.8,0.010746,0.006823,0.122241,0.000751,  25.890
   285.0,0.010735,0.006820,0.122151,0.000737,  25.875
   285.2,0.010729,0.006815,0.122114,0.000700,  25.863
   285.4,0.010730,0.006815,0.122024,0.000737,  25.849
   285.6,0.010722,0.006807,0.121950,0.000724,  25.836
   285.8,0.010722,0.006810,0.121831,0.000686,  25.815
   286.0,0.010730,0.006805,0.121800,0.000724,  25.804
   286.2,0.010722,0.006795,0.121785,0.000711,  25.796
   286.4,0.010722,0.006798,0.121837,0.000673,  25.782
   286.6,0.010727,0.006792,0.121777,0.000711,  25.769
   286.8,0.010725,0.006789,0.121680,0.000711,  25.756
   287.0,0.010735,0.006792,0.121547,0.000686,  25.746
   287.2,0.010752,0.006792,0.121547,0.000737,  25.730
   287.4,0.010763,0.006796,0.121577,0.000764,  25.723
   287.6,0.010789,0.006813,0.121606,0.000767,  25.713
   287.8,0.010828,0.006832,0.121382,0.000818,  25.698
   288.0,0.010849,0.006847,0.121048,0.000858,  25.688
   288.2,0.010871,0.006861,0.120602,0.000860,  25.670
   288.4,0.010907,0.006879,0.120483,0.000911,  25.647
   288.6,0.010918,0.006882,0.120497,0.000925,  25.622
   288.8,0.010931,0.006897,0.120600,0.000900,  25.599
   289.0,0.010948,0.006909,0.120592,0.000965,  25.582
   289.2,0.010951,0.006909,0.120605,0.000965,  25.560
   289.4,0.010944,0.006912,0.120544,0.000927,  25.540
   289.6,0.010948,0.006911,0.120394,0.000965,  25.514
   289.8,0.010938,0.006899,0.120215,0.000951,  25.496
   290.0,0.010923,0.006890,0.119931,0.000900,  25.484
   290.2,0.010904,0.006868,0.119708,0.000925,  25.470
   290.4,0.010882,0.006846,0.119492,0.000898,  25.455
   290.6,0.010858,0.006829,0.119262,0.000847,  25.448
   290.8,0.010836,0.006815,0.119142,0.000871,  25.436
   291.0,0.010821,0.006795,0.119090,0.000844,  25.432
   291.2,0.010798,0.006775,0.119074,0.000831,  25.419
   291.4,0.010779,0.006760,0.118985,0.000818,  25.410
   291.6,0.010768,0.006748,0.118866,0.000804,  25.398
   291.8,0.010748,0.006738,0.118697,0.000791,  25.394
   292.0,0.010742,0.006726,0.118615,0.000791,  25.388
   292.2,0.010734,0.006716,0.118556,0.000777,  25.384
   292.4,0.010717,0.006707,0.118512,0.000764,  25.380
   292.6,0.010718,0.006700,0.118239,0.000740,  25.370
   292.8,0.010709,0.006687,0.117848,0.000764,  25.360
   293.0,0.010695,0.006680,0.117362,0.000751,  25.355
   293.2,0.010699,0.006681,0.117281,0.000713,  25.352
   293.4,0.010696,0.006673,0.117324,0.000751,  25.344
   293.6,0.010689,0.006668,0.117537,0.000724,  25.341
   293.8,0.010696,0.006669,0.117876,0.000686,  25.334
   294.0,0.010696,0.006661,0.117941,0.000724,  25.326
   294.2,0.010692,0.006658,0.118008,0.000711,  25.320
   294.4,0.010699,0.006658,0.118053,0.000673,  25.317
   294.6,0.010696,0.006656,0.117876,0.000711,  25.310
   294.8,0.010692,0.006648,0.117574,0.000697,  25.306
   295.0,0.010699,0.006651,0.117141,0.000660,  25.304
   295.2,0.010696,0.006654,0.117177,0.000711,  25.301
   295.4,0.010704,0.006656,0.117346,0.000697,  25.296
   295.6,0.010731,0.006666,0.117700,0.000673,  25.292
   295.8,0.010756,0.006682,0.117883,0.000751,  25.285
   296.0,0.010783,0.006699,0.118053,0.000777,  25.280
   296.2,0.010829,0.006724,0.118230,0.000780,  25.281
   296.4,0.010873,0.006747,0.118303,0.000844,  25.273
   296.6,0.010900,0.006765,0.118303,0.000885,  25.264
   296.8,0.010940,0.006792,0.118237,0.000887,  25.247
   297.0,0.010962,0.006813,0.117736,0.000938,  25.240
   297.2,0.010973,0.006827,0.116949,0.000951,  25.232
   297.4,0.010997,0.006846,0.115877,0.000941,  25.227
   297.6,0.011003,0.006854,0.115766,0.000978,  25.216
   297.8,0.010995,0.006854,0.115992,0.000978,  25.209
   298.0,0.010997,0.006848,0.116526,0.000978,  25.204
   298.2,0.010981,0.006843,0.116517,0.000951,  25.199
   298.4,0.010968,0.006830,0.116420,0.000962,  25.197
   298.6,0.010955,0.006813,0.116214,0.000949,  25.193
   298.8,0.010933,0.006794,0.116205,0.000898,  25.183
   299.0,0.010911,0.006777,0.116188,0.000909,  25.184
   299.2,0.010885,0.006757,0.116238,0.000895,  25.184
   299.4,0.010870,0.006741,0.116259,0.000844,  25.176
   299.6,0.010845,0.006719,0.116229,0.000855,  25.181
   299.8,0.010818,0.006699,0.116199,0.000842,  25.179
   300.0,0.010807,0.006680,0.116183,0.000791,  25.174
   300.2,0.010788,0.006666,0.116161,0.000802,  25.174
   300.4,0.010761,0.006651,0.116116,0.000788,  25.172
   300.6,0.010756,0.006637,0.116094,0.000751,  25.171
   300.8,0.010740,0.006622,0.116058,0.000762,  25.166
   301.0,0.010723,0.006613,0.115999,0.000762,  25.161
   301.2,0.010725,0.006610,0.115977,0.000748,  25.163
   301.4,0.010718,0.006597,0.115933,0.000735,  25.159
   301.6,0.010708,0.006589,0.115918,0.000721,  25.160
   301.8,0.010712,0.006589,0.115933,0.000708,  25.160
   302.0,0.010706,0.006581,0.115939,0.000671,  25.158
   302.2,0.010698,0.006579,0.115976,0.000708,  25.152
   302.4,0.010709,0.006574,0.116012,0.000695,  25.153
   302.6,0.010706,0.006571,0.116041,0.000657,  25.153
   302.8,0.010706,0.006566,0.116107,0.000695,  25.147
   303.0,0.010709,0.006564,0.116166,0.000708,  25.149
   303.2,0.010713,0.006567,0.116211,0.000671,  25.150
   303.4,0.010716,0.006561,0.116247,0.000695,  25.147
   303.6,0.010715,0.006559,0.116277,0.000721,  25.142
   303.8,0.010726,0.006562,0.116285,0.000684,  25.141
   304.0,0.010751,0.006575,0.116293,0.000721,  25.143
   304.2,0.010778,0.006587,0.116242,0.000748,  25.140
   304.4,0.010830,0.006616,0.116264,0.000751,  25.134
   304.6,0.010871,0.006639,0.116264,0.000828,  25.130
   304.8,0.010905,0.006670,0.116286,0.000855,  25.126
   305.0,0.010957,0.006708,0.116315,0.000858,  25.128
   305.2,0.010991,0.006731,0.116366,0.000949,  25.122
   305.4,0.011012,0.006764,0.116402,0.000989,  25.117
   305.6,0.011048,0.006785,0.116336,0.000965,  25.119
   305.8,0.011064,0.006794,0.116188,0.001016,  25.115
   306.0,0.011077,0.006815,0.116012,0.001042,  25.108
   306.2,0.011072,0.006825,0.115865,0.001005,  25.105
   306.4,0.011080,0.006820,0.115659,0.001029,  25.102
   306.6,0.011069,0.006823,0.115445,0.000992,  25.107
   306.8,0.011057,0.006813,0.115363,0.000978,  25.103
   307.0,0.011048,0.006798,0.115265,0.000938,  25.105
   307.2,0.011029,0.006784,0.115234,0.000887,  25.102
   307.4,0.011007,0.006756,0.115087,0.000911,  25.101
   307.6,0.010989,0.006734,0.114904,0.000871,  25.104
   307.8,0.010970,0.006717,0.114663,0.000820,  25.100
   308.0,0.010948,0.006698,0.114538,0.000844,  25.099
   308.2,0.010923,0.006678,0.114450,0.000818,  25.103
   308.4,0.010907,0.006663,0.114391,0.000804,  25.100
   308.6,0.010884,0.006651,0.114406,0.000804,  25.101
   308.8,0.010871,0.006639,0.114426,0.000791,  25.097
   309.0,0.010862,0.006627,0.114469,0.000777,  25.096
   309.2,0.010838,0.006615,0.114469,0.000777,  25.099
   309.4,0.010836,0.006605,0.114433,0.000764,  25.100
   309.6,0.010830,0.006597,0.114374,0.000751,  25.100
   309.8,0.010816,0.006597,0.114345,0.000713,  25.096
   310.0,0.010817,0.006586,0.114316,0.000751,  25.094
   310.2,0.010817,0.006581,0.114302,0.000724,  25.095
   310.4,0.010807,0.006588,0.114316,0.000686,  25.090
   310.6,0.010811,0.006591,0.114374,0.000724,  25.094
   310.8,0.010814,0.006584,0.114411,0.000711,  25.092
   311.0,0.010807,0.006582,0.114506,0.000673,  25.090
   311.2,0.010811,0.006579,0.114564,0.000711,  25.087
   311.4,0.010814,0.006579,0.114623,0.000711,  25.087
   311.6,0.010807,0.006576,0.114667,0.000673,  25.088
   311.8,0.010814,0.006573,0.114675,0.000711,  25.088
   312.0,0.010824,0.006570,0.114660,0.000697,  25.088
   312.2,0.010819,0.006570,0.114610,0.000673,  25.084
   312.4,0.010836,0.006570,0.114646,0.000724,  25.089
   312.6,0.010865,0.006588,0.114690,0.000737,  25.088
   312.8,0.010892,0.006608,0.114793,0.000727,  25.085
   313.0,0.010944,0.006643,0.114720,0.000804,  25.087
   313.2,0.010982,0.006670,0.114523,0.000844,  25.088
   313.4,0.011012,0.006694,0.114282,0.000847,  25.079
   313.6,0.011058,0.006723,0.114238,0.000925,  25.080
   313.8,0.011086,0.006744,0.114238,0.000938,  25.071
   314.0,0.011104,0.006766,0.114311,0.000927,  25.071
   314.2,0.011131,0.006788,0.114295,0.000992,  25.071
   314.4,0.011143,0.006799,0.114265,0.000992,  25.069
   314.6,0.011142,0.006811,0.114235,0.001005,  25.071
   314.8,0.011146,0.006813,0.114212,0.001005,  25.064
   315.0,0.011143,0.006810,0.114152,0.001029,  25.063
   315.2,0.011131,0.006801,0.114055,0.001029,  25.066
   315.4,0.011110,0.006785,0.113937,0.000978,  25.063
   315.6,0.011093,0.006762,0.113804,0.000976,  25.062
   315.8,0.011074,0.006746,0.113599,0.000962,  25.063
   316.0,0.011048,0.006730,0.113489,0.000911,  25.065
   316.2,0.011030,0.006710,0.113357,0.000909,  25.066
   316.4,0.011011,0.006691,0.113262,0.000895,  25.066
   316.6,0.010992,0.006680,0.113182,0.000844,  25.068
   316.8,0.010973,0.006662,0.113101,0.000855,  25.067
   317.0,0.010958,0.006645,0.113007,0.000842,  25.072
   317.2,0.010942,0.006636,0.113013,0.000804,  25.068
   317.4,0.010929,0.006619,0.113094,0.000815,  25.068
   317.6,0.010920,0.006607,0.113195,0.000802,  25.069
   317.8,0.010907,0.006600,0.113195,0.000764,  25.066
   318.0,0.010901,0.006590,0.113122,0.000788,  25.067
   318.2,0.010894,0.006586,0.112991,0.000775,  25.069
   318.4,0.010888,0.006585,0.113028,0.000775,  25.067
   318.6,0.010885,0.006580,0.113086,0.000762,  25.066
   318.8,0.010882,0.006579,0.113151,0.000748,  25.065
   319.0,0.010882,0.006573,0.112984,0.000748,  25.066
   319.2,0.010882,0.006567,0.112707,0.000711,  25.061
   319.4,0.010885,0.006570,0.112345,0.000735,  25.064
   319.6,0.010885,0.006563,0.111837,0.000735,  25.064
   319.8,0.010882,0.006560,0.111939,0.000711,  25.062
   320.0,0.010885,0.006562,0.112142,0.000735,  25.062
   320.2,0.010885,0.006562,0.112527,0.000735,  25.061
   320.4,0.010882,0.006567,0.112702,0.000697,  25.060
   320.6,0.010894,0.006567,0.112826,0.000721,  25.058
   320.8,0.010910,0.006574,0.112892,0.000735,  25.058
   321.0,0.010926,0.006576,0.113008,0.000724,  25.060
   321.2,0.010961,0.006592,0.113067,0.000802,  25.056
   321.4,0.011002,0.006618,0.113111,0.000842,  25.058
   321.6,0.011046,0.006655,0.113147,0.000831,  25.057
   321.8,0.011084,0.006687,0.113199,0.000922,  25.054
   322.0,0.011119,0.006710,0.113177,0.000976,  25.055
   322.2,0.011151,0.006744,0.113183,0.000951,  25.053
   322.4,0.011176,0.006766,0.113190,0.001016,  25.048
   322.6,0.011198,0.006784,0.113188,0.001042,  25.048
   322.8,0.011211,0.006805,0.112453,0.001018,  25.044
   323.0,0.011217,0.006812,0.111300,0.001056,  25.046
   323.2,0.011214,0.006817,0.109805,0.001069,  25.044
   323.4,0.011201,0.006814,0.109624,0.001018,  25.043
   323.6,0.011189,0.006799,0.109903,0.001029,  25.043
   323.8,0.011176,0.006790,0.110645,0.001029,  25.039
   324.0,0.011157,0.006771,0.110818,0.000965,  25.041
   324.2,0.011138,0.006751,0.110910,0.000962,  25.044
   324.4,0.011116,0.006731,0.110974,0.000949,  25.047
   324.6,0.011091,0.006712,0.111053,0.000898,  25.044
   324.8,0.011065,0.006687,0.111095,0.000909,  25.043
   325.0,0.011043,0.006677,0.111131,0.000882,  25.044
   325.2,0.011028,0.006661,0.110971,0.000855,  25.046
   325.4,0.011014,0.006644,0.110668,0.000853,  25.048
   325.6,0.010995,0.006627,0.110249,0.000853,  25.043
   325.8,0.010979,0.006616,0.110321,0.000826,  25.042
   326.0,0.010966,0.006598,0.110544,0.000813,  25.042
   326.2,0.010957,0.006586,0.110934,0.000813,  25.045
   326.4,0.010940,0.006575,0.111036,0.000799,  25.044
   326.6,0.010927,0.006561,0.111043,0.000799,  25.046
   326.8,0.010921,0.006557,0.110957,0.000786,  25.045
   327.0,0.010907,0.006554,0.110827,0.000772,  25.043
   327.2,0.010901,0.006549,0.110596,0.000772,  25.043
   327.4,0.010898,0.006544,0.110263,0.000772,  25.046
   327.6,0.010891,0.006544,0.110277,0.000772,  25.041
   327.8,0.010888,0.006541,0.110378,0.000786,  25.040
   328.0,0.010885,0.006530,0.110603,0.000772,  25.040
   328.2,0.010885,0.006521,0.110733,0.000772,  25.042
   328.4,0.010889,0.006516,0.110907,0.000772,  25.040
   328.6,0.010889,0.006511,0.111021,0.000759,  25.043
   328.8,0.010879,0.006512,0.111209,0.000759,  25.042
   329.0,0.010883,0.006514,0.111354,0.000721,  25.042
   329.2,0.010899,0.006519,0.111484,0.000721,  25.039
   329.4,0.010913,0.006535,0.111570,0.000735,  25.039
   329.6,0.010949,0.006548,0.111657,0.000737,  25.038
   329.8,0.010981,0.006566,0.111751,0.000828,  25.039
   330.0,0.011008,0.006595,0.111817,0.000855,  25.040
   330.2,0.011057,0.006629,0.111845,0.000858,  25.038
   330.4,0.011092,0.006650,0.111823,0.000949,  25.033
   330.6,0.011110,0.006679,0.111787,0.000989,  25.027
   330.8,0.011142,0.006703,0.111757,0.000965,  25.026
   331.0,0.011164,0.006717,0.111661,0.001016,  25.024
   331.2,0.011166,0.006732,0.111536,0.001042,  25.022
   331.4,0.011180,0.006745,0.111354,0.001005,  25.018
   331.6,0.011180,0.006744,0.111086,0.001042,  25.014
   331.8,0.011163,0.006742,0.110738,0.001042,  25.013
   332.0,0.011144,0.006732,0.110549,0.000992,  25.014
   332.2,0.011132,0.006715,0.110374,0.001002,  25.019
   332.4,0.011116,0.006706,0.110243,0.000989,  25.018
   332.6,0.011097,0.006687,0.110140,0.000962,  25.016
   332.8,0.011075,0.006665,0.110072,0.000960,  25.012
   333.0,0.011049,0.006643,0.110057,0.000946,  25.019
   333.2,0.011024,0.006621,0.110027,0.000919,  25.018
   333.4,0.010999,0.006599,0.109968,0.000893,  25.018
   333.6,0.010977,0.006584,0.109910,0.000879,  25.018
   333.8,0.010954,0.006570,0.109852,0.000842,  25.015
   334.0,0.010932,0.006547,0.109773,0.000815,  25.020
   334.2,0.010920,0.006530,0.109635,0.000815,  25.020
   334.4,0.010904,0.006521,0.109599,0.000751,  25.018
   334.6,0.010888,0.006506,0.109577,0.000775,  25.017
   334.8,0.010879,0.006492,0.109570,0.000775,  25.019
   335.0,0.010862,0.006485,0.109570,0.000724,  25.021
   335.2,0.010852,0.006472,0.109570,0.000762,  25.016
   335.4,0.010843,0.006468,0.109570,0.000748,  25.016
   335.6,0.010832,0.006466,0.109548,0.000735,  25.019
   335.8,0.010833,0.006451,0.109512,0.000721,  25.014
   336.0,0.010827,0.006455,0.109484,0.000721,  25.016
   336.2,0.010816,0.006454,0.109484,0.000721,  25.018
   336.4,0.010821,0.006446,0.109512,0.000684,  25.012
   336.6,0.010817,0.006446,0.109570,0.000721,  25.014
   336.8,0.010807,0.006448,0.109620,0.000721,  25.013
   337.0,0.010814,0.006442,0.109670,0.000684,  25.016
   337.2,0.010817,0.006446,0.109727,0.000721,  25.013
   337.4,0.010810,0.006444,0.109777,0.000721,  25.010
   337.6,0.010817,0.006451,0.109835,0.000697,  25.011
   337.8,0.010839,0.006460,0.109879,0.000748,  25.010
   338.0,0.010861,0.006471,0.109893,0.000775,  25.008
   338.2,0.010903,0.006493,0.109893,0.000777,  25.013
   338.4,0.010938,0.006520,0.109857,0.000869,  25.008
   338.6,0.010972,0.006541,0.109785,0.000909,  25.005
   338.8,0.011011,0.006580,0.109769,0.000911,  25.004
   339.0,0.011040,0.006601,0.109754,0.000989,  24.996
   339.2,0.011059,0.006625,0.109746,0.001016,  24.992
   339.4,0.011079,0.006641,0.109637,0.001005,  24.992
   339.6,0.011088,0.006650,0.109456,0.001056,  24.988
   339.8,0.011081,0.006660,0.109225,0.001069,  24.980
   340.0,0.011085,0.006665,0.109094,0.001032,  24.982
   340.2,0.011079,0.006662,0.108955,0.001056,  24.980
   340.4,0.011062,0.006650,0.108823,0.001056,  24.983
   340.6,0.011046,0.006637,0.108706,0.000992,  24.981
   340.8,0.011024,0.006623,0.108531,0.000989,  24.981
   341.0,0.011002,0.006604,0.108357,0.000976,  24.983
   341.2,0.010973,0.006575,0.108226,0.000911,  24.984
   341.4,0.010949,0.006548,0.108060,0.000922,  24.987
   341.6,0.010924,0.006534,0.107901,0.000909,  24.993
   341.8,0.010888,0.006515,0.107792,0.000844,  24.991
   342.0,0.010867,0.006493,0.107735,0.000869,  24.992
   342.2,0.010845,0.006475,0.107691,0.000855,  24.992
   342.4,0.010818,0.006454,0.107662,0.000804,  24.990
   342.6,0.010804,0.006432,0.107654,0.000815,  24.994
   342.8,0.010788,0.006420,0.107690,0.000802,  24.994
   343.0,0.010765,0.006412,0.107668,0.000764,  24.993
   343.2,0.010760,0.006397,0.107611,0.000775,  24.992
   343.4,0.010750,0.006391,0.107517,0.000762,  24.993
   343.6,0.010737,0.006381,0.107524,0.000748,  24.993
   343.8,0.010732,0.006368,0.107573,0.000748,  24.992
   344.0,0.010723,0.006367,0.107666,0.000735,  24.992
   344.2,0.010716,0.006357,0.107680,0.000721,  24.995
   344.4,0.010710,0.006347,0.107680,0.000684,  24.989
   344.6,0.010704,0.006350,0.107666,0.000708,  24.995
   344.8,0.010697,0.006345,0.107645,0.000695,  24.992
   345.0,0.010694,0.006340,0.107617,0.000657,  24.993
   345.2,0.010699,0.006332,0.107573,0.000695,  24.995
   345.4,0.010692,0.006335,0.107502,0.000708,  24.989
   345.6,0.010689,0.006330,0.107430,0.000671,  24.993
   345.8,0.010700,0.006325,0.107309,0.000695,  24.993
   346.0,0.010706,0.006325,0.107210,0.000735,  24.996
   346.2,0.010705,0.006325,0.107209,0.000711,  24.992
   346.4,0.010723,0.006340,0.107316,0.000775,  24.992
   346.6,0.010754,0.006368,0.107464,0.000828,  24.986
   346.8,0.010792,0.006401,0.107435,0.000831,  24.988
   347.0,0.010816,0.006426,0.107342,0.000909,  24.986
   347.2,0.010848,0.006451,0.107221,0.000949,  24.986
   347.4,0.010881,0.006480,0.107120,0.000951,  24.982
   347.6,0.010900,0.006498,0.106976,0.001002,  24.979
   347.8,0.010916,0.006517,0.106788,0.001029,  24.978
   348.0,0.010928,0.006542,0.106672,0.001018,  24.978
   348.2,0.010928,0.006554,0.106591,0.001056,  24.972
   348.4,0.010925,0.006562,0.106489,0.001069,  24.974
   348.6,0.010912,0.006558,0.106315,0.001018,  24.970
   348.8,0.010900,0.006553,0.106071,0.001029,  24.972
   349.0,0.010877,0.006538,0.105791,0.001029,  24.969
   349.2,0.010865,0.006518,0.105639,0.000978,  24.970
   349.4,0.010843,0.006493,0.105501,0.000976,  24.974
   349.6,0.010810,0.006464,0.105393,0.000962,  24.977
   349.8,0.010789,0.006446,0.105299,0.000911,  24.977
   350.0,0.010758,0.006421,0.105262,0.000909,  24.982
   350.2,0.010732,0.006396,0.105224,0.000895,  24.979
   350.4,0.010704,0.006376,0.105173,0.000831,  24.980
   350.6,0.010675,0.006354,0.105130,0.000842,  24.979
   350.8,0.010653,0.006343,0.105065,0.000828,  24.984
   351.0,0.010631,0.006323,0.104986,0.000777,  24.982
   351.2,0.010606,0.006303,0.104894,0.000815,  24.985
   351.4,0.010590,0.006292,0.104788,0.000788,  24.983
   351.6,0.010577,0.006275,0.104780,0.000788,  24.985
   351.8,0.010565,0.006263,0.104807,0.000775,  24.986
   352.0,0.010559,0.006256,0.104892,0.000762,  24.983
   352.2,0.010551,0.006247,0.104857,0.000762,  24.986
   352.4,0.010547,0.006240,0.104743,0.000724,  24.984
   352.6,0.010538,0.006233,0.104593,0.000735,  24.986
   352.8,0.010531,0.006228,0.104579,0.000735,  24.982
   353.0,0.010524,0.006221,0.104550,0.000711,  24.988
   353.2,0.010510,0.006211,0.104585,0.000735,  24.983
   353.4,0.010504,0.006207,0.104642,0.000735,  24.984
   353.6,0.010494,0.006205,0.104471,0.000711,  24.983
   353.8,0.010480,0.006191,0.104194,0.000735,  24.983
   354.0,0.010477,0.006189,0.103833,0.000735,  24.985
   354.2,0.010472,0.006183,0.103790,0.000697,  24.982
   354.4,0.010468,0.006186,0.103882,0.000721,  24.982
   354.6,0.010480,0.006186,0.104067,0.000735,  24.985
   354.8,0.010501,0.006196,0.104151,0.000737,  24.983
   355.0,0.010515,0.006207,0.104228,0.000815,  24.983
   355.2,0.010547,0.006240,0.104291,0.000855,  24.986
   355.4,0.010586,0.006268,0.104297,0.000858,  24.985
   355.6,0.010604,0.006287,0.104275,0.000935,  24.980
   355.8,0.010629,0.006311,0.104189,0.000989,  24.979
   356.0,0.010655,0.006333,0.104003,0.000978,  24.978
   356.2,0.010664,0.006347,0.103775,0.001029,  24.973
   356.4,0.010670,0.006362,0.103461,0.001056,  24.968
   356.6,0.010673,0.006373,0.102446,0.001069,  24.970
   356.8,0.010667,0.006375,0.101011,0.001093,  24.968
   357.0,0.010663,0.006373,0.099182,0.001107,  24.971
   357.2,0.010652,0.006363,0.098899,0.001080,  24.972
   357.4,0.010623,0.006351,0.099156,0.001053,  24.970
   357.6,0.010593,0.006337,0.099989,0.001040,  24.970
   357.8,0.010557,0.006313,0.100204,0.001013,  24.975
   358.0,0.010528,0.006296,0.100385,0.000986,  24.978
   358.2,0.010506,0.006271,0.100544,0.000960,  24.977
   358.4,0.010490,0.006252,0.100725,0.000946,  24.979
   358.6,0.010475,0.006232,0.100857,0.000919,  24.982
   358.8,0.010453,0.006205,0.100968,0.000906,  24.980
   359.0,0.010428,0.006186,0.101100,0.000893,  24.984
   359.2,0.010399,0.006167,0.101198,0.000866,  24.985
   359.4,0.010373,0.006145,0.101260,0.000853,  24.987
   359.6,0.010351,0.006137,0.101274,0.000826,  24.986
   359.8,0.010339,0.006123,0.101239,0.000813,  24.985
   360.0,0.010319,0.006105,0.101147,0.000813,  24.988
   360.2,0.010304,0.006101,0.100857,0.000799,  24.989
   360.4,0.010295,0.006094,0.100435,0.000786,  24.987
   360.6,0.010275,0.006079,0.099901,0.000786,  24.987
   360.8,0.010266,0.006071,0.099915,0.000772,  24.986
   361.0,0.010250,0.006064,0.100111,0.000772,  24.986
   361.2,0.010240,0.006052,0.100511,0.000772,  24.987
   361.4,0.010228,0.006046,0.100524,0.000772,  24.985
   361.6,0.010223,0.006036,0.100419,0.000759,  24.987
   361.8,0.010209,0.006026,0.100215,0.000746,  24.988
   362.0,0.010199,0.006020,0.100250,0.000732,  24.987
   362.2,0.010194,0.006018,0.100342,0.000732,  24.988
   362.4,0.010180,0.006011,0.100489,0.000732,  24.987
   362.6,0.010171,0.006004,0.100538,0.000746,  24.990
   362.8,0.010169,0.006011,0.100586,0.000708,  24.989
   363.0,0.010171,0.006020,0.100600,0.000708,  24.992
   363.2,0.010191,0.006029,0.100614,0.000735,  24.991
   363.4,0.010217,0.006044,0.100662,0.000737,  24.992
   363.6,0.010232,0.006061,0.100647,0.000815,  24.993
   363.8,0.010261,0.006077,0.100660,0.000869,  24.992
   364.0,0.010289,0.006102,0.100645,0.000871,  24.990
   364.2,0.010300,0.006123,0.100594,0.000935,  24.989
   364.4,0.010319,0.006142,0.100536,0.000989,  24.989
   364.6,0.010338,0.006166,0.100378,0.000978,  24.985
   364.8,0.010348,0.006185,0.100193,0.001029,  24.985
   365.0,0.010354,0.006186,0.099931,0.001056,  24.985
   365.2,0.010351,0.006196,0.099766,0.001018,  24.988
   365.4,0.010341,0.006196,0.099614,0.001042,  24.988
   365.6,0.010326,0.006179,0.099484,0.001042,  24.989
   365.8,0.010294,0.006165,0.099313,0.000978,  24.987
   366.0,0.010269,0.006148,0.099100,0.000989,  24.991
   366.2,0.010240,0.006121,0.098838,0.000976,  24.990
   366.4,0.010206,0.006100,0.098711,0.000949,  24.992
   366.6,0.010177,0.006072,0.098596,0.000960,  24.993
   366.8,0.010149,0.006051,0.098482,0.000946,  24.994
   367.0,0.010120,0.006029,0.098221,0.000919,  24.996
   367.2,0.010098,0.006005,0.097890,0.000906,  24.994
   367.4,0.010076,0.005984,0.097506,0.000893,  24.992
   367.6,0.010060,0.005968,0.097386,0.000879,  24.996
   367.8,0.010049,0.005954,0.097365,0.000853,  24.996
   368.0,0.010030,0.005936,0.097442,0.000853,  24.999
   368.2,0.010011,0.005932,0.097456,0.000826,  24.997
   368.4,0.009992,0.005920,0.097448,0.000813,  24.994
   368.6,0.009972,0.005913,0.097440,0.000813,  24.998
   368.8,0.009959,0.005902,0.097488,0.000799,  24.996
   369.0,0.009954,0.005892,0.097494,0.000786,  24.998
   369.2,0.009937,0.005887,0.097542,0.000786,  24.995
   369.4,0.009931,0.005880,0.097500,0.000772,  24.996
   369.6,0.009926,0.005875,0.097409,0.000759,  24.997
   369.8,0.009909,0.005867,0.097291,0.000746,  24.999
   370.0,0.009903,0.005857,0.097284,0.000759,  24.999
   370.2,0.009898,0.005849,0.097332,0.000746,  24.996
   370.4,0.009873,0.005844,0.097436,0.000759,  24.999
   370.6,0.009867,0.005834,0.096821,0.000772,  24.996
   370.8,0.009857,0.005827,0.095846,0.000759,  24.996
   371.0,0.009844,0.005822,0.094565,0.000759,  24.995
   371.2,0.009837,0.005819,0.094488,0.000759,  24.998
   371.4,0.009838,0.005828,0.094827,0.000772,  24.998
   371.6,0.009859,0.005841,0.095597,0.000786,  25.003
   371.8,0.009877,0.005866,0.095825,0.000813,  25.001
   372.0,0.009903,0.005882,0.096019,0.000815,  25.005
   372.2,0.009935,0.005913,0.096123,0.000869,  25.006
   372.4,0.009957,0.005935,0.096163,0.000909,  25.006
   372.6,0.009972,0.005952,0.096182,0.000911,  25.000
   372.8,0.009988,0.005961,0.096132,0.000989,  25.000
   373.0,0.010004,0.005978,0.096039,0.001016,  25.001
   373.2,0.010010,0.005987,0.095960,0.001005,  25.002
   373.4,0.010010,0.005998,0.095873,0.001056,  24.999
   373.6,0.010007,0.006003,0.095773,0.001069,  25.002
   373.8,0.009997,0.006004,0.095630,0.001032,  24.997
   374.0,0.009978,0.005999,0.095453,0.001056,  24.999
   374.2,0.009953,0.005984,0.095276,0.001056,  25.001
   374.4,0.009918,0.005967,0.095086,0.001005,  24.999
   374.6,0.009893,0.005950,0.094861,0.001002,  24.996
   374.8,0.009868,0.005923,0.094624,0.000989,  24.994
   375.0,0.009833,0.005900,0.094006,0.000938,  24.999
   375.2,0.009806,0.005875,0.093188,0.000935,  25.001
   375.4,0.009779,0.005854,0.092161,0.000922,  25.003
   375.6,0.009760,0.005835,0.092035,0.000871,  25.003
   375.8,0.009727,0.005810,0.092253,0.000882,  25.004
   376.0,0.009701,0.005794,0.092789,0.000869,  25.002
   376.2,0.009685,0.005771,0.092905,0.000818,  25.001
   376.4,0.009670,0.005751,0.092994,0.000828,  24.999
   376.6,0.009649,0.005742,0.093029,0.000815,  25.003
   376.8,0.009637,0.005725,0.093166,0.000802,  25.003
   377.0,0.009624,0.005711,0.093274,0.000839,  25.004
   377.2,0.009612,0.005702,0.093424,0.000853,  25.002
   377.4,0.009596,0.005693,0.093541,0.000826,  25.005
   377.6,0.009580,0.005681,0.093601,0.000813,  25.000
   377.8,0.009563,0.005671,0.093641,0.000813,  25.001
   378.0,0.009547,0.005667,0.093599,0.000813,  25.005
   378.2,0.009531,0.005660,0.093517,0.000799,  25.002
   378.4,0.009521,0.005642,0.093367,0.000799,  25.002
   378.6,0.009508,0.005635,0.093351,0.000799,  25.001
   378.8,0.009496,0.005630,0.093420,0.000786,  25.001
   379.0,0.009486,0.005617,0.093523,0.000786,  25.005
   379.2,0.009477,0.005615,0.093541,0.000786,  25.004
   379.4,0.009464,0.005611,0.093547,0.000772,  25.003
   379.6,0.009454,0.005608,0.093547,0.000772,  25.001
   379.8,0.009457,0.005609,0.093484,0.000786,  25.001
   380.0,0.009457,0.005623,0.093323,0.000799,  25.002
   380.2,0.009469,0.005643,0.093165,0.000813,  25.001
   380.4,0.009488,0.005667,0.093067,0.000853,  24.999
   380.6,0.009518,0.005686,0.093025,0.000893,  25.000
   380.8,0.009541,0.005705,0.092983,0.000946,  25.002
   381.0,0.009560,0.005722,0.092975,0.000986,  24.999
   381.2,0.009579,0.005736,0.092628,0.001027,  24.999
   381.4,0.009581,0.005753,0.092171,0.001040,  24.993
   381.6,0.009587,0.005764,0.091583,0.001067,  24.987
   381.8,0.009601,0.005768,0.091353,0.001093,  24.989
   382.0,0.009594,0.005767,0.091253,0.001107,  24.990
   382.2,0.009581,0.005767,0.091264,0.001107,  24.991
   382.4,0.009573,0.005768,0.091136,0.001093,  24.990
   382.6,0.009546,0.005756,0.091008,0.001080,  24.987
   382.8,0.009515,0.005732,0.090880,0.001080,  24.991
   383.0,0.009488,0.005709,0.090705,0.001053,  24.990
   383.2,0.009452,0.005684,0.090503,0.001027,  24.991
   383.4,0.009417,0.005665,0.090268,0.001013,  24.989
   383.6,0.009390,0.005644,0.090122,0.000986,  24.990
   383.8,0.009354,0.005616,0.090030,0.000960,  24.995
   384.0,0.009326,0.005600,0.089968,0.000946,  24.994
   384.2,0.009305,0.005576,0.089892,0.000882,  24.994
   384.4,0.009272,0.005554,0.089809,0.000869,  24.994
   384.6,0.009247,0.005541,0.089712,0.000855,  24.992
   384.8,0.009232,0.005522,0.089615,0.000804,  24.995
   385.0,0.009213,0.005508,0.089527,0.000815,  24.995
   385.2,0.009198,0.005493,0.089409,0.000815,  24.995
   385.4,0.009188,0.005481,0.089326,0.000788,  24.996
   385.6,0.009179,0.005469,0.089250,0.000813,  24.995
   385.8,0.009156,0.005458,0.089162,0.000826,  24.998
   386.0,0.009140,0.005449,0.089167,0.000813,  24.999
   386.2,0.009127,0.005442,0.089198,0.000813,  24.998
   386.4,0.009115,0.005427,0.089300,0.000813,  24.995
   386.6,0.009099,0.005422,0.089266,0.000799,  25.001
   386.8,0.009083,0.005414,0.089157,0.000786,  25.000
   387.0,0.009074,0.005402,0.088987,0.000786,  25.002
   387.2,0.009058,0.005396,0.089008,0.000786,  24.997
   387.4,0.009048,0.005392,0.089034,0.000786,  24.998
   387.6,0.009039,0.005382,0.089086,0.000786,  24.998
   387.8,0.009026,0.005376,0.089112,0.000786,  24.995
   388.0,0.009014,0.005373,0.089118,0.000786,  24.996
   388.2,0.009014,0.005372,0.089073,0.000786,  24.998
   388.4,0.009020,0.005378,0.089084,0.000799,  24.996
   388.6,0.009030,0.005387,0.089076,0.000839,  24.993
   388.8,0.009045,0.005400,0.089060,0.000879,  24.993
   389.0,0.009064,0.005427,0.089024,0.000919,  24.991
   389.2,0.009089,0.005443,0.088974,0.000960,  24.991
   389.4,0.009108,0.005465,0.088870,0.001000,  24.990
   389.6,0.009124,0.005482,0.088745,0.001027,  24.987
   389.8,0.009137,0.005497,0.088579,0.001053,  24.984
   390.0,0.009146,0.005506,0.088399,0.001067,  24.985
   390.2,0.009149,0.005519,0.088165,0.001093,  24.983
   390.4,0.009143,0.005519,0.087957,0.001107,  24.983
   390.6,0.009137,0.005514,0.087728,0.001120,  24.983
   390.8,0.009121,0.005512,0.087479,0.001120,  24.981
   391.0,0.009099,0.005500,0.087108,0.001107,  24.985
   391.2,0.009077,0.005478,0.086670,0.001080,  24.981
   391.4,0.009052,0.005459,0.086145,0.001067,  24.979
   391.6,0.009017,0.005440,0.085938,0.001040,  24.980
   391.8,0.008989,0.005417,0.085847,0.001027,  24.979
   392.0,0.008957,0.005409,0.085844,0.001013,  24.982
   392.2,0.008930,0.005393,0.085775,0.000986,  24.983
   392.4,0.008894,0.005370,0.085705,0.000960,  24.987
   392.6,0.008869,0.005351,0.085609,0.000946,  24.981
   392.8,0.008848,0.005324,0.085526,0.000882,  24.984
   393.0,0.008815,0.005307,0.085452,0.000869,  24.983
   393.2,0.008793,0.005285,0.085343,0.000855,  24.986
   393.4,0.008779,0.005274,0.085315,0.000804,  24.987
   393.6,0.008753,0.005257,0.085299,0.000815,  24.988
   393.8,0.008731,0.005240,0.085304,0.000815,  24.987
   394.0,0.008715,0.005226,0.084904,0.000764,  24.985
   394.2,0.008702,0.005212,0.084276,0.000788,  24.986
   394.4,0.008686,0.005200,0.083441,0.000802,  24.985
   394.6,0.008671,0.005194,0.083346,0.000751,  24.987
   394.8,0.008658,0.005184,0.083521,0.000775,  24.987
   395.0,0.008649,0.005172,0.083944,0.000775,  24.986
   395.2,0.008639,0.005160,0.084091,0.000762,  24.983
   395.4,0.008637,0.005155,0.084245,0.000786,  24.991
   395.6,0.008628,0.005145,0.084391,0.000786,  24.987
   395.8,0.008612,0.005140,0.084484,0.000786,  24.985
   396.0,0.008596,0.005135,0.084571,0.000772,  24.985
   396.2,0.008576,0.005120,0.084626,0.000772,  24.985
   396.4,0.008561,0.005113,0.084672,0.000786,  24.986
   396.6,0.008552,0.005115,0.084656,0.000786,  24.986
   396.8,0.008548,0.005118,0.084628,0.000813,  24.983
   397.0,0.008554,0.005131,0.084599,0.000853,  24.984
   397.2,0.008581,0.005147,0.084537,0.000893,  24.989
   397.4,0.008592,0.005164,0.084442,0.000919,  24.984
   397.6,0.008611,0.005190,0.084311,0.000960,  24.979
   397.8,0.008640,0.005204,0.084187,0.000973,  24.983
   398.0,0.008649,0.005217,0.084050,0.001000,  24.977
   398.2,0.008658,0.005231,0.083069,0.001040,  24.980
   398.4,0.008672,0.005241,0.081710,0.001053,  24.976
   398.6,0.008672,0.005249,0.079957,0.001042,  24.977
   398.8,0.008680,0.005260,0.079679,0.001056,  24.973
   399.0,0.008698,0.005254,0.079887,0.001005,  24.975
   399.2,0.008685,0.005242,0.080636,0.001042,  24.976
   399.4,0.008651,0.005221,0.080733,0.001042,  24.973
   399.6,0.008626,0.005199,0.080763,0.000992,  24.973
   399.8,0.008594,0.005182,0.080739,0.001002,  24.975
   400.0,0.008558,0.005154,0.080637,0.000989,  24.977
   400.2,0.008526,0.005132,0.080713,0.000938,  24.978
   400.4,0.008487,0.005113,0.080817,0.000935,  24.981
   400.6,0.008456,0.005096,0.080939,0.000922,  24.980
   400.8,0.008425,0.005082,0.080969,0.000871,  24.980
   401.0,0.008389,0.005063,0.080920,0.000882,  24.981
   401.2,0.008364,0.005039,0.080867,0.000869,  24.981
   401.4,0.008338,0.005023,0.080851,0.000818,  24.981
   401.6,0.008309,0.005006,0.080851,0.000828,  24.982
   401.8,0.008287,0.004989,0.080831,0.000815,  24.983
   402.0,0.008269,0.004975,0.080662,0.000764,  24.983
   402.2,0.008246,0.004960,0.080415,0.000788,  24.984
   402.4,0.008227,0.004947,0.080054,0.000788,  24.981
   402.6,0.008222,0.004935,0.080165,0.000751,  24.984
   402.8,0.008199,0.004923,0.080450,0.000762,  24.984
   403.0,0.008195,0.004914,0.080888,0.000762,  24.982
   403.2,0.008188,0.004905,0.080946,0.000724,  24.980
   403.4,0.008165,0.004893,0.080934,0.000735,  24.983
   403.6,0.008155,0.004881,0.080745,0.000735,  24.984
   403.8,0.008138,0.004875,0.080683,0.000711,  24.986
   404.0,0.008122,0.004865,0.080650,0.000735,  24.982
   404.2,0.008112,0.004856,0.080584,0.000735,  24.981
   404.4,0.008098,0.004849,0.080523,0.000711,  24.985
   404.6,0.008093,0.004839,0.080461,0.000735,  24.983
   404.8,0.008087,0.004832,0.080367,0.000748,  24.983
   405.0,0.008081,0.004826,0.080318,0.000724,  24.984
   405.2,0.008074,0.004839,0.080303,0.000775,  24.983
   405.4,0.008080,0.004848,0.080287,0.000815,  24.987
   405.6,0.008092,0.004870,0.080172,0.000804,  24.977
   405.8,0.008122,0.004890,0.080033,0.000895,  24.981
   406.0,0.008136,0.004913,0.079839,0.000922,  24.983
   406.2,0.008155,0.004930,0.079663,0.000925,  24.982
   406.4,0.008181,0.004944,0.079495,0.000989,  24.977
   406.6,0.008190,0.004963,0.079259,0.001002,  24.978
   406.8,0.008202,0.004979,0.079100,0.001029,  24.976
   407.0,0.008216,0.004983,0.078955,0.001056,  24.974
   407.2,0.008212,0.004989,0.078830,0.001069,  24.975
   407.4,0.008205,0.004986,0.078639,0.001069,  24.971
   407.6,0.008200,0.004975,0.078387,0.001032,  24.971
   407.8,0.008177,0.004965,0.078118,0.001056,  24.971
   408.0,0.008152,0.004950,0.077935,0.001056,  24.969
   408.2,0.008120,0.004928,0.077772,0.001005,  24.972
   408.4,0.008092,0.004912,0.077643,0.001002,  24.974
   408.6,0.008061,0.004883,0.077529,0.000989,  24.975
   408.8,0.008026,0.004864,0.077386,0.000938,  24.975
   409.0,0.007998,0.004844,0.077265,0.000935,  24.975
   409.2,0.007970,0.004827,0.077110,0.000922,  24.975
   409.4,0.007938,0.004813,0.077009,0.000871,  24.973
   409.6,0.007910,0.004796,0.076915,0.000882,  24.977
   409.8,0.007885,0.004777,0.076822,0.000882,  24.977
   410.0,0.007864,0.004753,0.076761,0.000831,  24.977
   410.2,0.007835,0.004730,0.076692,0.000842,  24.981
   410.4,0.007816,0.004717,0.076652,0.000828,  24.979
   410.6,0.007801,0.004703,0.076611,0.000777,  24.981
   410.8,0.007775,0.004683,0.076530,0.000802,  24.980
   411.0,0.007762,0.004676,0.076457,0.000802,  24.980
   411.2,0.007751,0.004662,0.076404,0.000737,  24.983
   411.4,0.007725,0.004650,0.076311,0.000775,  24.980
   411.6,0.007721,0.004638,0.076225,0.000775,  24.981
   411.8,0.007714,0.004632,0.076238,0.000724,  24.985
   412.0,0.007691,0.004622,0.076263,0.000748,  24.986
   412.2,0.007678,0.004607,0.076320,0.000748,  24.983
   412.4,0.007669,0.004603,0.076312,0.000711,  24.984
   412.6,0.007659,0.004590,0.076272,0.000735,  24.983
   412.8,0.007645,0.004588,0.076219,0.000735,  24.980
   413.0,0.007639,0.004580,0.076113,0.000711,  24.985
   413.2,0.007633,0.004576,0.075954,0.000735,  24.984
   413.4,0.007630,0.004571,0.075784,0.000748,  24.981
   413.6,0.007627,0.004571,0.075756,0.000737,  24.984
   413.8,0.007627,0.004580,0.075760,0.000802,  24.983
   414.0,0.007635,0.004597,0.075830,0.000842,  24.984
   414.2,0.007658,0.004626,0.075737,0.000844,  24.983
   414.4,0.007683,0.004640,0.075563,0.000935,  24.982
   414.6,0.007694,0.004660,0.075331,0.000989,  24.982
   414.8,0.007707,0.004674,0.075202,0.000965,  24.974
   415.0,0.007720,0.004685,0.075090,0.001016,  24.976
   415.2,0.007722,0.004700,0.075019,0.001029,  24.976
   415.4,0.007728,0.004709,0.074691,0.001018,  24.975
   415.6,0.007738,0.004710,0.074279,0.001056,  24.975
   415.8,0.007725,0.004716,0.073750,0.001069,  24.973
   416.0,0.007712,0.004709,0.073509,0.001056,  24.973
   416.2,0.007704,0.004694,0.073360,0.001042,  24.970
   416.4,0.007678,0.004680,0.073249,0.001053,  24.973
   416.6,0.007646,0.004651,0.073140,0.001040,  24.975
   416.8,0.007619,0.004627,0.073049,0.001013,  24.976
   417.0,0.007583,0.004606,0.073021,0.000986,  24.976
   417.2,0.007549,0.004581,0.073005,0.000960,  24.977
   417.4,0.007519,0.004557,0.072905,0.000946,  24.978
   417.6,0.007483,0.004532,0.072752,0.000919,  24.975
   417.8,0.007455,0.004519,0.072575,0.000919,  24.980
   418.0,0.007423,0.004502,0.072482,0.000906,  24.980
   418.2,0.007398,0.004484,0.072410,0.000879,  24.985
   418.4,0.007373,0.004472,0.072337,0.000866,  24.979
   418.6,0.007359,0.004460,0.072309,0.000853,  24.983
   418.8,0.007329,0.004445,0.072262,0.000839,  24.987
   419.0,0.007310,0.004426,0.072254,0.000826,  24.982
   419.2,0.007299,0.004404,0.072226,0.000813,  24.984
   419.4,0.007276,0.004384,0.072186,0.000799,  24.984
   419.6,0.007257,0.004370,0.072146,0.000799,  24.984
   419.8,0.007246,0.004363,0.072053,0.000799,  24.985
   420.0,0.007223,0.004346,0.071921,0.000772,  24.983
   420.2,0.007207,0.004339,0.071792,0.000772,  24.985
   420.4,0.007202,0.004331,0.071663,0.000786,  24.984
   420.6,0.007183,0.004315,0.071474,0.000772,  24.985
   420.8,0.007172,0.004311,0.071261,0.000759,  24.987
   421.0,0.007172,0.004299,0.071213,0.000759,  24.986
   421.2,0.007155,0.004287,0.071257,0.000746,  24.985
   421.4,0.007143,0.004282,0.071326,0.000732,  24.986
   421.6,0.007133,0.004272,0.071342,0.000732,  24.990
   421.8,0.007130,0.004267,0.071355,0.000746,  24.986
   422.0,0.007122,0.004275,0.071355,0.000772,  24.987
   422.2,0.007132,0.004285,0.071359,0.000799,  24.988
   422.4,0.007145,0.004296,0.071364,0.000839,  24.987
   422.6,0.007167,0.004321,0.071308,0.000893,  24.984
   422.8,0.007185,0.004347,0.071240,0.000933,  24.989
   423.0,0.007206,0.004367,0.071180,0.000973,  24.986
   423.2,0.007221,0.004390,0.071072,0.001027,  24.984
   423.4,0.007247,0.004410,0.070892,0.001053,  24.986
   423.6,0.007263,0.004427,0.070660,0.001067,  24.981
   423.8,0.007271,0.004439,0.070388,0.001093,  24.983
   424.0,0.007281,0.004453,0.070213,0.001107,  24.983
   424.2,0.007281,0.004461,0.070038,0.001093,  24.983
   424.4,0.007268,0.004454,0.069883,0.001093,  24.982
   424.6,0.007260,0.004448,0.069695,0.001093,  24.985
   424.8,0.007238,0.004433,0.069468,0.001080,  24.984
   425.0,0.007205,0.004410,0.069265,0.001053,  24.985
   425.2,0.007181,0.004386,0.069034,0.001040,  24.984
   425.4,0.007143,0.004361,0.068818,0.001013,  24.986
   425.6,0.007108,0.004331,0.068591,0.000973,  24.989
   425.8,0.007087,0.004313,0.068460,0.000960,  24.990
   426.0,0.007053,0.004292,0.068360,0.000933,  24.990
   426.2,0.007020,0.004270,0.068301,0.000906,  24.992
   426.4,0.007002,0.004254,0.068281,0.000893,  24.998
   426.6,0.006974,0.004235,0.068253,0.000879,  24.996
   426.8,0.006945,0.004216,0.068194,0.000866,  24.996
   427.0,0.006930,0.004199,0.068154,0.000853,  24.998
   427.2,0.006908,0.004187,0.068126,0.000802,  25.003
   427.4,0.006885,0.004173,0.068094,0.000788,  24.995
   427.6,0.006870,0.004163,0.068074,0.000802,  25.001
   427.8,0.006857,0.004153,0.068027,0.000751,  24.998
   428.0,0.006837,0.004138,0.067995,0.000775,  25.002
   428.2,0.006821,0.004133,0.067916,0.000775,  25.005
   428.4,0.006816,0.004124,0.067733,0.000724,  24.998
   428.6,0.006796,0.004116,0.067506,0.000748,  25.000
   428.8,0.006791,0.004106,0.067196,0.000748,  25.002
   429.0,0.006791,0.004098,0.067228,0.000711,  25.003
   429.2,0.006774,0.004085,0.067347,0.000735,  25.004
   429.4,0.006761,0.004083,0.067626,0.000735,  25.002
   429.6,0.006756,0.004074,0.067733,0.000711,  25.002
   429.8,0.006739,0.004064,0.067809,0.000735,  25.005
   430.0,0.006730,0.004052,0.067865,0.000735,  25.001
   430.2,0.006722,0.004048,0.067869,0.000711,  25.005
   430.4,0.006720,0.004055,0.067857,0.000735,  25.005
   430.6,0.006736,0.004059,0.067786,0.000762,  25.007
   430.8,0.006765,0.004082,0.067726,0.000777,  25.003
   431.0,0.006781,0.004101,0.067655,0.000855,  25.003
   431.2,0.006800,0.004119,0.067543,0.000895,  25.008
   431.4,0.006816,0.004149,0.067476,0.000911,  25.005
   431.6,0.006831,0.004166,0.067421,0.000976,  25.008
   431.8,0.006847,0.004188,0.067326,0.001002,  25.005
   432.0,0.006863,0.004211,0.067159,0.001005,  25.007
   432.2,0.006878,0.004223,0.066977,0.001056,  25.004
   432.4,0.006877,0.004233,0.066715,0.001069,  25.005
   432.6,0.006880,0.004240,0.066497,0.001032,  25.005
   432.8,0.006885,0.004240,0.066268,0.001069,  25.007
   433.0,0.006868,0.004229,0.066026,0.001069,  25.006
   433.2,0.006852,0.004217,0.065880,0.001005,  25.007
   433.4,0.006821,0.004205,0.065738,0.001016,  25.010
   433.6,0.006785,0.004178,0.065624,0.001002,  25.011
   433.8,0.006764,0.004157,0.065517,0.000938,  25.009
   434.0,0.006730,0.004139,0.065399,0.000935,  25.014
   434.2,0.006691,0.004113,0.065288,0.000909,  25.013
   434.4,0.006667,0.004092,0.065170,0.000871,  25.012
   434.6,0.006636,0.004068,0.065028,0.000882,  25.011
   434.8,0.006603,0.004049,0.064901,0.000882,  25.011
   435.0,0.006583,0.004030,0.064874,0.000869,  25.014
   435.2,0.006562,0.004007,0.064838,0.000842,  25.018
   435.4,0.006536,0.003986,0.064870,0.000828,  25.019
   435.6,0.006514,0.003974,0.064830,0.000815,  25.015
   435.8,0.006502,0.003956,0.064803,0.000764,  25.023
   436.0,0.006479,0.003936,0.064759,0.000802,  25.017
   436.2,0.006464,0.003930,0.064716,0.000815,  25.018
   436.4,0.006452,0.003914,0.064696,0.000751,  25.020
   436.6,0.006432,0.003899,0.064657,0.000775,  25.019
   436.8,0.006417,0.003896,0.064629,0.000775,  25.021
   437.0,0.006398,0.003892,0.064456,0.000724,  25.020
   437.2,0.006378,0.003879,0.064192,0.000748,  25.021
   437.4,0.006373,0.003872,0.063853,0.000748,  25.018
   437.6,0.006357,0.003864,0.063774,0.000711,  25.017
   437.8,0.006337,0.003857,0.063813,0.000735,  25.016
   438.0,0.006332,0.003850,0.063935,0.000735,  25.019
   438.2,0.006320,0.003840,0.063774,0.000711,  25.022
   438.4,0.006306,0.003835,0.063491,0.000735,  25.021
   438.6,0.006300,0.003823,0.063133,0.000748,  25.015
   438.8,0.006294,0.003815,0.063157,0.000724,  25.020
   439.0,0.006299,0.003825,0.063314,0.000775,  25.017
   439.2,0.006314,0.003831,0.063605,0.000815,  25.024
   439.4,0.006347,0.003859,0.063637,0.000804,  25.018
   439.6,0.006361,0.003880,0.063566,0.000895,  25.018
   439.8,0.006383,0.003891,0.063420,0.000935,  25.014
   440.0,0.006409,0.003918,0.063342,0.000925,  25.018
   440.2,0.006421,0.003938,0.063224,0.000989,  25.017
   440.4,0.006441,0.003949,0.063059,0.001016,  25.017
   440.6,0.006454,0.003969,0.062945,0.001005,  25.020
   440.8,0.006468,0.003978,0.062832,0.001056,  25.015
   441.0,0.006461,0.003983,0.062710,0.001069,  25.015
   441.2,0.006454,0.003992,0.062557,0.001018,  25.013
   441.4,0.006445,0.003989,0.062381,0.001042,  25.016
   441.6,0.006429,0.003969,0.062185,0.001042,  25.013
   441.8,0.006404,0.003952,0.062059,0.000978,  25.011
   442.0,0.006377,0.003930,0.061926,0.000989,  25.007
   442.2,0.006342,0.003912,0.061801,0.000976,  25.009
   442.4,0.006310,0.003889,0.061687,0.000911,  25.010
   442.6,0.006280,0.003868,0.061601,0.000922,  25.010
   442.8,0.006245,0.003846,0.061551,0.000909,  25.014
   443.0,0.006213,0.003829,0.061453,0.000844,  25.016
   443.2,0.006193,0.003812,0.061331,0.000882,  25.013
   443.4,0.006163,0.003787,0.061238,0.000855,  25.018
   443.6,0.006141,0.003768,0.060983,0.000842,  25.014
   443.8,0.006116,0.003751,0.060620,0.000815,  25.018
   444.0,0.006090,0.003736,0.060203,0.000802,  25.021
   444.2,0.006079,0.003719,0.060113,0.000788,  25.020
   444.4,0.006057,0.003707,0.060168,0.000737,  25.016
   444.6,0.006031,0.003698,0.060351,0.000762,  25.018
   444.8,0.006026,0.003689,0.060640,0.000762,  25.018
   445.0,0.006010,0.003679,0.060694,0.000724,  25.020
   445.2,0.005990,0.003667,0.060733,0.000735,  25.024
   445.4,0.005985,0.003657,0.060714,0.000735,  25.018
   445.6,0.005973,0.003644,0.060757,0.000711,  25.018
   445.8,0.005953,0.003640,0.060800,0.000735,  25.017
   446.0,0.005948,0.003632,0.060843,0.000735,  25.016
   446.2,0.005935,0.003631,0.060804,0.000697,  25.014
   446.4,0.005918,0.003618,0.060722,0.000721,  25.019
   446.6,0.005913,0.003616,0.060605,0.000708,  25.018
   446.8,0.005911,0.003609,0.060671,0.000671,  25.021
   447.0,0.005904,0.003604,0.060847,0.000708,  25.018
   447.2,0.005907,0.003604,0.061077,0.000721,  25.020
   447.4,0.005921,0.003607,0.061019,0.000711,  25.020
   447.6,0.005932,0.003625,0.060862,0.000788,  25.016
   447.8,0.005957,0.003647,0.060573,0.000842,  25.018
   448.0,0.005996,0.003674,0.060452,0.000844,  25.020
   448.2,0.006016,0.003698,0.060363,0.000922,  25.016
   448.4,0.006038,0.003722,0.060304,0.000976,  25.017
   448.6,0.006064,0.003742,0.060199,0.000951,  25.016
   448.8,0.006080,0.003759,0.060101,0.001016,  25.011
   449.0,0.006089,0.003770,0.059949,0.001056,  25.013
   449.2,0.006099,0.003795,0.059817,0.001032,  25.007
   449.4,0.006099,0.003805,0.059672,0.001083,  25.007
   449.6,0.006096,0.003804,0.059509,0.001083,  25.007
   449.8,0.006097,0.003807,0.059333,0.001032,  25.002
   450.0,0.006084,0.003800,0.059147,0.001042,  25.006
   450.2,0.006058,0.003778,0.058941,0.001029,  25.002
   450.4,0.006037,0.003762,0.058804,0.000965,  25.004
   450.6,0.006006,0.003745,0.058641,0.000976,  25.004
   450.8,0.005974,0.003718,0.058544,0.000949,  25.009
   451.0,0.005950,0.003694,0.058416,0.000911,  25.011
   451.2,0.005919,0.003678,0.058264,0.000922,  25.013
   451.4,0.005886,0.003657,0.058101,0.000909,  25.014
   451.6,0.005861,0.003634,0.057307,0.000895,  25.016
   451.8,0.005833,0.003619,0.056202,0.000869,  25.011
   452.0,0.005807,0.003602,0.054752,0.000855,  25.019
   452.2,0.005782,0.003581,0.054713,0.000842,  25.016
   452.4,0.005767,0.003561,0.055205,0.000804,  25.014
   452.6,0.005744,0.003547,0.056198,0.000815,  25.018
   452.8,0.005726,0.003533,0.056542,0.000815,  25.015
   453.0,0.005717,0.003524,0.056835,0.000764,  25.015
   453.2,0.005697,0.003511,0.057028,0.000788,  25.018
   453.4,0.005682,0.003501,0.057152,0.000788,  25.018
   453.6,0.005674,0.003494,0.057303,0.000751,  25.017
   453.8,0.005654,0.003479,0.057396,0.000762,  25.019
   454.0,0.005641,0.003477,0.057454,0.000762,  25.020
   454.2,0.005633,0.003473,0.057504,0.000724,  25.017
   454.4,0.005616,0.003464,0.057504,0.000735,  25.018
   454.6,0.005604,0.003454,0.057493,0.000735,  25.022
   454.8,0.005602,0.003448,0.057543,0.000711,  25.022
   455.0,0.005585,0.003440,0.057586,0.000735,  25.021
   455.2,0.005576,0.003433,0.057640,0.000735,  25.018
   455.4,0.005567,0.003425,0.057651,0.000711,  25.018
   455.6,0.005566,0.003428,0.057640,0.000735,  25.024
   455.8,0.005579,0.003432,0.057562,0.000762,  25.021
   456.0,0.005602,0.003441,0.057461,0.000764,  25.019
   456.2,0.005616,0.003461,0.057299,0.000842,  25.023
   456.4,0.005644,0.003477,0.057113,0.000882,  25.024
   456.6,0.005680,0.003508,0.057086,0.000885,  25.020
   456.8,0.005697,0.003530,0.057101,0.000962,  25.024
   457.0,0.005716,0.003549,0.057186,0.000989,  25.019
   457.2,0.005739,0.003572,0.057093,0.000978,  25.017
   457.4,0.005752,0.003591,0.056958,0.001042,  25.017
   457.6,0.005761,0.003609,0.056745,0.001056,  25.014
   457.8,0.005764,0.003619,0.056621,0.001018,  25.019
   458.0,0.005761,0.003625,0.056478,0.001069,  25.015
   458.2,0.005752,0.003620,0.056346,0.001069,  25.017
   458.4,0.005739,0.003610,0.056223,0.001018,  25.017
   458.6,0.005720,0.003593,0.056060,0.001029,  25.023
   458.8,0.005691,0.003576,0.055898,0.001029,  25.018
   459.0,0.005671,0.003557,0.055763,0.000978,  25.021
   459.2,0.005647,0.003535,0.055635,0.000976,  25.024
   459.4,0.005611,0.003508,0.055504,0.000962,  25.019
   459.6,0.005590,0.003486,0.055227,0.000911,  25.028
   459.8,0.005562,0.003461,0.054838,0.000909,  25.029
   460.0,0.005530,0.003439,0.054389,0.000895,  25.027
   460.2,0.005512,0.003431,0.054373,0.000844,  25.032
   460.4,0.005487,0.003416,0.054535,0.000869,  25.033
   460.6,0.005461,0.003399,0.054884,0.000855,  25.029
   460.8,0.005442,0.003382,0.054965,0.000855,  25.030
   461.0,0.005421,0.003370,0.054984,0.000828,  25.033
   461.2,0.005398,0.003353,0.054981,0.000815,  25.034
   461.4,0.005382,0.003341,0.055011,0.000815,  25.032
   461.6,0.005374,0.003329,0.055061,0.000751,  25.035
   461.8,0.005354,0.003318,0.055084,0.000775,  25.037
   462.0,0.005338,0.003314,0.055126,0.000788,  25.030
   462.2,0.005333,0.003307,0.055169,0.000737,  25.030
   462.4,0.005316,0.003294,0.055211,0.000775,  25.031
   462.6,0.005307,0.003284,0.055253,0.000775,  25.035
   462.8,0.005305,0.003276,0.055253,0.000737,  25.033
   463.0,0.005285,0.003274,0.055203,0.000762,  25.032
   463.2,0.005276,0.003266,0.055111,0.000762,  25.035
   463.4,0.005274,0.003269,0.055122,0.000724,  25.037
   463.6,0.005257,0.003264,0.055165,0.000748,  25.036
   463.8,0.005251,0.003260,0.055199,0.000762,  25.035
   464.0,0.005252,0.003248,0.055233,0.000724,  25.037
   464.2,0.005257,0.003254,0.055264,0.000775,  25.043
   464.4,0.005279,0.003269,0.055283,0.000802,  25.039
   464.6,0.005308,0.003291,0.055183,0.000804,  25.038
   464.8,0.005323,0.003312,0.055041,0.000882,  25.039
   465.0,0.005351,0.003333,0.054837,0.000922,  25.043
   465.2,0.005383,0.003358,0.054760,0.000925,  25.040
   465.4,0.005398,0.003381,0.054753,0.000989,  25.039
   465.6,0.005416,0.003397,0.054779,0.001016,  25.037
   465.8,0.005432,0.003415,0.054675,0.001005,  25.036
   466.0,0.005437,0.003424,0.054490,0.001069,  25.039
   466.2,0.005448,0.003433,0.054237,0.001069,  25.040
   466.4,0.005452,0.003450,0.053922,0.001032,  25.040
   466.6,0.005446,0.003448,0.053511,0.001069,  25.038
   466.8,0.005436,0.003437,0.053009,0.001069,  25.044
   467.0,0.005421,0.003425,0.052814,0.001005,  25.045
   467.2,0.005396,0.003412,0.052691,0.001016,  25.046
   467.4,0.005374,0.003393,0.052664,0.000965,  25.047
   467.6,0.005346,0.003365,0.052660,0.000938,  25.050
   467.8,0.005311,0.003346,0.052694,0.000911,  25.046
   468.0,0.005276,0.003321,0.052778,0.000847,  25.049
   468.2,0.005248,0.003299,0.052800,0.000871,  25.052
   468.4,0.005227,0.003277,0.052819,0.000844,  25.052
   468.6,0.005195,0.003252,0.052800,0.000831,  25.051
   468.8,0.005180,0.003236,0.052762,0.000831,  25.054
   469.0,0.005166,0.003216,0.052709,0.000804,  25.052
   469.2,0.005140,0.003204,0.052579,0.000804,  25.051
   469.4,0.005128,0.003189,0.052601,0.000804,  25.054
   469.6,0.005110,0.003175,0.052674,0.000791,  25.053
   469.8,0.005090,0.003166,0.052796,0.000764,  25.054
   470.0,0.005082,0.003157,0.052815,0.000764,  25.054
   470.2,0.005066,0.003144,0.052777,0.000751,  25.054
   470.4,0.005049,0.003140,0.052697,0.000788,  25.052
   470.6,0.005037,0.003129,0.052677,0.000802,  25.051
   470.8,0.005024,0.003122,0.052670,0.000751,  25.054
   471.0,0.005004,0.003118,0.052670,0.000775,  25.052
   471.2,0.004995,0.003109,0.052681,0.000775,  25.054
   471.4,0.004986,0.003105,0.052692,0.000737,  25.053
   471.6,0.004966,0.003100,0.052723,0.000762,  25.057
   471.8,0.004964,0.003091,0.052746,0.000762,  25.054
   472.0,0.004965,0.003091,0.052738,0.000737,  25.057
   472.2,0.004954,0.003089,0.052727,0.000762,  25.055
   472.4,0.004959,0.003081,0.052669,0.000775,  25.058
   472.6,0.004963,0.003073,0.052650,0.000751,  25.054
   472.8,0.004974,0.003088,0.052619,0.000802,  25.054
   473.0,0.005007,0.003109,0.052589,0.000842,  25.054
   473.2,0.005038,0.003138,0.052611,0.000831,  25.054
   473.4,0.005059,0.003162,0.052653,0.000922,  25.056
   473.6,0.005091,0.003186,0.052687,0.000976,  25.056
   473.8,0.005116,0.003212,0.052630,0.000965,  25.051
   474.0,0.005127,0.003234,0.052515,0.001029,  25.052
   474.2,0.005150,0.003250,0.052350,0.001069,  25.051
   474.4,0.005163,0.003267,0.052235,0.001045,  25.053
   474.6,0.005161,0.003277,0.052113,0.001083,  25.055
   474.8,0.005163,0.003282,0.051990,0.001083,  25.053
   475.0,0.005156,0.003282,0.051787,0.001083,  25.055
   475.2,0.005147,0.003274,0.051546,0.001093,  25.054
   475.4,0.005124,0.003260,0.051280,0.001080,  25.056
   475.6,0.005105,0.003243,0.051157,0.001053,  25.056
   475.8,0.005088,0.003227,0.051103,0.001027,  25.055
   476.0,0.005059,0.003205,0.051118,0.001013,  25.053
   476.2,0.005035,0.003181,0.051023,0.000986,  25.055
   476.4,0.005004,0.003159,0.050905,0.000960,  25.055
   476.6,0.004968,0.003143,0.050756,0.000946,  25.052
   476.8,0.004951,0.003125,0.050726,0.000919,  25.059
   477.0,0.004926,0.003106,0.050707,0.000906,  25.060
   477.2,0.004893,0.003081,0.050688,0.000893,  25.060
   477.4,0.004879,0.003067,0.050680,0.000879,  25.061
   477.6,0.004857,0.003055,0.050710,0.000853,  25.059
   477.8,0.004834,0.003033,0.050710,0.000839,  25.058
   478.0,0.004823,0.003024,0.050714,0.000839,  25.059
   478.2,0.004807,0.003012,0.050744,0.000839,  25.057
   478.4,0.004787,0.003000,0.050755,0.000826,  25.058
   478.6,0.004782,0.002993,0.050797,0.000826,  25.057
   478.8,0.004770,0.002989,0.050820,0.000826,  25.059
   479.0,0.004753,0.002973,0.050850,0.000813,  25.060
   479.2,0.004748,0.002965,0.050820,0.000826,  25.056
   479.4,0.004742,0.002960,0.050748,0.000813,  25.059
   479.6,0.004728,0.002950,0.050607,0.000813,  25.059
   479.8,0.004723,0.002950,0.050588,0.000813,  25.062
   480.0,0.004714,0.002942,0.050599,0.000775,  25.057
   480.2,0.004700,0.002932,0.050649,0.000762,  25.057
   480.4,0.004698,0.002925,0.050721,0.000762,  25.060
   480.6,0.004689,0.002922,0.050682,0.000737,  25.055
   480.8,0.004687,0.002917,0.050584,0.000762,  25.058
   481.0,0.004701,0.002920,0.050500,0.000788,  25.059
   481.2,0.004710,0.002926,0.050451,0.000777,  25.061
   481.4,0.004728,0.002939,0.050402,0.000842,  25.057
   481.6,0.004763,0.002968,0.050333,0.000869,  25.059
   481.8,0.004795,0.002998,0.050306,0.000871,  25.058
   482.0,0.004815,0.003027,0.050325,0.000949,  25.057
   482.2,0.004848,0.003051,0.050356,0.000976,  25.058
   482.4,0.004869,0.003078,0.050291,0.000965,  25.057
   482.6,0.004881,0.003100,0.050184,0.001042,  25.057
   482.8,0.004901,0.003114,0.050051,0.001083,  25.052
   483.0,0.004910,0.003126,0.049948,0.001045,  25.054
   483.2,0.004906,0.003133,0.049806,0.001083,  25.051
   483.4,0.004904,0.003131,0.049684,0.001083,  25.053
   483.6,0.004891,0.003131,0.049513,0.001045,  25.052
   483.8,0.004868,0.003124,0.049319,0.001056,  25.056
   484.0,0.004854,0.003104,0.049115,0.001042,  25.059
   484.2,0.004823,0.003088,0.048993,0.000978,  25.059
   484.4,0.004801,0.003071,0.048909,0.000989,  25.058
   484.6,0.004775,0.003047,0.048863,0.000976,  25.059
   484.8,0.004750,0.003023,0.048866,0.000911,  25.061
   485.0,0.004735,0.003004,0.048908,0.000922,  25.062
   485.2,0.004706,0.002982,0.048949,0.000909,  25.058
   485.4,0.004685,0.002966,0.048889,0.000844,  25.064
   485.6,0.004661,0.002952,0.048768,0.000869,  25.063
   485.8,0.004634,0.002927,0.048568,0.000855,  25.065
   486.0,0.004620,0.002916,0.048568,0.000804,  25.062
   486.2,0.004601,0.002906,0.048617,0.000815,  25.067
   486.4,0.004581,0.002889,0.048719,0.000815,  25.064
   486.6,0.004570,0.002879,0.048752,0.000764,  25.066
   486.8,0.004555,0.002870,0.048783,0.000788,  25.067
   487.0,0.004535,0.002860,0.048794,0.000788,  25.067
   487.2,0.004530,0.002848,0.048794,0.000751,  25.066
   487.4,0.004514,0.002839,0.048775,0.000788,  25.068
   487.6,0.004497,0.002829,0.048714,0.000775,  25.066
   487.8,0.004492,0.002820,0.048695,0.000775,  25.066
   488.0,0.004483,0.002815,0.048684,0.000762,  25.062
   488.2,0.004466,0.002804,0.048646,0.000748,  25.065
   488.4,0.004464,0.002800,0.048657,0.000748,  25.070
   488.6,0.004452,0.002793,0.048695,0.000711,  25.065
   488.8,0.004438,0.002786,0.048707,0.000735,  25.066
   489.0,0.004439,0.002783,0.048707,0.000735,  25.067
   489.2,0.004430,0.002788,0.048707,0.000711,  25.068
   489.4,0.004432,0.002794,0.048688,0.000735,  25.065
   489.6,0.004458,0.002811,0.048638,0.000762,  25.064
   489.8,0.004480,0.002830,0.048581,0.000777,  25.067
   490.0,0.004500,0.002848,0.048551,0.000855,  25.070
   490.2,0.004536,0.002877,0.048491,0.000895,  25.068
   490.4,0.004567,0.002896,0.048494,0.000911,  25.066
   490.6,0.004588,0.002918,0.048562,0.000976,  25.065
   490.8,0.004620,0.002932,0.048623,0.001002,  25.066
   491.0,0.004642,0.002957,0.048430,0.001005,  25.066
   491.2,0.004650,0.002974,0.048127,0.001056,  25.064
   491.4,0.004670,0.002989,0.047670,0.001069,  25.069
   491.6,0.004673,0.003003,0.047507,0.001032,  25.064
   491.8,0.004659,0.003008,0.047442,0.001069,  25.067
   492.0,0.004654,0.003001,0.047411,0.001069,  25.065
   492.2,0.004636,0.002992,0.047317,0.001018,  25.066
   492.4,0.004606,0.002978,0.047184,0.001029,  25.068
   492.6,0.004586,0.002959,0.047033,0.001029,  25.062
   492.8,0.004555,0.002937,0.046968,0.000965,  25.063
   493.0,0.004519,0.002913,0.046903,0.000962,  25.064
   493.2,0.004498,0.002892,0.046847,0.000935,  25.069
   493.4,0.004467,0.002879,0.046869,0.000885,  25.064
   493.6,0.004442,0.002854,0.046921,0.000882,  25.065
   493.8,0.004419,0.002833,0.047008,0.000855,  25.067
   494.0,0.004401,0.002814,0.047019,0.000804,  25.070
   494.2,0.004396,0.002788,0.047000,0.000828,  25.071
   494.4,0.004373,0.002774,0.046932,0.000815,  25.072
   494.6,0.004358,0.002759,0.046943,0.000764,  25.071
   494.8,0.004343,0.002741,0.046962,0.000802,  25.068
   495.0,0.004320,0.002729,0.046970,0.000815,  25.071
   495.2,0.004312,0.002721,0.046921,0.000751,  25.070
   495.4,0.004299,0.002713,0.046850,0.000775,  25.072
   495.6,0.004279,0.002703,0.046730,0.000775,  25.074
   495.8,0.004277,0.002694,0.046700,0.000724,  25.072
   496.0,0.004268,0.002689,0.046681,0.000748,  25.073
   496.2,0.004254,0.002675,0.046654,0.000748,  25.076
   496.4,0.004252,0.002673,0.046673,0.000697,  25.072
   496.6,0.004243,0.002669,0.046673,0.000748,  25.075
   496.8,0.004229,0.002660,0.046673,0.000748,  25.075
   497.0,0.004231,0.002654,0.046733,0.000735,  25.071
   497.2,0.004221,0.002652,0.046804,0.000735,  25.070
   497.4,0.004211,0.002647,0.046906,0.000735,  25.070
   497.6,0.004215,0.002642,0.046936,0.000735,  25.071
   497.8,0.004209,0.002650,0.046966,0.000724,  25.071
   498.0,0.004220,0.002664,0.046955,0.000762,  25.071
   498.2,0.004252,0.002694,0.046943,0.000802,  25.072
   498.4,0.004293,0.002722,0.046955,0.000804,  25.074
   498.6,0.004320,0.002748,0.046966,0.000895,  25.074
   498.8,0.004358,0.002787,0.046996,0.000935,  25.068
   499.0,0.004393,0.002805,0.046920,0.000938,  25.066
   499.2,0.004413,0.002829,0.046814,0.001002,  25.066
   499.4,0.004442,0.002843,0.046686,0.001029,  25.067
   499.6,0.004458,0.002857,0.046592,0.001018,  25.062
   499.8,0.004463,0.002868,0.046497,0.001069,  25.064
   500.0,0.004472,0.002883,0.046395,0.001069,  25.066
   500.2,0.004472,0.002891,0.046075,0.001032,  25.061
   500.4,0.004459,0.002891,0.045609,0.001069,  25.063
   500.6,0.004440,0.002878,0.045017,0.001069,  25.061
   500.8,0.004419,0.002871,0.044877,0.001005,  25.059
   501.0,0.004387,0.002855,0.044940,0.001016,  25.060
   501.2,0.004359,0.002831,0.045149,0.001002,  25.065
   501.4,0.004332,0.002805,0.045193,0.000925,  25.062
   501.6,0.004300,0.002786,0.045245,0.000922,  25.063
   501.8,0.004279,0.002765,0.045305,0.000909,  25.059
   502.0,0.004259,0.002741,0.044780,0.000844,  25.066
   502.2,0.004237,0.002724,0.043917,0.000869,  25.070
   502.4,0.004211,0.002699,0.042799,0.000818,  25.067
   502.6,0.004198,0.002680,0.042598,0.000804,  25.069
   502.8,0.004186,0.002663,0.042721,0.000777,  25.066
   503.0,0.004170,0.002641,0.043146,0.000740,  25.073
   503.2,0.004159,0.002630,0.043399,0.000751,  25.072
   503.4,0.004140,0.002616,0.043727,0.000737,  25.076
   503.6,0.004117,0.002601,0.044104,0.000700,  25.076
   503.8,0.004112,0.002597,0.044369,0.000724,  25.072
   504.0,0.004103,0.002590,0.044612,0.000711,  25.071
   504.2,0.004083,0.002585,0.044799,0.000673,  25.077
   504.4,0.004081,0.002580,0.044897,0.000711,  25.071
   504.6,0.004075,0.002578,0.044923,0.000711,  25.072
   504.8,0.004061,0.002568,0.044890,0.000711,  25.074
   505.0,0.004059,0.002560,0.044909,0.000711,  25.074
   505.2,0.004050,0.002553,0.044909,0.000697,  25.074
   505.4,0.004036,0.002544,0.044928,0.000697,  25.075
   505.6,0.004038,0.002543,0.044509,0.000697,  25.074
   505.8,0.004028,0.002538,0.043859,0.000684,  25.074
   506.0,0.004021,0.002538,0.042986,0.000684,  25.070
   506.2,0.004031,0.002541,0.043046,0.000660,  25.072
   506.4,0.004038,0.002560,0.043433,0.000711,  25.073
   506.6,0.004052,0.002573,0.044153,0.000737,  25.073
   506.8,0.004090,0.002604,0.044377,0.000777,  25.074
   507.0,0.004131,0.002632,0.044534,0.000818,  25.076
   507.2,0.004155,0.002659,0.044583,0.000909,  25.074
   507.4,0.004196,0.002693,0.044572,0.000962,  25.072
   507.6,0.004227,0.002711,0.044683,0.000951,  25.069
   507.8,0.004248,0.002733,0.044821,0.001016,  25.065
   508.0,0.004277,0.002753,0.044933,0.001056,  25.065
   508.2,0.004293,0.002765,0.044917,0.001032,  25.063
   508.4,0.004295,0.002774,0.044823,0.001083,  25.066
   508.6,0.004302,0.002785,0.044632,0.001083,  25.063
   508.8,0.004296,0.002787,0.044549,0.001045,  25.060
   509.0,0.004279,0.002777,0.044473,0.001069,  25.063
   509.2,0.004265,0.002767,0.044371,0.001042,  25.060
   509.4,0.004234,0.002758,0.043997,0.000992,  25.061
   509.6,0.004209,0.002739,0.043512,0.001002,  25.066
   509.8,0.004181,0.002721,0.042855,0.000989,  25.064
   510.0,0.004151,0.002698,0.042762,0.000925,  25.068
   510.2,0.004130,0.002676,0.042899,0.000922,  25.067
   510.4,0.004110,0.002658,0.043249,0.000909,  25.066
   510.6,0.004093,0.002634,0.043416,0.000844,  25.069
   510.8,0.004072,0.002615,0.043573,0.000855,  25.068
   511.0,0.004046,0.002599,0.043729,0.000842,  25.070
   511.2,0.004023,0.002579,0.043819,0.000791,  25.071
   511.4,0.004000,0.002565,0.043875,0.000802,  25.078
   511.6,0.003986,0.002548,0.043883,0.000802,  25.076
   511.8,0.003981,0.002533,0.043931,0.000737,  25.077
   512.0,0.003975,0.002523,0.044006,0.000775,  25.074
   512.2,0.003962,0.002513,0.044055,0.000775,  25.078
   512.4,0.003950,0.002504,0.044077,0.000724,  25.078
   512.6,0.003937,0.002497,0.044115,0.000748,  25.080
   512.8,0.003928,0.002490,0.044126,0.000748,  25.078
   513.0,0.003911,0.002483,0.044126,0.000697,  25.080
   513.2,0.003899,0.002479,0.044088,0.000721,  25.081
   513.4,0.003893,0.002469,0.044058,0.000708,  25.082
   513.6,0.003879,0.002463,0.044085,0.000671,  25.077
   513.8,0.003877,0.002458,0.044085,0.000708,  25.079
   514.0,0.003871,0.002456,0.044077,0.000708,  25.078
   514.2,0.003857,0.002450,0.044107,0.000671,  25.083
   514.4,0.003858,0.002448,0.044126,0.000721,  25.074
   514.6,0.003864,0.002452,0.044144,0.000708,  25.077
   514.8,0.003866,0.002456,0.044204,0.000735,  25.075
   515.0,0.003889,0.002479,0.044275,0.000762,  25.080
   515.2,0.003917,0.002508,0.044353,0.000788,  25.082
   515.4,0.003944,0.002541,0.044383,0.000842,  25.081
   515.6,0.003992,0.002567,0.044402,0.000844,  25.078
   515.8,0.004023,0.002592,0.044383,0.000922,  25.076
   516.0,0.004044,0.002617,0.044315,0.000976,  25.077
   516.2,0.004079,0.002632,0.044181,0.000965,  25.075
   516.4,0.004104,0.002654,0.044035,0.001029,  25.072
   516.6,0.004112,0.002673,0.043830,0.001056,  25.064
   516.8,0.004132,0.002688,0.043758,0.001032,  25.062
   517.0,0.004138,0.002696,0.043675,0.001069,  25.061
   517.2,0.004125,0.002694,0.043606,0.001069,  25.063
   517.4,0.004120,0.002691,0.043467,0.001018,  25.062
   517.6,0.004104,0.002680,0.043324,0.001029,  25.064
   517.8,0.004072,0.002665,0.043152,0.001016,  25.063
   518.0,0.004048,0.002642,0.043059,0.000951,  25.067
   518.2,0.004016,0.002621,0.043013,0.000949,  25.062
   518.4,0.003985,0.002603,0.042995,0.000922,  25.070
   518.6,0.003957,0.002576,0.042909,0.000871,  25.070
   518.8,0.003927,0.002549,0.042830,0.000882,  25.072
   519.0,0.003907,0.002524,0.042712,0.000869,  25.077
   519.2,0.003882,0.002502,0.042228,0.000818,  25.079
   519.4,0.003856,0.002480,0.041541,0.000828,  25.081
   519.6,0.003845,0.002463,0.040645,0.000815,  25.081
   519.8,0.003826,0.002449,0.040648,0.000751,  25.081
   520.0,0.003803,0.002437,0.041033,0.000775,  25.085
   520.2,0.003795,0.002422,0.041748,0.000775,  25.076
   520.4,0.003782,0.002410,0.042001,0.000724,  25.081
   520.6,0.003773,0.002401,0.042164,0.000735,  25.081
   520.8,0.003759,0.002391,0.042287,0.000721,  25.081
   521.0,0.003750,0.002384,0.042414,0.000684,  25.082
   521.2,0.003751,0.002374,0.042510,0.000708,  25.085
   521.4,0.003734,0.002371,0.042559,0.000695,  25.083
   521.6,0.003733,0.002369,0.042637,0.000657,  25.088
   521.8,0.003723,0.002364,0.042715,0.000695,  25.080
   522.0,0.003710,0.002357,0.042790,0.000708,  25.084
   522.2,0.003707,0.002355,0.042849,0.000657,  25.081
   522.4,0.003700,0.002356,0.042898,0.000681,  25.082
   522.6,0.003690,0.002354,0.042954,0.000695,  25.084
   522.8,0.003687,0.002343,0.042935,0.000657,  25.084
   523.0,0.003688,0.002348,0.042895,0.000695,  25.085
   523.2,0.003696,0.002362,0.042813,0.000708,  25.087
   523.4,0.003718,0.002379,0.042832,0.000711,  25.086
   523.6,0.003750,0.002402,0.042880,0.000775,  25.085
   523.8,0.003777,0.002430,0.042970,0.000815,  25.086
   524.0,0.003818,0.002470,0.043048,0.000869,  25.084
   524.2,0.003866,0.002500,0.043126,0.000909,  25.087
   524.4,0.003893,0.002527,0.043177,0.000935,  25.079
   524.6,0.003929,0.002549,0.043162,0.000989,  25.074
   524.8,0.003957,0.002571,0.043087,0.000978,  25.076
   525.0,0.003978,0.002594,0.042974,0.001029,  25.074
   525.2,0.003991,0.002613,0.042881,0.001056,  25.072
   525.4,0.004008,0.002641,0.042749,0.001032,  25.072
   525.6,0.004008,0.002682,0.042634,0.001056,  25.072
   525.8,0.003988,0.002731,0.042462,0.001056,  25.073
   526.0,0.003973,0.002716,0.042342,0.001005,  25.072
   526.2,0.003952,0.002682,0.042230,0.001002,  25.077
   526.4,0.003919,0.002622,0.042136,0.000989,  25.074
   526.6,0.003893,0.002596,0.041983,0.000938,  25.075
   526.8,0.003864,0.002558,0.041790,0.000935,  25.079
   527.0,0.003835,0.002544,0.041583,0.000922,  25.081
   527.2,0.003815,0.002517,0.041438,0.000858,  25.085
   527.4,0.003790,0.002493,0.041286,0.000855,  25.081
   527.6,0.003761,0.002471,0.041160,0.000842,  25.086
   527.8,0.003743,0.002447,0.041178,0.000791,  25.083
   528.0,0.003725,0.002428,0.041275,0.000802,  25.088
   528.2,0.003698,0.002404,0.041420,0.000788,  25.090
   528.4,0.003690,0.002386,0.041479,0.000737,  25.089
   528.6,0.003678,0.002371,0.041527,0.000762,  25.089
   528.8,0.003658,0.002354,0.041546,0.000762,  25.089
   529.0,0.003653,0.002342,0.041623,0.000711,  25.094
   529.2,0.003647,0.002335,0.041693,0.000721,  25.094
   529.4,0.003637,0.002322,0.041790,0.000721,  25.092
   529.6,0.003632,0.002317,0.041838,0.000684,  25.091
   529.8,0.003629,0.002310,0.041887,0.000721,  25.092
   530.0,0.003616,0.002303,0.041916,0.000708,  25.092
   530.2,0.003609,0.002301,0.041367,0.000657,  25.095
   530.4,0.003603,0.002297,0.040518,0.000681,  25.091
   530.6,0.003593,0.002292,0.039411,0.000681,  25.089
   530.8,0.003597,0.002290,0.039430,0.000630,  25.094
   531.0,0.003591,0.002288,0.039843,0.000681,  25.094
   531.2,0.003588,0.002280,0.040660,0.000695,  25.094
   531.4,0.003595,0.002275,0.040997,0.000657,  25.095
   531.6,0.003592,0.002287,0.041297,0.000695,  25.093
   531.8,0.003611,0.002306,0.041538,0.000735,  25.088
   532.0,0.003645,0.002338,0.041701,0.000737,  25.097
   532.2,0.003682,0.002367,0.041817,0.000828,  25.096
   532.4,0.003720,0.002398,0.041854,0.000869,  25.094
   532.6,0.003763,0.002429,0.041883,0.000871,  25.098
   532.8,0.003807,0.002457,0.041865,0.000935,  25.095
   533.0,0.003841,0.002484,0.041798,0.000962,  25.095
   533.2,0.003866,0.002508,0.041793,0.001002,  25.089
   533.4,0.003888,0.002530,0.041807,0.001016,  25.089
   533.6,0.003906,0.002545,0.041840,0.001042,  25.088
   533.8,0.003912,0.002555,0.041749,0.001056,  25.089
   534.0,0.003915,0.002555,0.041615,0.001005,  25.092
   534.2,0.003909,0.002548,0.041433,0.001042,  25.092
   534.4,0.003891,0.002531,0.041340,0.001042,  25.093
   534.6,0.003863,0.002513,0.041276,0.000978,  25.093
   534.8,0.003841,0.002496,0.041209,0.000976,  25.095
   535.0,0.003813,0.002473,0.041172,0.000962,  25.097
   535.2,0.003779,0.002456,0.041164,0.000898,  25.100
   535.4,0.003754,0.002437,0.041175,0.000895,  25.103
   535.6,0.003726,0.002413,0.041178,0.000869,  25.100
   535.8,0.003698,0.002394,0.041197,0.000804,  25.101
   536.0,0.003676,0.002379,0.041186,0.000828,  25.101
   536.2,0.003654,0.002368,0.041175,0.000815,  25.100
   536.4,0.003636,0.002354,0.041156,0.000751,  25.106
   536.6,0.003623,0.002336,0.041097,0.000775,  25.104
   536.8,0.003604,0.002327,0.041046,0.000775,  25.105
   537.0,0.003589,0.002312,0.041094,0.000724,  25.108
   537.2,0.003576,0.002297,0.041172,0.000748,  25.108
   537.4,0.003564,0.002284,0.041287,0.000748,  25.111
   537.6,0.003548,0.002280,0.041316,0.000697,  25.110
   537.8,0.003539,0.002270,0.041343,0.000721,  25.112
   538.0,0.003533,0.002263,0.041287,0.000708,  25.113
   538.2,0.003527,0.002261,0.041105,0.000671,  25.115
   538.4,0.003524,0.002260,0.040831,0.000708,  25.113
   538.6,0.003517,0.002256,0.040454,0.000695,  25.116
   538.8,0.003511,0.002247,0.040484,0.000657,  25.110
   539.0,0.003505,0.002242,0.040657,0.000695,  25.113
   539.2,0.003498,0.002245,0.040976,0.000708,  25.118
   539.4,0.003499,0.002235,0.041035,0.000671,  25.114
   539.6,0.003496,0.002229,0.041080,0.000695,  25.112
   539.8,0.003502,0.002229,0.041029,0.000721,  25.115
   540.0,0.003505,0.002232,0.040866,0.000697,  25.115
   540.2,0.003514,0.002245,0.040633,0.000748,  25.117
   540.4,0.003542,0.002272,0.040304,0.000802,  25.117
   540.6,0.003583,0.002305,0.040363,0.000804,  25.111
   540.8,0.003626,0.002336,0.040555,0.000895,  25.117
   541.0,0.003664,0.002367,0.040903,0.000935,  25.116
   541.2,0.003701,0.002402,0.040981,0.000938,  25.117
   541.4,0.003735,0.002422,0.040954,0.001002,  25.112
   541.6,0.003766,0.002450,0.040895,0.001029,  25.114
   541.8,0.003791,0.002479,0.040869,0.001018,  25.116
   542.0,0.003813,0.002493,0.040813,0.001069,  25.113
   542.2,0.003825,0.002501,0.040738,0.001069,  25.116
   542.4,0.003828,0.002517,0.040193,0.001069,  25.115
   542.6,0.003833,0.002517,0.039399,0.001069,  25.113
   542.8,0.003820,0.002503,0.038322,0.001056,  25.111
   543.0,0.003791,0.002485,0.038240,0.001056,  25.114
   543.2,0.003763,0.002473,0.038538,0.000992,  25.115
   543.4,0.003741,0.002457,0.039152,0.000989,  25.115
   543.6,0.003713,0.002430,0.039318,0.000976,  25.119
   543.8,0.003693,0.002407,0.039462,0.000911,  25.116
   544.0,0.003671,0.002388,0.039531,0.000922,  25.118
   544.2,0.003639,0.002367,0.039576,0.000909,  25.119
   544.4,0.003624,0.002350,0.039739,0.000831,  25.126
   544.6,0.003603,0.002336,0.039883,0.000842,  25.121
   544.8,0.003576,0.002324,0.040038,0.000828,  25.119
   545.0,0.003558,0.002315,0.040123,0.000777,  25.123
   545.2,0.003542,0.002306,0.040171,0.000788,  25.124
   545.4,0.003527,0.002297,0.040168,0.000775,  25.120
   545.6,0.003517,0.002286,0.040264,0.000737,  25.119
   545.8,0.003511,0.002271,0.040371,0.000762,  25.122
   546.0,0.003499,0.002258,0.040497,0.000762,  25.125
   546.2,0.003489,0.002250,0.040604,0.000724,  25.125
   546.4,0.003483,0.002245,0.040700,0.000748,  25.123
   546.6,0.003477,0.002241,0.040797,0.000748,  25.127
   546.8,0.003471,0.002231,0.040845,0.000711,  25.120
   547.0,0.003468,0.002226,0.040864,0.000748,  25.120
   547.2,0.003461,0.002224,0.040853,0.000748,  25.125
   547.4,0.003463,0.002222,0.040861,0.000711,  25.122
   547.6,0.003460,0.002219,0.040831,0.000735,  25.124
   547.8,0.003449,0.002214,0.040809,0.000735,  25.122
   548.0,0.003446,0.002212,0.040847,0.000711,  25.125
   548.2,0.003452,0.002214,0.040884,0.000735,  25.125
   548.4,0.003454,0.002222,0.040913,0.000748,  25.124
   548.6,0.003474,0.002230,0.040943,0.000751,  25.124
   548.8,0.003489,0.002246,0.040988,0.000815,  25.128
   549.0,0.003520,0.002277,0.040988,0.000855,  25.123
   549.2,0.003555,0.002312,0.040969,0.000858,  25.127
   549.4,0.003601,0.002346,0.040948,0.000935,  25.125
   549.6,0.003639,0.002377,0.040897,0.000989,  25.130
   549.8,0.003673,0.002410,0.040878,0.000978,  25.125
   550.0,0.003704,0.002437,0.040825,0.001029,  25.125
   550.2,0.003729,0.002458,0.040769,0.001069,  25.120
   550.4,0.003751,0.002473,0.040694,0.001045,  25.121
   550.6,0.003763,0.002485,0.040601,0.001083,  25.122
   550.8,0.003766,0.002492,0.040441,0.001083,  25.120
   551.0,0.003763,0.002489,0.040318,0.001045,  25.123
   551.2,0.003754,0.002480,0.040177,0.001069,  25.120
   551.4,0.003738,0.002468,0.040017,0.001042,  25.122
   551.6,0.003716,0.002453,0.039951,0.001042,  25.121
   551.8,0.003692,0.002429,0.039876,0.001002,  25.123
   552.0,0.003670,0.002410,0.039850,0.000976,  25.121
   552.2,0.003642,0.002394,0.039842,0.000962,  25.124
   552.4,0.003614,0.002374,0.039871,0.000911,  25.121
   552.6,0.003592,0.002354,0.039920,0.000909,  25.124
   552.8,0.003563,0.002337,0.039997,0.000895,  25.130
   553.0,0.003541,0.002322,0.039720,0.000844,  25.129
   553.2,0.003525,0.002310,0.039343,0.000855,  25.130
   553.4,0.003507,0.002296,0.038850,0.000842,  25.131
   553.6,0.003496,0.002284,0.038821,0.000791,  25.127
   553.8,0.003486,0.002277,0.038954,0.000802,  25.130
   554.0,0.003474,0.002271,0.039268,0.000802,  25.131
   554.2,0.003465,0.002260,0.039364,0.000737,  25.132
   554.4,0.003458,0.002249,0.039449,0.000775,  25.130
   554.6,0.003449,0.002244,0.039523,0.000775,  25.129
   554.8,0.003440,0.002236,0.039619,0.000737,  25.136
   555.0,0.003437,0.002230,0.039715,0.000762,  25.133
   555.2,0.003427,0.002225,0.039830,0.000762,  25.130
   555.4,0.003428,0.002217,0.039937,0.000724,  25.133
   555.6,0.003425,0.002209,0.040044,0.000748,  25.132
   555.8,0.003415,0.002204,0.040140,0.000748,  25.132
   556.0,0.003416,0.002205,0.040148,0.000711,  25.132
   556.2,0.003417,0.002203,0.040097,0.000748,  25.133
   556.4,0.003411,0.002196,0.040005,0.000748,  25.133
   556.6,0.003417,0.002196,0.040032,0.000748,  25.135
   556.8,0.003435,0.002207,0.040098,0.000772,  25.136
   557.0,0.003457,0.002214,0.040176,0.000799,  25.133
   557.2,0.003484,0.002234,0.040243,0.000853,  25.131
   557.4,0.003512,0.002256,0.040302,0.000893,  25.135
   557.6,0.003543,0.002289,0.040361,0.000933,  25.137
   557.8,0.003568,0.002322,0.040227,0.000986,  25.134
   558.0,0.003596,0.002348,0.039987,0.001013,  25.134
   558.2,0.003619,0.002373,0.039651,0.001040,  25.138
   558.4,0.003650,0.002396,0.039672,0.001080,  25.132
   558.6,0.003678,0.002412,0.039801,0.001093,  25.133
   558.8,0.003696,0.002429,0.040036,0.001120,  25.131
   559.0,0.003708,0.002452,0.040047,0.001083,  25.129
   559.2,0.003728,0.002457,0.039972,0.001083,  25.128
   559.4,0.003731,0.002449,0.039794,0.001083,  25.129
   559.6,0.003719,0.002445,0.039730,0.001032,  25.132
   559.8,0.003700,0.002438,0.039685,0.001029,  25.131
   560.0,0.003682,0.002415,0.039603,0.001016,  25.136
   560.2,0.003646,0.002396,0.039550,0.000965,  25.132
   560.4,0.003615,0.002376,0.039550,0.000989,  25.132
   560.6,0.003593,0.002356,0.039550,0.000962,  25.132
   560.8,0.003561,0.002336,0.039591,0.000949,  25.136
   561.0,0.003543,0.002319,0.039668,0.000922,  25.138
   561.2,0.003522,0.002299,0.039793,0.000895,  25.143
   561.4,0.003496,0.002279,0.039841,0.000882,  25.144
   561.6,0.003471,0.002267,0.039841,0.000818,  25.144
   561.8,0.003455,0.002250,0.039831,0.000842,  25.142
   562.0,0.003437,0.002238,0.039753,0.000828,  25.145
   562.2,0.003421,0.002226,0.039628,0.000777,  25.148
   562.4,0.003409,0.002209,0.039473,0.000788,  25.147
   562.6,0.003396,0.002200,0.039270,0.000775,  25.148
   562.8,0.003381,0.002196,0.039270,0.000724,  25.145
   563.0,0.003371,0.002184,0.039326,0.000748,  25.147
   563.2,0.003362,0.002179,0.039448,0.000748,  25.146
   563.4,0.003353,0.002174,0.039526,0.000711,  25.148
   563.6,0.003346,0.002169,0.039611,0.000735,  25.151
   563.8,0.003340,0.002164,0.039696,0.000735,  25.148
   564.0,0.003334,0.002160,0.039774,0.000711,  25.149
   564.2,0.003331,0.002157,0.039832,0.000735,  25.152
   564.4,0.003328,0.002153,0.039918,0.000735,  25.147
   564.6,0.003332,0.002148,0.039984,0.000697,  25.152
   564.8,0.003335,0.002143,0.040040,0.000721,  25.151
   565.0,0.003325,0.002141,0.040059,0.000721,  25.146
   565.2,0.003329,0.002133,0.039904,0.000697,  25.149
   565.4,0.003354,0.002148,0.039634,0.000748,  25.153
   565.6,0.003377,0.002173,0.039258,0.000775,  25.148
   565.8,0.003428,0.002205,0.039269,0.000791,  25.150
   566.0,0.003460,0.002234,0.039413,0.000882,  25.152
   566.2,0.003491,0.002268,0.039709,0.000922,  25.152
   566.4,0.003515,0.002307,0.039298,0.000938,  25.148
   566.6,0.003540,0.002333,0.038617,0.001002,  25.149
   566.8,0.003571,0.002362,0.037651,0.001005,  25.148
   567.0,0.003599,0.002390,0.037595,0.001032,  25.145
   567.2,0.003620,0.002404,0.037855,0.001045,  25.145
   567.4,0.003636,0.002421,0.038439,0.001045,  25.143
   567.6,0.003648,0.002429,0.038634,0.001045,  25.143
   567.8,0.003651,0.002424,0.038783,0.001069,  25.144
   568.0,0.003645,0.002417,0.038922,0.001056,  25.147
   568.2,0.003622,0.002410,0.038944,0.001042,  25.148
   568.4,0.003597,0.002390,0.038869,0.001029,  25.146
   568.6,0.003575,0.002370,0.038715,0.001002,  25.145
   568.8,0.003543,0.002348,0.038851,0.000989,  25.150
   569.0,0.003519,0.002331,0.039056,0.000976,  25.150
   569.2,0.003498,0.002309,0.039355,0.000935,  25.153
   569.4,0.003468,0.002288,0.039461,0.000922,  25.152
   569.6,0.003451,0.002273,0.039520,0.000858,  25.155
   569.8,0.003432,0.002255,0.039509,0.000869,  25.153
   570.0,0.003414,0.002234,0.039517,0.000855,  25.156
   570.2,0.003396,0.002216,0.039480,0.000804,  25.154
   570.4,0.003381,0.002197,0.039440,0.000828,  25.156
   570.6,0.003365,0.002188,0.039352,0.000815,  25.156
   570.8,0.003350,0.002173,0.039362,0.000764,  25.155
   571.0,0.003337,0.002163,0.039400,0.000788,  25.163
   571.2,0.003328,0.002161,0.039437,0.000802,  25.162
   571.4,0.003318,0.002153,0.039503,0.000751,  25.158
   571.6,0.003312,0.002141,0.039544,0.000775,  25.158
   571.8,0.003306,0.002134,0.039599,0.000775,  25.156
   572.0,0.003297,0.002128,0.039511,0.000724,  25.159
   572.2,0.003290,0.002121,0.039301,0.000748,  25.162
   572.4,0.003284,0.002116,0.039021,0.000748,  25.156
   572.6,0.003278,0.002117,0.039069,0.000711,  25.161
   572.8,0.003275,0.002113,0.039231,0.000735,  25.163
   573.0,0.003269,0.002105,0.039500,0.000735,  25.164
   573.2,0.003266,0.002105,0.039596,0.000697,  25.165
   573.4,0.003272,0.002111,0.039615,0.000721,  25.165
   573.6,0.003281,0.002106,0.039604,0.000735,  25.164
   573.8,0.003290,0.002109,0.039594,0.000724,  25.166
   574.0,0.003309,0.002134,0.039535,0.000788,  25.166
   574.2,0.003330,0.002160,0.039436,0.000828,  25.166
   574.4,0.003362,0.002188,0.039454,0.000831,  25.166
   574.6,0.003399,0.002219,0.039521,0.000922,  25.167
   574.8,0.003437,0.002250,0.039591,0.000976,  25.163
   575.0,0.003474,0.002281,0.039601,0.000965,  25.164
   575.2,0.003511,0.002310,0.039601,0.001029,  25.166
   575.4,0.003539,0.002334,0.039556,0.001069,  25.161
   575.6,0.003564,0.002358,0.039463,0.001045,  25.161
   575.8,0.003586,0.002375,0.039349,0.001083,  25.160
   576.0,0.003595,0.002386,0.039178,0.001083,  25.164
   576.2,0.003598,0.002397,0.039067,0.001045,  25.165
   576.4,0.003592,0.002389,0.038937,0.001056,  25.164
   576.6,0.003580,0.002379,0.038852,0.001042,  25.161
   576.8,0.003561,0.002363,0.038759,0.001005,  25.157
   577.0,0.003530,0.002343,0.038655,0.001016,  25.159
   577.2,0.003505,0.002320,0.038578,0.000989,  25.161
   577.4,0.003480,0.002299,0.038600,0.000962,  25.158
   577.6,0.003455,0.002274,0.038680,0.000935,  25.161
   577.8,0.003433,0.002250,0.038834,0.000909,  25.159
   578.0,0.003409,0.002238,0.038680,0.000895,  25.161
   578.2,0.003384,0.002223,0.038393,0.000844,  25.167
   578.4,0.003365,0.002207,0.037978,0.000855,  25.169
   578.6,0.003346,0.002195,0.037842,0.000842,  25.165
   578.8,0.003334,0.002188,0.037795,0.000804,  25.170
   579.0,0.003322,0.002171,0.037802,0.000828,  25.169
   579.2,0.003309,0.002157,0.037879,0.000815,  25.170
   579.4,0.003297,0.002148,0.038060,0.000764,  25.169
   579.6,0.003290,0.002137,0.038270,0.000788,  25.169
   579.8,0.003281,0.002137,0.038549,0.000802,  25.172
   580.0,0.003269,0.002132,0.038682,0.000751,  25.168
   580.2,0.003263,0.002129,0.038748,0.000775,  25.170
   580.4,0.003256,0.002125,0.038767,0.000775,  25.169
   580.6,0.003247,0.002112,0.038863,0.000737,  25.170
   580.8,0.003244,0.002107,0.038958,0.000762,  25.170
   581.0,0.003241,0.002100,0.039043,0.000762,  25.172
   581.2,0.003235,0.002093,0.039054,0.000737,  25.174
   581.4,0.003231,0.002088,0.039070,0.000762,  25.171
   581.6,0.003228,0.002084,0.039048,0.000762,  25.170
   581.8,0.003219,0.002082,0.039048,0.000724,  25.173
   582.0,0.003231,0.002087,0.039067,0.000748,  25.172
   582.2,0.003247,0.002091,0.039112,0.000775,  25.172
   582.4,0.003272,0.002108,0.039141,0.000764,  25.175
   582.6,0.003306,0.002129,0.039160,0.000842,  25.170
   582.8,0.003340,0.002150,0.039160,0.000882,  25.169
   583.0,0.003384,0.002189,0.039178,0.000885,  25.173
   583.2,0.003415,0.002223,0.039160,0.000962,  25.172
   583.4,0.003435,0.002246,0.039149,0.000989,  25.169
   583.6,0.003461,0.002282,0.039160,0.000978,  25.164
   583.8,0.003480,0.002306,0.039126,0.001042,  25.165
   584.0,0.003505,0.002322,0.039110,0.001056,  25.162
   584.2,0.003520,0.002342,0.039036,0.001018,  25.162
   584.4,0.003536,0.002352,0.038895,0.001069,  25.162
   584.6,0.003539,0.002354,0.038725,0.001069,  25.165
   584.8,0.003529,0.002357,0.038558,0.001018,  25.163
   585.0,0.003516,0.002350,0.038406,0.001029,  25.165
   585.2,0.003501,0.002336,0.038226,0.001016,  25.164
   585.4,0.003468,0.002314,0.037931,0.000965,  25.164
   585.6,0.003448,0.002297,0.037533,0.000976,  25.163
   585.8,0.003426,0.002273,0.037086,0.000949,  25.163
   586.0,0.003398,0.002251,0.037202,0.000935,  25.169
   586.2,0.003377,0.002234,0.037576,0.000909,  25.166
   586.4,0.003356,0.002212,0.038171,0.000882,  25.167
   586.6,0.003334,0.002193,0.038336,0.000869,  25.171
   586.8,0.003312,0.002176,0.038384,0.000818,  25.168
   587.0,0.003294,0.002163,0.038352,0.000828,  25.170
   587.2,0.003281,0.002147,0.038274,0.000815,  25.171
   587.4,0.003263,0.002137,0.038142,0.000764,  25.173
   587.6,0.003250,0.002122,0.037929,0.000788,  25.173
   587.8,0.003241,0.002120,0.037669,0.000788,  25.169
   588.0,0.003231,0.002113,0.037764,0.000751,  25.172
   588.2,0.003225,0.002098,0.037955,0.000762,  25.173
   588.4,0.003216,0.002091,0.038242,0.000724,  25.172
   588.6,0.003210,0.002084,0.038367,0.000724,  25.176
   588.8,0.003203,0.002074,0.038463,0.000697,  25.171
   589.0,0.003197,0.002074,0.038519,0.000660,  25.173
   589.2,0.003191,0.002070,0.038585,0.000697,  25.172
   589.4,0.003188,0.002067,0.038633,0.000684,  25.176
   589.6,0.003182,0.002062,0.038678,0.000646,  25.174
   589.8,0.003176,0.002060,0.038678,0.000684,  25.175
   590.0,0.003172,0.002055,0.038686,0.000684,  25.173
   590.2,0.003162,0.002048,0.038656,0.000684,  25.173
   590.4,0.003156,0.002049,0.038664,0.000697,  25.170
   590.6,0.003174,0.002058,0.038635,0.000735,  25.173
   590.8,0.003195,0.002073,0.038624,0.000762,  25.176
   591.0,0.003240,0.002094,0.038680,0.000777,  25.173
   591.2,0.003267,0.002123,0.038717,0.000855,  25.172
   591.4,0.003288,0.002151,0.038776,0.000895,  25.172
   591.6,0.003334,0.002189,0.038776,0.000911,  25.175
   591.8,0.003362,0.002215,0.038728,0.000976,  25.170
   592.0,0.003393,0.002238,0.038651,0.001002,  25.171
   592.2,0.003424,0.002263,0.038606,0.001005,  25.169
   592.4,0.003452,0.002282,0.038561,0.001056,  25.167
   592.6,0.003474,0.002302,0.038516,0.001069,  25.165
   592.8,0.003489,0.002315,0.038404,0.001032,  25.163
   593.0,0.003493,0.002320,0.038282,0.001056,  25.164
   593.2,0.003489,0.002317,0.038112,0.001056,  25.161
   593.4,0.003477,0.002305,0.038041,0.001005,  25.162
   593.6,0.003455,0.002291,0.037989,0.001002,  25.158
   593.8,0.003437,0.002272,0.037962,0.000989,  25.155
   594.0,0.003412,0.002246,0.037907,0.000925,  25.160
   594.2,0.003381,0.002222,0.037832,0.000949,  25.162
   594.4,0.003356,0.002200,0.037763,0.000922,  25.163
   594.6,0.003328,0.002177,0.037803,0.000909,  25.170
   594.8,0.003300,0.002153,0.037899,0.000882,  25.165
   595.0,0.003281,0.002142,0.038016,0.000855,  25.172
   595.2,0.003252,0.002122,0.038027,0.000842,  25.171
   595.4,0.003236,0.002108,0.038016,0.000791,  25.170
   595.6,0.003224,0.002097,0.037965,0.000802,  25.172
   595.8,0.003201,0.002089,0.037954,0.000788,  25.172
   596.0,0.003193,0.002077,0.037944,0.000737,  25.170
   596.2,0.003181,0.002062,0.037914,0.000762,  25.173
   596.4,0.003164,0.002052,0.037911,0.000762,  25.172
   596.6,0.003159,0.002048,0.037959,0.000724,  25.171
   596.8,0.003149,0.002044,0.038044,0.000748,  25.170
   597.0,0.003133,0.002038,0.038121,0.000748,  25.175
   597.2,0.003134,0.002030,0.038169,0.000711,  25.171
   597.4,0.003131,0.002028,0.038169,0.000735,  25.175
   597.6,0.003125,0.002026,0.038177,0.000735,  25.172
   597.8,0.003126,0.002024,0.038185,0.000697,  25.171
   598.0,0.003123,0.002019,0.038155,0.000721,  25.171
   598.2,0.003120,0.002017,0.038115,0.000721,  25.174
   598.4,0.003127,0.002018,0.038126,0.000684,  25.168
   598.6,0.003130,0.002013,0.038182,0.000721,  25.171
   598.8,0.003126,0.002014,0.038248,0.000721,  25.171
   599.0,0.003129,0.002016,0.038296,0.000711,  25.170
   599.2,0.003154,0.002029,0.038325,0.000762,  25.170
   599.4,0.003188,0.002053,0.038352,0.000788,  25.171
   599.6,0.003231,0.002088,0.038091,0.000804,  25.170
   599.8,0.003269,0.002118,0.037698,0.000882,  25.171
   600.0,0.003309,0.002146,0.037133,0.000922,  25.169
   600.2,0.003346,0.002184,0.036913,0.000925,  25.166
   600.4,0.003381,0.002210,0.036781,0.000989,  25.165
   600.6,0.003409,0.002236,0.036736,0.001016,  25.163
   600.8,0.003433,0.002257,0.036425,0.001005,  25.165
   601.0,0.003452,0.002279,0.035981,0.001056,  25.159
   601.2,0.003461,0.002296,0.035470,0.001069,  25.153
   601.4,0.003472,0.002308,0.035056,0.001032,  25.157
   601.6,0.003472,0.002307,0.034633,0.001056,  25.151
   601.8,0.003455,0.002299,0.034210,0.001056,  25.154
   602.0,0.003447,0.002284,0.034336,0.001005,  25.152
   602.2,0.003418,0.002266,0.034725,0.001002,  25.155
   602.4,0.003399,0.002245,0.035407,0.000951,  25.156
   602.6,0.003374,0.002222,0.035713,0.000925,  25.158
   602.8,0.003343,0.002203,0.035980,0.000885,  25.159
   603.0,0.003322,0.002184,0.036199,0.000834,  25.162
   603.2,0.003300,0.002164,0.036411,0.000844,  25.165
   603.4,0.003275,0.002150,0.036593,0.000818,  25.164
   603.6,0.003256,0.002136,0.036791,0.000791,  25.173
   603.8,0.003235,0.002121,0.037070,0.000791,  25.168
   604.0,0.003216,0.002112,0.037359,0.000777,  25.172
   604.2,0.003203,0.002098,0.037712,0.000777,  25.172
   604.4,0.003188,0.002083,0.037884,0.000777,  25.171
   604.6,0.003180,0.002077,0.037969,0.000764,  25.172
   604.8,0.003171,0.002068,0.037958,0.000737,  25.170
   605.0,0.003157,0.002062,0.037977,0.000700,  25.171
   605.2,0.003152,0.002047,0.037974,0.000724,  25.174
   605.4,0.003143,0.002042,0.037905,0.000711,  25.170
   605.6,0.003132,0.002035,0.037923,0.000711,  25.172
   605.8,0.003130,0.002030,0.037952,0.000711,  25.171
   606.0,0.003127,0.002025,0.038008,0.000735,  25.176
   606.2,0.003120,0.002028,0.038085,0.000735,  25.174
   606.4,0.003124,0.002026,0.038085,0.000697,  25.172
   606.6,0.003121,0.002026,0.038064,0.000721,  25.177
   606.8,0.003113,0.002023,0.038013,0.000721,  25.172
   607.0,0.003118,0.002023,0.038069,0.000684,  25.176
   607.2,0.003124,0.002030,0.038143,0.000721,  25.178
   607.4,0.003129,0.002030,0.038220,0.000735,  25.177
   607.6,0.003155,0.002039,0.038220,0.000737,  25.174
   607.8,0.003189,0.002058,0.038188,0.000815,  25.178
   608.0,0.003219,0.002088,0.038118,0.000855,  25.176
   608.2,0.003273,0.002121,0.038004,0.000858,  25.180
   608.4,0.003310,0.002146,0.037861,0.000935,  25.175
   608.6,0.003337,0.002176,0.037651,0.000989,  25.180
   608.8,0.003376,0.002211,0.037651,0.000978,  25.175
   609.0,0.003404,0.002238,0.037710,0.001029,  25.171
   609.2,0.003418,0.002257,0.037808,0.001069,  25.172
   609.4,0.003441,0.002274,0.037848,0.001045,  25.169
   609.6,0.003450,0.002288,0.037851,0.001083,  25.171
   609.8,0.003443,0.002300,0.037835,0.001083,  25.165
