Run Name,Run 5
Run Date,03:30:14 PM   04-03-15
Method Name,10% isocratic
Export Format Version, 1.00
Method ID, 2266
Points/Second, 5.00
Number of Records,   1860
Offset from Run Start Time,00:00:00
Run End Time,00:06:11
Time,Second
QuadTec 1, (280.0 nm), AU
QuadTec 2, (260.0 nm), AU
Gradient Pump,<Not Selected>
QuadTec 3, (214.0 nm), AU
QuadTec 4, (405.0 nm), AU
Conductivity,mS/cm
Trace 6,<Not Available>
GP Pressure,<Not Selected>
Volume,<Not Selected>
Fraction,<Not Available>
Time,QuadTec 1,QuadTec 2,QuadTec 3,QuadTec 4,Conductivity
     0.0,-0.000804,0.000000,0.000662,0.000000,   8.488
     0.2,-0.000810,0.000000,0.000662,0.000000,   8.486
     0.4,-0.000804,0.000000,0.000662,0.000000,   8.479
     0.6,-0.000386,0.000000,0.000662,0.000000,   8.474
     0.8,0.000000,0.000000,0.000000,0.000000,   8.475
     1.0,0.000000,0.000000,0.000000,0.000000,   8.476
     1.2,0.000000,0.000000,0.000000,0.000000,   8.470
     1.4,0.000000,0.000000,0.000000,0.000000,   8.472
     1.6,0.000000,0.000000,0.000000,0.000000,   8.470
     1.8,0.000000,0.000000,0.000000,0.000000,   8.472
     2.0,0.000000,0.000000,0.000000,0.000000,   8.472
     2.2,0.000000,0.000000,0.000000,0.000000,   8.470
     2.4,0.000000,0.000000,0.000000,0.000000,   8.470
     2.6,0.000000,0.000000,0.000000,0.000000,   8.467
     2.8,0.000000,0.000000,0.000000,0.000000,   8.472
     3.0,0.000000,0.000000,0.000000,0.000000,   8.469
     3.2,0.000000,0.000000,0.000000,0.000000,   8.470
     3.4,0.000000,0.000000,0.000000,0.000000,   8.467
     3.6,0.000000,0.000000,0.000000,0.000000,   8.464
     3.8,0.000000,0.000000,0.000000,0.000000,   8.467
     4.0,0.000000,0.000000,0.000000,0.000000,   8.468
     4.2,0.000000,0.000000,0.000000,0.000000,   8.472
     4.4,0.000119,0.000000,0.000000,0.000350,   8.467
     4.6,0.000222,0.000299,-0.001581,0.000390,   8.466
     4.8,0.000300,0.000325,-0.002046,0.000417,   8.466
     5.0,0.000345,0.000353,-0.002433,0.000443,   8.467
     5.2,0.000375,0.000380,-0.002738,0.000483,   8.464
     5.4,0.000379,0.000413,-0.002932,0.000524,   8.460
     5.6,0.000402,0.000446,-0.003046,0.000550,   8.465
     5.8,0.000440,0.000482,-0.003053,0.000577,   8.463
     6.0,0.000474,0.000511,-0.003097,0.000604,   8.466
     6.2,0.000498,0.000536,-0.003113,0.000630,   8.463
     6.4,0.000533,0.000554,-0.003096,0.000657,   8.469
     6.6,0.000561,0.000578,-0.003124,0.000671,   8.463
     6.8,0.000584,0.000604,-0.003225,0.000697,   8.468
     7.0,0.000617,0.000631,-0.003331,0.000737,   8.465
     7.2,0.000638,0.000659,-0.003379,0.000751,   8.467
     7.4,0.000659,0.000688,-0.003419,0.000764,   8.464
     7.6,0.000688,0.000711,-0.003440,0.000778,   8.465
     7.8,0.000706,0.000735,-0.003500,0.000804,   8.463
     8.0,0.000720,0.000753,-0.003573,0.000804,   8.466
     8.2,0.000746,0.000775,-0.003638,0.000818,   8.463
     8.4,0.000762,0.000791,-0.003606,0.000818,   8.464
     8.6,0.000770,0.000803,-0.003569,0.000818,   8.460
     8.8,0.000793,0.000819,-0.003491,0.000831,   8.458
     9.0,0.000805,0.000834,-0.003511,0.000831,   8.462
     9.2,0.000818,0.000845,-0.003576,0.000844,   8.463
     9.4,0.000827,0.000855,-0.003722,0.000858,   8.462
     9.6,0.000826,0.000873,-0.003974,0.000858,   8.462
     9.8,0.000839,0.000880,-0.004310,0.000871,   8.466
    10.0,0.000844,0.000888,-0.004743,0.000885,   8.460
    10.2,0.000853,0.000901,-0.004751,0.000885,   8.458
    10.4,0.000870,0.000910,-0.004593,0.000885,   8.461
    10.6,0.000872,0.000914,-0.004257,0.000898,   8.462
    10.8,0.000886,0.000930,-0.004140,0.000911,   8.462
    11.0,0.000892,0.000937,-0.004042,0.000898,   8.461
    11.2,0.000894,0.000934,-0.003997,0.000898,   8.462
    11.4,0.000907,0.000939,-0.003952,0.000925,   8.463
    11.6,0.000910,0.000946,-0.003920,0.000874,   8.461
    11.8,0.000912,0.000950,-0.003920,0.000911,   8.463
    12.0,0.000926,0.000957,-0.003920,0.000874,   8.465
    12.2,0.000929,0.000962,-0.003920,0.000874,   8.460
    12.4,0.000928,0.000970,-0.003924,0.000911,   8.461
    12.6,0.000938,0.000978,-0.003977,0.000911,   8.461
    12.8,0.000941,0.000985,-0.003944,0.000911,   8.466
    13.0,0.000937,0.000984,-0.003872,0.000911,   8.461
    13.2,0.000944,0.000986,-0.003806,0.000911,   8.462
    13.4,0.000947,0.000993,-0.003814,0.000925,   8.462
    13.6,0.000946,0.000996,-0.003839,0.000925,   8.465
    13.8,0.000954,0.000996,-0.003944,0.000925,   8.463
    14.0,0.000957,0.000998,-0.003972,0.000938,   8.464
    14.2,0.000955,0.000997,-0.003944,0.000925,   8.460
    14.4,0.000966,0.001000,-0.003944,0.000925,   8.460
    14.6,0.000969,0.001002,-0.003932,0.000925,   8.459
    14.8,0.000965,0.001004,-0.003879,0.000949,   8.466
    15.0,0.000972,0.001012,-0.003834,0.000911,   8.463
    15.2,0.000975,0.001012,-0.003887,0.000925,   8.464
    15.4,0.000974,0.001012,-0.003972,0.000962,   8.460
    15.6,0.000981,0.001014,-0.004103,0.000925,   8.463
    15.8,0.000985,0.001011,-0.004155,0.000938,   8.463
    16.0,0.000980,0.001013,-0.004188,0.000962,   8.462
    16.2,0.000991,0.001019,-0.004233,0.000938,   8.463
    16.4,0.000988,0.001019,-0.004253,0.000938,   8.464
    16.6,0.000980,0.001022,-0.004233,0.000976,   8.464
    16.8,0.000994,0.001024,-0.004220,0.000951,   8.458
    17.0,0.000994,0.001027,-0.004183,0.000938,   8.460
    17.2,0.000991,0.001029,-0.004131,0.000976,   8.465
    17.4,0.000995,0.001029,-0.004066,0.000951,   8.464
    17.6,0.000996,0.001031,-0.004086,0.000938,   8.459
    17.8,0.000996,0.001034,-0.004151,0.000976,   8.463
    18.0,0.000996,0.001031,-0.004268,0.000951,   8.466
    18.2,0.000995,0.001035,-0.004236,0.000938,   8.463
    18.4,0.000998,0.001037,-0.004171,0.000976,   8.461
    18.6,0.000991,0.001034,-0.004081,0.000951,   8.463
    18.8,0.000998,0.001034,-0.004129,0.000951,   8.463
    19.0,0.000998,0.001036,-0.004207,0.000989,   8.462
    19.2,0.000998,0.001036,-0.004337,0.000965,   8.464
    19.4,0.000994,0.001034,-0.004304,0.000965,   8.466
    19.6,0.001001,0.001036,-0.004267,0.000951,   8.463
    19.8,0.001001,0.001034,-0.004170,0.000965,   8.465
    20.0,0.000997,0.001037,-0.004113,0.000965,   8.460
    20.2,0.001001,0.001039,-0.004047,0.000951,   8.463
    20.4,0.001001,0.001031,-0.004003,0.000951,   8.462
    20.6,0.000997,0.001031,-0.004051,0.000965,   8.462
    20.8,0.001001,0.001034,-0.004136,0.000914,   8.465
    21.0,0.001001,0.001034,-0.004246,0.000951,   8.461
    21.2,0.000997,0.001034,-0.004319,0.000927,   8.465
    21.4,0.001001,0.001039,-0.004331,0.000927,   8.460
    21.6,0.001004,0.001035,-0.004404,0.000951,   8.461
    21.8,0.000997,0.001035,-0.004416,0.000965,   8.460
    22.0,0.001004,0.001038,-0.004424,0.000965,   8.461
    22.2,0.001007,0.001035,-0.004412,0.000951,   8.462
    22.4,0.000997,0.001035,-0.004379,0.000927,   8.460
    22.6,0.001004,0.001035,-0.004399,0.000927,   8.458
    22.8,0.001007,0.001032,-0.004452,0.000927,   8.464
    23.0,0.000997,0.001038,-0.004517,0.000941,   8.463
    23.2,0.001004,0.001038,-0.004525,0.000927,   8.462
    23.4,0.001007,0.001035,-0.004505,0.000951,   8.461
    23.6,0.001000,0.001040,-0.004505,0.001002,   8.461
    23.8,0.001011,0.001040,-0.004525,0.001002,   8.460
    24.0,0.001014,0.001039,-0.004557,0.000951,   8.462
    24.2,0.001006,0.001036,-0.004602,0.000965,   8.464
    24.4,0.001017,0.001038,-0.004610,0.000965,   8.466
    24.6,0.001017,0.001035,-0.004630,0.000965,   8.461
    24.8,0.001009,0.001046,-0.004610,0.000978,   8.461
    25.0,0.001017,0.001049,-0.005124,0.000965,   8.461
    25.2,0.001017,0.001043,-0.005883,0.000965,   8.464
    25.4,0.001009,0.001049,-0.006910,0.000978,   8.466
    25.6,0.001017,0.001049,-0.006898,0.000965,   8.462
    25.8,0.001012,0.001043,-0.006507,0.000965,   8.461
    26.0,0.001012,0.001051,-0.005749,0.000978,   8.461
    26.2,0.001012,0.001051,-0.005487,0.000965,   8.465
    26.4,0.001012,0.001048,-0.005337,0.000965,   8.461
    26.6,0.001012,0.001051,-0.005257,0.000978,   8.460
    26.8,0.001014,0.001053,-0.005131,0.000965,   8.459
    27.0,0.001014,0.001053,-0.005046,0.000965,   8.466
    27.2,0.001017,0.001051,-0.004994,0.000978,   8.465
    27.4,0.001017,0.001059,-0.004921,0.000965,   8.466
    27.6,0.001020,0.001059,-0.004876,0.000965,   8.462
    27.8,0.001015,0.001054,-0.004864,0.000941,   8.462
    28.0,0.001026,0.001057,-0.004819,0.000941,   8.464
    28.2,0.001023,0.001059,-0.004734,0.000941,   8.465
    28.4,0.001023,0.001056,-0.004661,0.000954,   8.468
    28.6,0.001019,0.001064,-0.004694,0.000954,   8.467
    28.8,0.001026,0.001066,-0.004759,0.000978,   8.468
    29.0,0.001029,0.001061,-0.004869,0.000978,   8.469
    29.2,0.001022,0.001066,-0.004824,0.000978,   8.470
    29.4,0.001032,0.001070,-0.004734,0.000954,   8.471
    29.6,0.001035,0.001071,-0.004564,0.000978,   8.468
    29.8,0.001028,0.001076,-0.004499,0.000954,   8.470
    30.0,0.001038,0.001075,-0.004454,0.000954,   8.472
    30.2,0.001042,0.001077,-0.004422,0.000978,   8.471
    30.4,0.001034,0.001072,-0.004414,0.000992,   8.472
    30.6,0.001045,0.001071,-0.004446,0.000992,   8.472
    30.8,0.001048,0.001074,-0.004532,0.000978,   8.474
    31.0,0.001048,0.001079,-0.004609,0.000992,   8.476
    31.2,0.001055,0.001079,-0.004589,0.000992,   8.473
    31.4,0.001058,0.001085,-0.004576,0.000992,   8.473
    31.6,0.001058,0.001088,-0.004483,0.000992,   8.476
    31.8,0.001055,0.001093,-0.004463,0.000992,   8.474
    32.0,0.001055,0.001092,-0.004463,0.000992,   8.474
    32.2,0.001051,0.001089,-0.004504,0.000992,   8.477
    32.4,0.001051,0.001091,-0.004504,0.000992,   8.477
    32.6,0.001043,0.001088,-0.004504,0.000992,   8.476
    32.8,0.001046,0.001089,-0.004516,0.000992,   8.479
    33.0,0.001046,0.001092,-0.004548,0.000992,   8.477
    33.2,0.001039,0.001094,-0.004609,0.000992,   8.477
    33.4,0.001050,0.001094,-0.004674,0.000992,   8.479
    33.6,0.001050,0.001094,-0.004714,0.000992,   8.480
    33.8,0.001042,0.001094,-0.004759,0.001029,   8.487
    34.0,0.001053,0.001089,-0.004791,0.000992,   8.483
    34.2,0.001050,0.001089,-0.004779,0.000992,   8.485
    34.4,0.001053,0.001092,-0.004747,0.000992,   8.484
    34.6,0.001056,0.001086,-0.004682,0.000992,   8.483
    34.8,0.001063,0.001090,-0.004702,0.000992,   8.483
    35.0,0.001059,0.001087,-0.004747,0.000992,   8.486
    35.2,0.001059,0.001087,-0.004832,0.000992,   8.486
    35.4,0.001059,0.001087,-0.004852,0.000992,   8.481
    35.6,0.001059,0.001086,-0.004844,0.000992,   8.483
    35.8,0.001071,0.001094,-0.004836,0.001005,   8.483
    36.0,0.001079,0.001097,-0.004856,0.001005,   8.486
    36.2,0.001079,0.001099,-0.004856,0.001005,   8.490
    36.4,0.001087,0.001099,-0.004869,0.001018,   8.490
    36.6,0.001078,0.001102,-0.004869,0.001032,   8.488
    36.8,0.001081,0.001102,-0.004876,0.001018,   8.487
    37.0,0.001084,0.001102,-0.004848,0.001018,   8.492
    37.2,0.001084,0.001111,-0.004848,0.001032,   8.490
    37.4,0.001081,0.001111,-0.004848,0.001018,   8.494
    37.6,0.001084,0.001113,-0.004861,0.001018,   8.492
    37.8,0.001077,0.001116,-0.004893,0.001032,   8.494
    38.0,0.001080,0.001119,-0.004926,0.001018,   8.492
    38.2,0.001083,0.001118,-0.004978,0.001018,   8.492
    38.4,0.001086,0.001115,-0.004998,0.001018,   8.490
    38.6,0.001086,0.001120,-0.004991,0.000981,   8.492
    38.8,0.001089,0.001119,-0.005031,0.001018,   8.493
    39.0,0.001095,0.001121,-0.005031,0.000994,   8.494
    39.2,0.001092,0.001121,-0.005011,0.000981,   8.497
    39.4,0.001092,0.001121,-0.004998,0.001018,   8.497
    39.6,0.001088,0.001128,-0.004966,0.001018,   8.497
    39.8,0.001085,0.001128,-0.004921,0.001032,   8.498
    40.0,0.001088,0.001124,-0.004856,0.001018,   8.496
    40.2,0.001080,0.001129,-0.004791,0.001018,   8.497
    40.4,0.001088,0.001132,-0.004832,0.001032,   8.498
    40.6,0.001091,0.001132,-0.004909,0.001018,   8.497
    40.8,0.001084,0.001129,-0.005011,0.001018,   8.497
    41.0,0.001091,0.001132,-0.004998,0.001032,   8.497
    41.2,0.001087,0.001129,-0.004933,0.001018,   8.499
    41.4,0.001090,0.001131,-0.004808,0.001018,   8.501
    41.6,0.001090,0.001133,-0.004796,0.001032,   8.494
    41.8,0.001093,0.001130,-0.004824,0.001018,   8.500
    42.0,0.001093,0.001138,-0.004869,0.001018,   8.500
    42.2,0.001100,0.001136,-0.004784,0.001032,   8.502
    42.4,0.001103,0.001136,-0.004661,0.001018,   8.502
    42.6,0.001096,0.001133,-0.004471,0.001018,   8.503
    42.8,0.001103,0.001137,-0.004641,0.001032,   8.500
    43.0,0.001106,0.001140,-0.005010,0.001018,   8.504
    43.2,0.001099,0.001139,-0.005559,0.001018,   8.500
    43.4,0.001103,0.001149,-0.005632,0.001032,   8.507
    43.6,0.001103,0.001154,-0.005572,0.001032,   8.502
    43.8,0.001096,0.001145,-0.005394,0.001032,   8.502
    44.0,0.001103,0.001150,-0.005289,0.001032,   8.500
    44.2,0.001103,0.001152,-0.005204,0.001032,   8.501
    44.4,0.001096,0.001144,-0.005099,0.001032,   8.504
    44.6,0.001103,0.001145,-0.004982,0.001032,   8.504
    44.8,0.001103,0.001143,-0.004864,0.001018,   8.505
    45.0,0.001096,0.001138,-0.004754,0.001018,   8.503
    45.2,0.001103,0.001144,-0.004689,0.001018,   8.502
    45.4,0.001103,0.001141,-0.004669,0.001005,   8.506
    45.6,0.001099,0.001136,-0.004702,0.001005,   8.504
    45.8,0.001103,0.001135,-0.004702,0.001005,   8.504
    46.0,0.001100,0.001132,-0.004702,0.001005,   8.504
    46.2,0.001097,0.001140,-0.004734,0.001005,   8.505
    46.4,0.001097,0.001140,-0.004815,0.001005,   8.503
    46.6,0.001108,0.001140,-0.004892,0.001005,   8.503
    46.8,0.001108,0.001137,-0.004982,0.001005,   8.501
    47.0,0.001105,0.001140,-0.004897,0.001005,   8.500
    47.2,0.001102,0.001139,-0.004747,0.000981,   8.504
    47.4,0.001105,0.001137,-0.004516,0.001005,   8.504
    47.6,0.001094,0.001139,-0.004451,0.000981,   8.503
    47.8,0.001094,0.001137,-0.004418,0.000981,   8.504
    48.0,0.001097,0.001135,-0.004446,0.001018,   8.503
    48.2,0.001087,0.001132,-0.004519,0.001018,   8.506
    48.4,0.001094,0.001126,-0.004560,0.001032,   8.497
    48.6,0.001097,0.001133,-0.004612,0.001018,   8.503
    48.8,0.001087,0.001138,-0.004677,0.001018,   8.502
    49.0,0.001094,0.001137,-0.004665,0.001032,   8.504
    49.2,0.001097,0.001133,-0.004620,0.001018,   8.501
    49.4,0.001094,0.001136,-0.004567,0.001018,   8.504
    49.6,0.001102,0.001136,-0.004588,0.001032,   8.502
    49.8,0.001105,0.001133,-0.004640,0.001018,   8.503
    50.0,0.001102,0.001137,-0.004738,0.001018,   8.507
    50.2,0.001102,0.001137,-0.004745,0.001032,   8.505
    50.4,0.001105,0.001137,-0.004733,0.001018,   8.503
    50.6,0.001102,0.001140,-0.004680,0.001018,   8.503
    50.8,0.001102,0.001142,-0.004891,0.001032,   8.501
    51.0,0.001105,0.001144,-0.005219,0.001018,   8.499
    51.2,0.001102,0.001144,-0.005643,0.001018,   8.506
    51.4,0.001102,0.001136,-0.005655,0.001032,   8.503
    51.6,0.001105,0.001139,-0.005558,0.001018,   8.503
    51.8,0.001102,0.001133,-0.005296,0.001018,   8.503
    52.0,0.001102,0.001133,-0.005215,0.001032,   8.502
    52.2,0.001105,0.001136,-0.005195,0.001018,   8.501
    52.4,0.001102,0.001131,-0.005195,0.001018,   8.504
    52.6,0.001102,0.001134,-0.005143,0.001032,   8.499
    52.8,0.001105,0.001136,-0.005098,0.001018,   8.497
    53.0,0.001102,0.001134,-0.005045,0.001018,   8.499
    53.2,0.001102,0.001140,-0.005021,0.001032,   8.500
    53.4,0.001105,0.001142,-0.004988,0.001018,   8.499
    53.6,0.001102,0.001136,-0.004940,0.001018,   8.497
    53.8,0.001102,0.001136,-0.004895,0.001032,   8.498
    54.0,0.001102,0.001139,-0.004863,0.001018,   8.500
    54.2,0.001102,0.001133,-0.004810,0.001018,   8.501
    54.4,0.001105,0.001133,-0.004790,0.001032,   8.501
    54.6,0.001109,0.001130,-0.004815,0.001018,   8.502
    54.8,0.001098,0.001122,-0.004872,0.001005,   8.496
    55.0,0.001095,0.001122,-0.004852,0.001005,   8.494
    55.2,0.001086,0.001114,-0.004799,0.000992,   8.496
    55.4,0.001077,0.001110,-0.004754,0.000978,   8.497
    55.6,0.001068,0.001106,-0.004677,0.000965,   8.498
    55.8,0.001052,0.001097,-0.004584,0.000938,   8.498
    56.0,0.001037,0.001083,-0.004459,0.000949,   8.500
    56.2,0.001018,0.001070,-0.004459,0.000898,   8.497
    56.4,0.000999,0.001063,-0.004528,0.000898,   8.497
    56.6,0.000993,0.001057,-0.004670,0.000885,   8.493
    56.8,0.000990,0.001050,-0.004683,0.000885,   8.498
    57.0,0.000987,0.001053,-0.004683,0.000885,   8.495
    57.2,0.000984,0.001049,-0.004622,0.000885,   8.495
    57.4,0.000981,0.001043,-0.004598,0.000885,   8.496
    57.6,0.000978,0.001038,-0.004642,0.000885,   8.495
    57.8,0.000975,0.001027,-0.004720,0.000885,   8.497
    58.0,0.000965,0.001023,-0.004850,0.000871,   8.498
    58.2,0.000956,0.001012,-0.004829,0.000871,   8.493
    58.4,0.000950,0.001000,-0.004817,0.000858,   8.494
    58.6,0.000930,0.001001,-0.004744,0.000858,   8.494
    58.8,0.000921,0.000992,-0.004667,0.000844,   8.494
    59.0,0.000912,0.000984,-0.004562,0.000831,   8.498
    59.2,0.000892,0.000977,-0.004464,0.000831,   8.498
    59.4,0.000884,0.000970,-0.004715,0.000831,   8.499
    59.6,0.000871,0.000963,-0.005120,0.000804,   8.495
    59.8,0.000855,0.000959,-0.005722,0.000791,   8.496
    60.0,0.000850,0.000947,-0.005755,0.000778,   8.494
    60.2,0.000837,0.000942,-0.005602,0.000788,   8.495
    60.4,0.000821,0.000934,-0.005259,0.000737,   8.494
    60.6,0.000822,0.000926,-0.005089,0.000737,   8.496
    60.8,0.000819,0.000927,-0.004911,0.000775,   8.493
    61.0,0.000813,0.000921,-0.004721,0.000751,   8.492
    61.2,0.000817,0.000914,-0.004648,0.000751,   8.493
    61.4,0.000823,0.000920,-0.004668,0.000775,   8.496
    61.6,0.000829,0.000917,-0.004713,0.000764,   8.494
    61.8,0.000839,0.000920,-0.004688,0.000778,   8.494
    62.0,0.000857,0.000921,-0.004644,0.000829,   8.493
    62.2,0.000879,0.000937,-0.004599,0.000818,   8.496
    62.4,0.000904,0.000959,-0.004574,0.000844,   8.493
    62.6,0.000919,0.000972,-0.004570,0.000895,   8.492
    62.8,0.000930,0.000984,-0.004578,0.000885,   8.494
    63.0,0.000950,0.001004,-0.004573,0.000898,   8.493
    63.2,0.000959,0.001018,-0.004621,0.000949,   8.495
    63.4,0.000967,0.001032,-0.004649,0.000925,   8.494
    63.6,0.000983,0.001045,-0.004689,0.000938,   8.496
    63.8,0.001006,0.001057,-0.004742,0.000962,   8.495
    64.0,0.001021,0.001066,-0.004827,0.000938,   8.495
    64.2,0.001030,0.001076,-0.004847,0.000951,   8.492
    64.4,0.001040,0.001088,-0.004827,0.000989,   8.494
    64.6,0.001049,0.001092,-0.004835,0.001002,   8.496
    64.8,0.001058,0.001096,-0.004928,0.000965,   8.492
    65.0,0.001064,0.001105,-0.005037,0.001029,   8.491
    65.2,0.001071,0.001107,-0.005200,0.001016,   8.495
    65.4,0.001077,0.001114,-0.005232,0.000992,   8.495
    65.6,0.001080,0.001121,-0.005240,0.001029,   8.493
    65.8,0.001083,0.001118,-0.005175,0.001029,   8.490
    66.0,0.001089,0.001124,-0.005078,0.001005,   8.494
    66.2,0.001092,0.001129,-0.005110,0.001005,   8.494
    66.4,0.001098,0.001123,-0.005183,0.001043,   8.491
    66.6,0.001102,0.001129,-0.005280,0.001018,   8.491
    66.8,0.001102,0.001131,-0.005215,0.001018,   8.493
    67.0,0.001105,0.001128,-0.005118,0.001043,   8.491
    67.2,0.001105,0.001136,-0.004956,0.001005,   8.496
    67.4,0.001105,0.001136,-0.004943,0.001005,   8.495
    67.6,0.001108,0.001136,-0.004996,0.001043,   8.489
    67.8,0.001108,0.001140,-0.005065,0.001005,   8.491
    68.0,0.001105,0.001140,-0.005086,0.001005,   8.493
    68.2,0.001111,0.001140,-0.005093,0.001043,   8.489
    68.4,0.001111,0.001145,-0.005086,0.001005,   8.491
    68.6,0.001111,0.001147,-0.005045,0.001005,   8.492
    68.8,0.001114,0.001150,-0.005053,0.001005,   8.491
    69.0,0.001117,0.001150,-0.005045,0.001005,   8.490
    69.2,0.001114,0.001147,-0.005045,0.001018,   8.488
    69.4,0.001114,0.001152,-0.005086,0.001018,   8.491
    69.6,0.001117,0.001151,-0.005130,0.001018,   8.489
    69.8,0.001117,0.001151,-0.005728,0.001032,   8.489
    70.0,0.001117,0.001153,-0.006626,0.001018,   8.494
    70.2,0.001117,0.001153,-0.007788,0.001018,   8.493
    70.4,0.001114,0.001148,-0.008100,0.001032,   8.490
    70.6,0.001114,0.001148,-0.008133,0.001032,   8.492
    70.8,0.001117,0.001151,-0.007904,0.001032,   8.487
    71.0,0.001117,0.001156,-0.007559,0.001032,   8.488
    71.2,0.001117,0.001156,-0.007065,0.001032,   8.490
    71.4,0.001117,0.001151,-0.006393,0.001032,   8.490
    71.6,0.001117,0.001156,-0.006098,0.001032,   8.492
    71.8,0.001117,0.001156,-0.005921,0.001032,   8.491
    72.0,0.001110,0.001151,-0.005881,0.001032,   8.489
    72.2,0.001117,0.001154,-0.005711,0.001032,   8.491
    72.4,0.001117,0.001154,-0.005574,0.001032,   8.492
    72.6,0.001110,0.001154,-0.005429,0.001032,   8.492
    72.8,0.001110,0.001157,-0.005364,0.001032,   8.489
    73.0,0.001117,0.001157,-0.005356,0.001032,   8.489
    73.2,0.001117,0.001157,-0.005401,0.001032,   8.489
    73.4,0.001117,0.001157,-0.005368,0.001018,   8.487
    73.6,0.001117,0.001157,-0.005348,0.001043,   8.491
    73.8,0.001117,0.001154,-0.005348,0.001029,   8.484
    74.0,0.001117,0.001154,-0.005453,0.001043,   8.489
    74.2,0.001117,0.001155,-0.005628,0.001043,   8.485
    74.4,0.001117,0.001153,-0.005886,0.001056,   8.490
    74.6,0.001117,0.001158,-0.005991,0.001032,   8.491
    74.8,0.001114,0.001158,-0.006064,0.001056,   8.493
    75.0,0.001114,0.001157,-0.006092,0.001056,   8.488
    75.2,0.001117,0.001161,-0.006107,0.001018,   8.490
    75.4,0.001114,0.001155,-0.005998,0.001032,   8.490
    75.6,0.001114,0.001157,-0.005821,0.001056,   8.489
    75.8,0.001120,0.001162,-0.005586,0.001018,   8.490
    76.0,0.001120,0.001159,-0.005437,0.001032,   8.490
    76.2,0.001120,0.001156,-0.005311,0.001018,   8.489
    76.4,0.001120,0.001157,-0.005214,0.001018,   8.490
    76.6,0.001114,0.001157,-0.005117,0.001032,   8.489
    76.8,0.001114,0.001162,-0.005052,0.001018,   8.491
    77.0,0.001117,0.001164,-0.005020,0.001018,   8.492
    77.2,0.001121,0.001167,-0.005125,0.001032,   8.488
    77.4,0.001121,0.001159,-0.005335,0.001018,   8.488
    77.6,0.001117,0.001167,-0.005602,0.001018,   8.492
    77.8,0.001121,0.001162,-0.005602,0.001032,   8.489
    78.0,0.001121,0.001162,-0.005542,0.001018,   8.490
    78.2,0.001117,0.001156,-0.005384,0.001018,   8.486
    78.4,0.001121,0.001156,-0.005352,0.001032,   8.487
    78.6,0.001121,0.001159,-0.005311,0.001018,   8.487
    78.8,0.001117,0.001155,-0.005324,0.001018,   8.485
    79.0,0.001121,0.001158,-0.005271,0.001032,   8.490
    79.2,0.001121,0.001160,-0.005219,0.001018,   8.491
    79.4,0.001117,0.001155,-0.005154,0.001018,   8.488
    79.6,0.001121,0.001152,-0.005166,0.001032,   8.486
    79.8,0.001121,0.001152,-0.005211,0.001018,   8.488
    80.0,0.001117,0.001147,-0.005316,0.001018,   8.486
    80.2,0.001121,0.001148,-0.005308,0.001032,   8.485
    80.4,0.001126,0.001150,-0.005308,0.001032,   8.487
    80.6,0.001126,0.001144,-0.005296,0.001032,   8.487
    80.8,0.001134,0.001150,-0.005251,0.001018,   8.483
    81.0,0.001142,0.001150,-0.005219,0.001043,   8.485
    81.2,0.001130,0.001155,-0.005154,0.001005,   8.489
    81.4,0.001130,0.001164,-0.005077,0.001018,   8.485
    81.6,0.001129,0.001170,-0.005012,0.001056,   8.487
    81.8,0.001135,0.001170,-0.004927,0.001018,   8.485
    82.0,0.001128,0.001165,-0.004894,0.001032,   8.484
    82.2,0.001124,0.001165,-0.004874,0.001056,   8.485
    82.4,0.001124,0.001170,-0.004907,0.001018,   8.485
    82.6,0.001117,0.001164,-0.004907,0.001032,   8.488
    82.8,0.001124,0.001159,-0.004907,0.001056,   8.485
    83.0,0.001124,0.001161,-0.004927,0.001056,   8.489
    83.2,0.001117,0.001164,-0.004947,0.001018,   8.486
    83.4,0.001124,0.001167,-0.004959,0.001056,   8.488
    83.6,0.001124,0.001161,-0.004992,0.001056,   8.485
    83.8,0.001117,0.001161,-0.005036,0.001032,   8.487
    84.0,0.001124,0.001163,-0.005101,0.001018,   8.488
    84.2,0.001124,0.001155,-0.005206,0.001018,   8.482
    84.4,0.001117,0.001161,-0.005316,0.001018,   8.482
    84.6,0.001124,0.001163,-0.005316,0.001032,   8.482
    84.8,0.001124,0.001160,-0.005283,0.001018,   8.486
    85.0,0.001120,0.001163,-0.005231,0.001018,   8.489
    85.2,0.001128,0.001165,-0.005206,0.001018,   8.488
    85.4,0.001131,0.001163,-0.005182,0.001043,   8.486
    85.6,0.001123,0.001163,-0.005121,0.001005,   8.488
    85.8,0.001131,0.001166,-0.005594,0.001018,   8.487
    86.0,0.001131,0.001163,-0.006380,0.001056,   8.483
    86.2,0.001123,0.001168,-0.007418,0.001018,   8.484
    86.4,0.001128,0.001168,-0.007458,0.001032,   8.482
    86.6,0.001128,0.001174,-0.007125,0.001018,   8.483
    86.8,0.001123,0.001169,-0.006457,0.001018,   8.481
    87.0,0.001128,0.001170,-0.006236,0.001032,   8.485
    87.2,0.001131,0.001172,-0.006018,0.001018,   8.486
    87.4,0.001123,0.001174,-0.005873,0.001018,   8.486
    87.6,0.001131,0.001169,-0.005716,0.001032,   8.481
    87.8,0.001134,0.001166,-0.005611,0.001018,   8.486
    88.0,0.001123,0.001163,-0.005518,0.001018,   8.484
    88.2,0.001131,0.001165,-0.005611,0.001032,   8.486
    88.4,0.001131,0.001165,-0.005788,0.001018,   8.487
    88.6,0.001123,0.001165,-0.006095,0.001018,   8.486
    88.8,0.001128,0.001165,-0.006083,0.001032,   8.487
    89.0,0.001131,0.001165,-0.005946,0.001056,   8.488
    89.2,0.001123,0.001163,-0.005716,0.001018,   8.486
    89.4,0.001123,0.001166,-0.005611,0.001032,   8.486
    89.6,0.001123,0.001168,-0.005526,0.001056,   8.487
    89.8,0.001119,0.001160,-0.005473,0.001018,   8.488
    90.0,0.001123,0.001166,-0.005401,0.001032,   8.488
    90.2,0.001123,0.001168,-0.005348,0.001069,   8.485
    90.4,0.001116,0.001163,-0.005348,0.001032,   8.482
    90.6,0.001116,0.001168,-0.005336,0.001032,   8.486
    90.8,0.001123,0.001171,-0.005296,0.001069,   8.485
    91.0,0.001126,0.001165,-0.005308,0.001032,   8.487
    91.2,0.001123,0.001168,-0.005304,0.001032,   8.482
    91.4,0.001123,0.001173,-0.005283,0.001069,   8.486
    91.6,0.001126,0.001167,-0.005283,0.001069,   8.490
    91.8,0.001123,0.001167,-0.005271,0.001045,   8.487
    92.0,0.001123,0.001170,-0.005271,0.001069,   8.485
    92.2,0.001126,0.001170,-0.005283,0.001069,   8.486
    92.4,0.001123,0.001167,-0.005256,0.001032,   8.483
    92.6,0.001123,0.001170,-0.005256,0.001069,   8.485
    92.8,0.001126,0.001167,-0.005276,0.001069,   8.485
    93.0,0.001123,0.001171,-0.005263,0.001032,   8.489
    93.2,0.001123,0.001171,-0.005211,0.001032,   8.489
    93.4,0.001126,0.001166,-0.005186,0.001069,   8.489
    93.6,0.001123,0.001169,-0.005134,0.001032,   8.487
    93.8,0.001123,0.001167,-0.005109,0.001032,   8.486
    94.0,0.001128,0.001167,-0.005077,0.001069,   8.484
    94.2,0.001129,0.001171,-0.005024,0.001032,   8.488
    94.4,0.001137,0.001174,-0.005149,0.001032,   8.486
    94.6,0.001137,0.001171,-0.005352,0.001069,   8.485
    94.8,0.001141,0.001170,-0.005667,0.001032,   8.485
    95.0,0.001136,0.001172,-0.005707,0.001032,   8.489
    95.2,0.001135,0.001172,-0.005626,0.001069,   8.485
    95.4,0.001138,0.001167,-0.005481,0.001032,   8.488
    95.6,0.001138,0.001167,-0.005364,0.001032,   8.485
    95.8,0.001134,0.001162,-0.005226,0.001069,   8.489
    96.0,0.001126,0.001162,-0.005077,0.001032,   8.485
    96.2,0.001134,0.001162,-0.005190,0.001032,   8.485
    96.4,0.001137,0.001162,-0.005412,0.001032,   8.482
    96.6,0.001129,0.001167,-0.005772,0.001032,   8.481
    96.8,0.001129,0.001167,-0.005792,0.001032,   8.483
    97.0,0.001132,0.001167,-0.005719,0.001032,   8.486
    97.2,0.001129,0.001170,-0.005534,0.001032,   8.485
    97.4,0.001137,0.001172,-0.005481,0.001032,   8.487
    97.6,0.001140,0.001170,-0.005441,0.001032,   8.490
    97.8,0.001129,0.001171,-0.005421,0.001032,   8.487
    98.0,0.001137,0.001171,-0.005344,0.001032,   8.489
    98.2,0.001140,0.001174,-0.005239,0.001032,   8.484
    98.4,0.001129,0.001171,-0.005089,0.001032,   8.486
    98.6,0.001137,0.001172,-0.005057,0.001032,   8.485
    98.8,0.001137,0.001178,-0.005081,0.001032,   8.487
    99.0,0.001140,0.001178,-0.005138,0.001032,   8.489
    99.2,0.001137,0.001177,-0.005086,0.001032,   8.486
    99.4,0.001137,0.001182,-0.005041,0.001032,   8.487
    99.6,0.001140,0.001182,-0.004976,0.001032,   8.489
    99.8,0.001137,0.001182,-0.004976,0.001032,   8.490
   100.0,0.001137,0.001181,-0.005029,0.001032,   8.489
   100.2,0.001140,0.001180,-0.005126,0.001032,   8.486
   100.4,0.001132,0.001182,-0.005126,0.001032,   8.488
   100.6,0.001143,0.001181,-0.005154,0.001032,   8.483
   100.8,0.001143,0.001179,-0.005146,0.001032,   8.488
   101.0,0.001136,0.001182,-0.005191,0.001045,   8.488
   101.2,0.001143,0.001184,-0.005316,0.001008,   8.487
   101.4,0.001143,0.001179,-0.005438,0.001045,   8.485
   101.6,0.001136,0.001179,-0.005438,0.001008,   8.485
   101.8,0.001143,0.001178,-0.005373,0.001008,   8.488
   102.0,0.001143,0.001178,-0.005256,0.001045,   8.486
   102.2,0.001136,0.001178,-0.005114,0.001045,   8.487
   102.4,0.001140,0.001178,-0.005081,0.001059,   8.487
   102.6,0.001147,0.001181,-0.005081,0.001045,   8.485
   102.8,0.001149,0.001185,-0.005114,0.001045,   8.485
   103.0,0.001151,0.001185,-0.005134,0.001059,   8.488
   103.2,0.001154,0.001179,-0.005178,0.001045,   8.487
   103.4,0.001157,0.001179,-0.005223,0.001045,   8.487
   103.6,0.001146,0.001182,-0.005211,0.001059,   8.489
   103.8,0.001141,0.001184,-0.005166,0.001045,   8.489
   104.0,0.001141,0.001187,-0.005101,0.001045,   8.485
   104.2,0.001141,0.001184,-0.005061,0.001059,   8.488
   104.4,0.001137,0.001185,-0.005101,0.001045,   8.488
   104.6,0.001140,0.001186,-0.005146,0.001045,   8.487
   104.8,0.001147,0.001187,-0.005114,0.001045,   8.485
   105.0,0.001154,0.001184,-0.005101,0.001056,   8.487
   105.2,0.001154,0.001186,-0.005069,0.001018,   8.488
   105.4,0.001154,0.001188,-0.005036,0.001032,   8.490
   105.6,0.001157,0.001187,-0.004996,0.001069,   8.487
   105.8,0.001160,0.001190,-0.004984,0.001032,   8.491
   106.0,0.001157,0.001195,-0.005004,0.001032,   8.484
   106.2,0.001160,0.001200,-0.005049,0.001069,   8.486
   106.4,0.001166,0.001197,-0.005134,0.001032,   8.490
   106.6,0.001169,0.001194,-0.005141,0.001045,   8.487
   106.8,0.001175,0.001196,-0.005141,0.001083,   8.486
   107.0,0.001178,0.001196,-0.005141,0.001059,   8.488
   107.2,0.001181,0.001194,-0.005129,0.001059,   8.485
   107.4,0.001177,0.001198,-0.005137,0.001096,   8.485
   107.6,0.001191,0.001198,-0.005137,0.001072,   8.485
   107.8,0.001176,0.001205,-0.005169,0.001072,   8.486
   108.0,0.001183,0.001207,-0.005247,0.001109,   8.490
   108.2,0.001183,0.001207,-0.005356,0.001085,   8.489
   108.4,0.001194,0.001210,-0.005356,0.001085,   8.489
   108.6,0.001194,0.001208,-0.005311,0.001072,   8.490
   108.8,0.001197,0.001208,-0.005247,0.001085,   8.487
   109.0,0.001197,0.001214,-0.005210,0.001085,   8.487
   109.2,0.001197,0.001214,-0.005125,0.001072,   8.488
   109.4,0.001200,0.001210,-0.005032,0.001072,   8.489
   109.6,0.001197,0.001218,-0.005032,0.001072,   8.486
   109.8,0.001194,0.001221,-0.005084,0.001034,   8.488
   110.0,0.001197,0.001218,-0.005202,0.001072,   8.487
   110.2,0.001186,0.001213,-0.005202,0.001034,   8.488
   110.4,0.001186,0.001213,-0.005169,0.001034,   8.488
   110.6,0.001186,0.001210,-0.005105,0.001072,   8.487
   110.8,0.001179,0.001207,-0.005032,0.001085,   8.485
   111.0,0.001183,0.001207,-0.005044,0.001085,   8.488
   111.2,0.001183,0.001202,-0.005077,0.001072,   8.488
   111.4,0.001176,0.001205,-0.005162,0.001085,   8.489
   111.6,0.001177,0.001203,-0.005141,0.001072,   8.484
   111.8,0.001174,0.001200,-0.005121,0.001059,   8.487
   112.0,0.001174,0.001201,-0.005069,0.001072,   8.487
   112.2,0.001178,0.001201,-0.005089,0.001059,   8.486
   112.4,0.001175,0.001198,-0.005114,0.001059,   8.490
   112.6,0.001165,0.001204,-0.005178,0.001072,   8.487
   112.8,0.001162,0.001202,-0.005219,0.001059,   8.487
   113.0,0.001165,0.001207,-0.005231,0.001059,   8.489
   113.2,0.001157,0.001205,-0.005243,0.001072,   8.489
   113.4,0.001162,0.001208,-0.005191,0.001059,   8.490
   113.6,0.001165,0.001208,-0.005146,0.001059,   8.489
   113.8,0.001157,0.001205,-0.005069,0.001072,   8.491
   114.0,0.001157,0.001201,-0.005024,0.001059,   8.490
   114.2,0.001160,0.001198,-0.004971,0.001059,   8.491
   114.4,0.001157,0.001194,-0.004959,0.001072,   8.486
   114.6,0.001165,0.001199,-0.004979,0.001059,   8.488
   114.8,0.001168,0.001196,-0.005024,0.001059,   8.487
   115.0,0.001157,0.001191,-0.005093,0.001072,   8.485
   115.2,0.001162,0.001194,-0.005098,0.001059,   8.489
   115.4,0.001165,0.001194,-0.005143,0.001059,   8.491
   115.6,0.001154,0.001191,-0.005195,0.001072,   8.487
   115.8,0.001151,0.001189,-0.005163,0.001059,   8.489
   116.0,0.001151,0.001189,-0.005098,0.001059,   8.487
   116.2,0.001151,0.001191,-0.005029,0.001072,   8.486
   116.4,0.001148,0.001191,-0.004971,0.001059,   8.487
   116.6,0.001148,0.001188,-0.004919,0.001059,   8.487
   116.8,0.001144,0.001187,-0.004846,0.001072,   8.489
   117.0,0.001148,0.001184,-0.004834,0.001059,   8.489
   117.2,0.001148,0.001181,-0.004854,0.001059,   8.489
   117.4,0.001144,0.001179,-0.004899,0.001072,   8.491
   117.6,0.001141,0.001176,-0.004976,0.001059,   8.486
   117.8,0.001148,0.001174,-0.005073,0.001059,   8.489
   118.0,0.001148,0.001178,-0.005215,0.001059,   8.488
   118.2,0.001151,0.001182,-0.005175,0.001083,   8.486
   118.4,0.001148,0.001182,-0.005078,0.001094,   8.489
   118.6,0.001148,0.001182,-0.004903,0.001094,   8.489
   118.8,0.001151,0.001184,-0.004936,0.001131,   8.491
   119.0,0.001148,0.001183,-0.005033,0.001056,   8.492
   119.2,0.001148,0.001188,-0.005207,0.001107,   8.490
   119.4,0.001151,0.001185,-0.005268,0.001083,   8.489
   119.6,0.001148,0.001182,-0.005268,0.001083,   8.494
   119.8,0.001148,0.001190,-0.005207,0.001069,   8.493
   120.0,0.001148,0.001185,-0.005175,0.001032,   8.492
   120.2,0.001142,0.001183,-0.005163,0.001032,   8.487
   120.4,0.001142,0.001186,-0.005090,0.001069,   8.489
   120.6,0.001145,0.001184,-0.005045,0.001032,   8.487
   120.8,0.001142,0.001181,-0.005013,0.001045,   8.493
   121.0,0.001142,0.001178,-0.005021,0.001045,   8.488
   121.2,0.001145,0.001177,-0.005001,0.001045,   8.486
   121.4,0.001145,0.001176,-0.004976,0.001059,   8.490
   121.6,0.001145,0.001176,-0.004943,0.001045,   8.490
   121.8,0.001145,0.001176,-0.004911,0.001045,   8.490
   122.0,0.001149,0.001182,-0.004964,0.001059,   8.491
   122.2,0.001149,0.001176,-0.005049,0.001045,   8.486
   122.4,0.001145,0.001180,-0.005171,0.001045,   8.494
   122.6,0.001149,0.001183,-0.005191,0.001059,   8.494
   122.8,0.001149,0.001177,-0.005158,0.001045,   8.491
   123.0,0.001145,0.001183,-0.005073,0.001045,   8.486
   123.2,0.001149,0.001180,-0.005171,0.001059,   8.487
   123.4,0.001149,0.001180,-0.005333,0.001045,   8.494
   123.6,0.001145,0.001183,-0.005547,0.001045,   8.489
   123.8,0.001152,0.001186,-0.005527,0.001059,   8.490
   124.0,0.001152,0.001183,-0.005462,0.001045,   8.492
   124.2,0.001148,0.001178,-0.005333,0.001045,   8.491
   124.4,0.001155,0.001179,-0.005243,0.001059,   8.491
   124.6,0.001155,0.001179,-0.005106,0.001045,   8.490
   124.8,0.001159,0.001179,-0.005001,0.001045,   8.490
   125.0,0.001155,0.001184,-0.004988,0.001045,   8.490
   125.2,0.001155,0.001187,-0.005001,0.001032,   8.489
   125.4,0.001151,0.001187,-0.005078,0.001032,   8.489
   125.6,0.001148,0.001184,-0.005058,0.001032,   8.490
   125.8,0.001148,0.001189,-0.005037,0.001032,   8.494
   126.0,0.001148,0.001189,-0.005017,0.001032,   8.490
   126.2,0.001151,0.001189,-0.005017,0.001032,   8.489
   126.4,0.001148,0.001191,-0.005030,0.001032,   8.492
   126.6,0.001151,0.001188,-0.005082,0.001032,   8.491
   126.8,0.001151,0.001188,-0.005313,0.001032,   8.492
   127.0,0.001151,0.001183,-0.005648,0.001032,   8.492
   127.2,0.001154,0.001180,-0.006087,0.001032,   8.491
   127.4,0.001151,0.001180,-0.006297,0.001045,   8.486
   127.6,0.001151,0.001179,-0.006454,0.001008,   8.492
   127.8,0.001154,0.001184,-0.006579,0.001045,   8.493
   128.0,0.001151,0.001188,-0.006631,0.001008,   8.493
   128.2,0.001151,0.001188,-0.006631,0.001008,   8.490
   128.4,0.001154,0.001194,-0.006566,0.001045,   8.493
   128.6,0.001150,0.001203,-0.006462,0.001045,   8.486
   128.8,0.001156,0.001200,-0.006280,0.001059,   8.491
   129.0,0.001159,0.001200,-0.006030,0.001045,   8.492
   129.2,0.001155,0.001208,-0.005728,0.001059,   8.489
   129.4,0.001165,0.001213,-0.005550,0.001059,   8.490
   129.6,0.001171,0.001210,-0.005453,0.001059,   8.488
   129.8,0.001167,0.001214,-0.005368,0.001072,   8.493
   130.0,0.001175,0.001219,-0.005279,0.001059,   8.491
   130.2,0.001178,0.001216,-0.005174,0.001059,   8.492
   130.4,0.001173,0.001224,-0.005101,0.001072,   8.493
   130.6,0.001181,0.001224,-0.005077,0.001059,   8.496
   130.8,0.001184,0.001226,-0.005089,0.001059,   8.493
   131.0,0.001184,0.001226,-0.005114,0.001072,   8.495
   131.2,0.001188,0.001229,-0.005336,0.001059,   8.494
   131.4,0.001191,0.001231,-0.005716,0.001059,   8.489
   131.6,0.001191,0.001230,-0.006200,0.001072,   8.492
   131.8,0.001188,0.001230,-0.006232,0.001059,   8.490
   132.0,0.001194,0.001231,-0.006120,0.001059,   8.493
   132.2,0.001194,0.001234,-0.005837,0.001072,   8.492
   132.4,0.001202,0.001234,-0.005688,0.001059,   8.491
   132.6,0.001205,0.001231,-0.005490,0.001059,   8.492
   132.8,0.001197,0.001236,-0.005300,0.001072,   8.493
   133.0,0.001202,0.001231,-0.005183,0.001059,   8.490
   133.2,0.001202,0.001226,-0.005110,0.001059,   8.495
   133.4,0.001194,0.001239,-0.005090,0.001059,   8.495
   133.6,0.001202,0.001245,-0.005025,0.001059,   8.495
   133.8,0.001202,0.001245,-0.004980,0.001083,   8.494
   134.0,0.001202,0.001245,-0.004908,0.001045,   8.490
   134.2,0.001202,0.001248,-0.004843,0.001059,   8.491
   134.4,0.001199,0.001245,-0.004758,0.001083,   8.496
   134.6,0.001199,0.001246,-0.004693,0.001045,   8.495
   134.8,0.001206,0.001254,-0.004818,0.001059,   8.493
   135.0,0.001206,0.001250,-0.005041,0.001083,   8.491
   135.2,0.001209,0.001254,-0.005373,0.001045,   8.489
   135.4,0.001205,0.001257,-0.005458,0.001059,   8.491
   135.6,0.001205,0.001254,-0.005470,0.001083,   8.495
   135.8,0.001208,0.001259,-0.005382,0.001083,   8.497
   136.0,0.001204,0.001261,-0.005362,0.001045,   8.496
   136.2,0.001205,0.001258,-0.005369,0.001083,   8.495
   136.4,0.001205,0.001264,-0.005342,0.001083,   8.493
   136.6,0.001205,0.001264,-0.005309,0.001045,   8.497
   136.8,0.001209,0.001269,-0.005237,0.001083,   8.496
   137.0,0.001209,0.001276,-0.005179,0.001083,   8.495
   137.2,0.001212,0.001279,-0.005095,0.001045,   8.495
   137.4,0.001215,0.001287,-0.005050,0.001059,   8.491
   137.6,0.001219,0.001291,-0.005017,0.001083,   8.494
   137.8,0.001214,0.001296,-0.005005,0.001045,   8.498
   138.0,0.001217,0.001292,-0.004960,0.001059,   8.497
   138.2,0.001220,0.001300,-0.004916,0.001083,   8.490
   138.4,0.001216,0.001304,-0.004875,0.001045,   8.496
   138.6,0.001227,0.001304,-0.004863,0.001045,   8.495
   138.8,0.001230,0.001312,-0.004863,0.001069,   8.492
   139.0,0.001222,0.001316,-0.004895,0.001032,   8.496
   139.2,0.001222,0.001321,-0.004936,0.001032,   8.495
   139.4,0.001230,0.001320,-0.004968,0.001069,   8.496
   139.6,0.001237,0.001320,-0.005025,0.001032,   8.494
   139.8,0.001241,0.001328,-0.005263,0.001045,   8.495
   140.0,0.001245,0.001328,-0.005578,0.001083,   8.494
   140.2,0.001248,0.001340,-0.005998,0.001045,   8.496
   140.4,0.001250,0.001343,-0.006026,0.001059,   8.493
   140.6,0.001248,0.001342,-0.005889,0.001083,   8.490
   140.8,0.001244,0.001350,-0.005614,0.001045,   8.493
   141.0,0.001251,0.001355,-0.005917,0.001059,   8.492
   141.2,0.001258,0.001356,-0.006461,0.001045,   8.495
   141.4,0.001253,0.001369,-0.007197,0.001045,   8.495
   141.6,0.001261,0.001376,-0.007217,0.001059,   8.492
   141.8,0.001267,0.001378,-0.007016,0.001045,   8.493
   142.0,0.001262,0.001382,-0.006545,0.001045,   8.493
   142.2,0.001262,0.001382,-0.006384,0.001059,   8.493
   142.4,0.001270,0.001381,-0.006247,0.001045,   8.495
   142.6,0.001277,0.001391,-0.006158,0.001045,   8.497
   142.8,0.001282,0.001399,-0.006048,0.001059,   8.500
   143.0,0.001285,0.001401,-0.005951,0.001045,   8.495
   143.2,0.001288,0.001406,-0.005887,0.001045,   8.495
   143.4,0.001287,0.001418,-0.005907,0.001059,   8.496
   143.6,0.001282,0.001420,-0.005999,0.001045,   8.496
   143.8,0.001289,0.001427,-0.006157,0.001045,   8.495
   144.0,0.001295,0.001437,-0.006185,0.001059,   8.493
   144.2,0.001298,0.001439,-0.006192,0.001045,   8.493
   144.4,0.001307,0.001454,-0.006188,0.001045,   8.496
   144.6,0.001303,0.001464,-0.006248,0.001059,   8.495
   144.8,0.001313,0.001468,-0.006361,0.001045,   8.495
   145.0,0.001319,0.001478,-0.006518,0.001045,   8.497
   145.2,0.001315,0.001488,-0.006630,0.001059,   8.495
   145.4,0.001318,0.001492,-0.006775,0.001008,   8.500
   145.6,0.001324,0.001498,-0.006940,0.001059,   8.496
   145.8,0.001331,0.001512,-0.006980,0.001034,   8.496
   146.0,0.001337,0.001519,-0.007003,0.001021,   8.500
   146.2,0.001343,0.001521,-0.006947,0.001059,   8.496
   146.4,0.001349,0.001534,-0.006886,0.001072,   8.498
   146.6,0.001352,0.001548,-0.006934,0.001072,   8.498
   146.8,0.001362,0.001549,-0.007022,0.001072,   8.501
   147.0,0.001365,0.001563,-0.007130,0.001085,   8.498
   147.2,0.001374,0.001577,-0.007205,0.001085,   8.496
   147.4,0.001386,0.001587,-0.007301,0.001085,   8.499
   147.6,0.001393,0.001605,-0.007417,0.001099,   8.497
   147.8,0.001402,0.001620,-0.007577,0.001099,   8.500
   148.0,0.001414,0.001631,-0.007789,0.001099,   8.501
   148.2,0.001420,0.001651,-0.008034,0.001112,   8.499
   148.4,0.001430,0.001665,-0.008182,0.001112,   8.500
   148.6,0.001439,0.001677,-0.008309,0.001099,   8.502
   148.8,0.001448,0.001681,-0.008413,0.001112,   8.501
   149.0,0.001454,0.001688,-0.008548,0.001112,   8.505
   149.2,0.001467,0.001699,-0.008716,0.001112,   8.506
   149.4,0.001476,0.001716,-0.008896,0.001112,   8.504
   149.6,0.001485,0.001733,-0.009115,0.001112,   8.505
   149.8,0.001495,0.001744,-0.009399,0.001112,   8.508
   150.0,0.001504,0.001755,-0.009714,0.001125,   8.508
   150.2,0.001510,0.001772,-0.009953,0.001125,   8.510
   150.4,0.001520,0.001786,-0.010180,0.001125,   8.512
   150.6,0.001529,0.001798,-0.010359,0.001139,   8.512
   150.8,0.001532,0.001821,-0.010609,0.001139,   8.513
   151.0,0.001541,0.001832,-0.010900,0.001125,   8.515
   151.2,0.001550,0.001841,-0.011202,0.001125,   8.519
   151.4,0.001557,0.001858,-0.011491,0.001125,   8.514
   151.6,0.001570,0.001869,-0.011781,0.001125,   8.516
   151.8,0.001569,0.001886,-0.012090,0.001125,   8.518
   152.0,0.001583,0.001906,-0.012407,0.001125,   8.520
   152.2,0.001593,0.001915,-0.012716,0.001125,   8.521
   152.4,0.001603,0.001935,-0.013017,0.001125,   8.523
   152.6,0.001609,0.001947,-0.013293,0.001125,   8.522
   152.8,0.001618,0.001962,-0.013578,0.001125,   8.519
   153.0,0.001630,0.001971,-0.013854,0.001125,   8.528
   153.2,0.001634,0.001989,-0.014233,0.001125,   8.530
   153.4,0.001640,0.002003,-0.014662,0.001125,   8.528
   153.6,0.001649,0.002015,-0.015135,0.001125,   8.533
   153.8,0.001651,0.002032,-0.015437,0.001125,   8.533
   154.0,0.001650,0.002050,-0.015689,0.001088,   8.537
   154.2,0.001659,0.002067,-0.015897,0.001125,   8.539
   154.4,0.001668,0.002082,-0.016128,0.001101,   8.539
   154.6,0.001682,0.002102,-0.016309,0.001125,   8.539
   154.8,0.001691,0.002115,-0.016513,0.001163,   8.540
   155.0,0.001693,0.002126,-0.016685,0.001125,   8.546
   155.2,0.001707,0.002142,-0.017007,0.001125,   8.552
   155.4,0.001716,0.002155,-0.017390,0.001125,   8.553
   155.6,0.001721,0.002175,-0.017793,0.001125,   8.547
   155.8,0.001735,0.002194,-0.018192,0.001139,   8.557
   156.0,0.001744,0.002206,-0.018606,0.001139,   8.562
   156.2,0.001749,0.002225,-0.019019,0.001139,   8.568
   156.4,0.001762,0.002242,-0.019448,0.001152,   8.569
   156.6,0.001772,0.002257,-0.019907,0.001139,   8.575
   156.8,0.001777,0.002276,-0.020386,0.001139,   8.571
   157.0,0.001786,0.002288,-0.020751,0.001152,   8.577
   157.2,0.001795,0.002307,-0.021124,0.001152,   8.581
   157.4,0.001808,0.002310,-0.021458,0.001152,   8.585
   157.6,0.001824,0.002327,-0.021842,0.001166,   8.586
   157.8,0.001834,0.002344,-0.022256,0.001166,   8.593
   158.0,0.001839,0.002357,-0.022701,0.001179,   8.600
   158.2,0.001852,0.002374,-0.023184,0.001179,   8.600
   158.4,0.001865,0.002388,-0.023678,0.001179,   8.604
   158.6,0.001867,0.002408,-0.024229,0.001192,   8.607
   158.8,0.001883,0.002429,-0.025259,0.001192,   8.615
   159.0,0.001896,0.002443,-0.026534,0.001192,   8.621
   159.2,0.001898,0.002462,-0.028090,0.001206,   8.627
   159.4,0.001914,0.002487,-0.028674,0.001206,   8.633
   159.6,0.001927,0.002509,-0.028892,0.001192,   8.641
   159.8,0.001932,0.002525,-0.028792,0.001206,   8.645
   160.0,0.001948,0.002541,-0.029106,0.001206,   8.650
   160.2,0.001958,0.002557,-0.029449,0.001192,   8.654
   160.4,0.001967,0.002576,-0.029853,0.001206,   8.663
   160.6,0.001973,0.002592,-0.030284,0.001206,   8.671
   160.8,0.001979,0.002603,-0.030763,0.001192,   8.675
   161.0,0.001989,0.002625,-0.031271,0.001206,   8.683
   161.2,0.001998,0.002637,-0.031806,0.001206,   8.684
   161.4,0.002010,0.002649,-0.032363,0.001192,   8.692
   161.6,0.002023,0.002673,-0.032949,0.001206,   8.705
   161.8,0.002028,0.002693,-0.033590,0.001206,   8.711
   162.0,0.002037,0.002704,-0.034279,0.001206,   8.717
   162.2,0.002046,0.002728,-0.035008,0.001219,   8.727
   162.4,0.002056,0.002751,-0.035684,0.001219,   8.732
   162.6,0.002065,0.002764,-0.036340,0.001182,   8.742
   162.8,0.002074,0.002779,-0.036995,0.001219,   8.750
   163.0,0.002087,0.002796,-0.037575,0.001208,   8.760
   163.2,0.002096,0.002811,-0.038095,0.001208,   8.768
   163.4,0.002108,0.002828,-0.038579,0.001233,   8.773
   163.6,0.002121,0.002851,-0.038997,0.001233,   8.787
   163.8,0.002133,0.002868,-0.039600,0.001233,   8.792
   164.0,0.002146,0.002879,-0.040277,0.001233,   8.805
   164.2,0.002155,0.002898,-0.040998,0.001233,   8.816
   164.4,0.002167,0.002914,-0.041680,0.001233,   8.824
   164.6,0.002180,0.002928,-0.042346,0.001270,   8.833
   164.8,0.002189,0.002952,-0.043040,0.001246,   8.845
   165.0,0.002206,0.002966,-0.043751,0.001246,   8.857
   165.2,0.002218,0.002980,-0.044490,0.001284,   8.866
   165.4,0.002223,0.003000,-0.045274,0.001259,   8.879
   165.6,0.002237,0.003014,-0.046018,0.001273,   8.893
   165.8,0.002249,0.003026,-0.046771,0.001297,   8.899
   166.0,0.002254,0.003036,-0.047523,0.001259,   8.914
   166.2,0.002274,0.003046,-0.048177,0.001273,   8.928
   166.4,0.002287,0.003060,-0.048812,0.001297,   8.942
   166.6,0.002288,0.003074,-0.049382,0.001259,   8.954
   166.8,0.002308,0.003091,-0.050139,0.001273,   8.963
   167.0,0.002321,0.003102,-0.051014,0.001310,   8.977
   167.2,0.002323,0.003122,-0.051947,0.001273,   8.993
   167.4,0.002339,0.003138,-0.052617,0.001286,   9.003
   167.6,0.002352,0.003150,-0.053194,0.001324,   9.022
   167.8,0.002354,0.003172,-0.053706,0.001286,   9.034
   168.0,0.002370,0.003186,-0.054235,0.001300,   9.049
   168.2,0.002383,0.003198,-0.054738,0.001324,   9.066
   168.4,0.002388,0.003215,-0.055231,0.001300,   9.080
   168.6,0.002404,0.003225,-0.055648,0.001300,   9.098
   168.8,0.002417,0.003236,-0.056012,0.001337,   9.106
   169.0,0.002422,0.003258,-0.056348,0.001313,   9.129
   169.2,0.002436,0.003275,-0.056757,0.001313,   9.144
   169.4,0.002445,0.003284,-0.057186,0.001350,   9.160
   169.6,0.002454,0.003305,-0.057616,0.001326,   9.180
   169.8,0.002463,0.003320,-0.057963,0.001326,   9.198
   170.0,0.002470,0.003329,-0.058301,0.001364,   9.214
   170.2,0.002479,0.003344,-0.058604,0.001340,   9.231
   170.4,0.002488,0.003353,-0.058898,0.001340,   9.250
   170.6,0.002498,0.003363,-0.059213,0.001340,   9.275
   170.8,0.002510,0.003375,-0.059519,0.001340,   9.290
   171.0,0.002512,0.003388,-0.059696,0.001302,   9.306
   171.2,0.002529,0.003396,-0.059838,0.001302,   9.327
   171.4,0.002541,0.003413,-0.059909,0.001340,   9.348
   171.6,0.002543,0.003430,-0.059961,0.001316,   9.373
   171.8,0.002560,0.003439,-0.059943,0.001302,   9.389
   172.0,0.002572,0.003448,-0.059890,0.001340,   9.414
   172.2,0.002571,0.003456,-0.060063,0.001353,   9.432
   172.4,0.002585,0.003460,-0.060335,0.001353,   9.455
   172.6,0.002597,0.003472,-0.060692,0.001353,   9.483
   172.8,0.002599,0.003484,-0.061164,0.001353,   9.501
   173.0,0.002605,0.003489,-0.060933,0.001353,   9.524
   173.2,0.002614,0.003498,-0.060484,0.001353,   9.549
   173.4,0.002624,0.003505,-0.059800,0.001353,   9.571
   173.6,0.002627,0.003509,-0.059324,0.001353,   9.602
   173.8,0.002636,0.003519,-0.058814,0.001353,   9.619
   174.0,0.002645,0.003529,-0.058304,0.001353,   9.646
   174.2,0.002649,0.003533,-0.057757,0.001353,   9.669
   174.4,0.002655,0.003544,-0.057192,0.001353,   9.691
   174.6,0.002661,0.003544,-0.056582,0.001353,   9.723
   174.8,0.002671,0.003544,-0.056000,0.001353,   9.747
   175.0,0.002678,0.003549,-0.055419,0.001353,   9.777
   175.2,0.002673,0.003546,-0.054839,0.001353,   9.798
   175.4,0.002684,0.003551,-0.054128,0.001353,   9.826
   175.6,0.002690,0.003550,-0.053388,0.001353,   9.862
   175.8,0.002689,0.003558,-0.052556,0.001353,   9.882
   176.0,0.002696,0.003568,-0.051854,0.001353,   9.908
   176.2,0.002699,0.003568,-0.051190,0.001353,   9.941
   176.4,0.002692,0.003573,-0.050574,0.001353,   9.963
   176.6,0.002696,0.003575,-0.049685,0.001353,   9.999
   176.8,0.002699,0.003569,-0.048674,0.001353,  10.021
   177.0,0.002689,0.003576,-0.047560,0.001353,  10.050
   177.2,0.002693,0.003572,-0.046479,0.001353,  10.074
   177.4,0.002693,0.003564,-0.045359,0.001340,  10.107
   177.6,0.002693,0.003564,-0.044217,0.001353,  10.142
   177.8,0.002690,0.003559,-0.043112,0.001353,  10.165
   178.0,0.002690,0.003553,-0.042033,0.001340,  10.194
   178.2,0.002680,0.003549,-0.040928,0.001353,  10.226
   178.4,0.002676,0.003552,-0.039740,0.001340,  10.253
   178.6,0.002670,0.003544,-0.038493,0.001326,  10.289
   178.8,0.002667,0.003540,-0.037224,0.001340,  10.313
   179.0,0.002661,0.003536,-0.035970,0.001313,  10.342
   179.2,0.002658,0.003525,-0.034693,0.001300,  10.370
   179.4,0.002655,0.003516,-0.033397,0.001286,  10.403
   179.6,0.002645,0.003503,-0.032094,0.001300,  10.434
   179.8,0.002633,0.003490,-0.030768,0.001249,  10.457
   180.0,0.002627,0.003484,-0.029411,0.001286,  10.489
   180.2,0.002621,0.003472,-0.028219,0.001249,  10.516
   180.4,0.002611,0.003457,-0.027080,0.001235,  10.543
   180.6,0.002605,0.003450,-0.026023,0.001273,  10.581
   180.8,0.002596,0.003438,-0.025032,0.001259,  10.604
   181.0,0.002583,0.003421,-0.023642,0.001246,  10.633
   181.2,0.002577,0.003409,-0.022151,0.001233,  10.662
   181.4,0.002565,0.003400,-0.020557,0.001219,  10.691
   181.6,0.002549,0.003380,-0.019113,0.001206,  10.721
   181.8,0.002540,0.003365,-0.017668,0.001192,  10.741
   182.0,0.002527,0.003350,-0.016270,0.001192,  10.772
   182.2,0.002509,0.003338,-0.014823,0.001192,  10.799
   182.4,0.002496,0.003320,-0.013364,0.001166,  10.823
   182.6,0.002484,0.003311,-0.011932,0.001166,  10.853
   182.8,0.002465,0.003300,-0.010523,0.001166,  10.875
   183.0,0.002453,0.003281,-0.009161,0.001139,  10.902
   183.2,0.002437,0.003259,-0.007827,0.001125,  10.923
   183.4,0.002422,0.003246,-0.006444,0.001125,  10.945
   183.6,0.002406,0.003225,-0.005078,0.001112,  10.975
   183.8,0.002391,0.003206,-0.003727,0.001099,  10.990
   184.0,0.002372,0.003191,-0.002359,0.001085,  11.015
   184.2,0.002354,0.003166,-0.001016,0.001072,  11.035
   184.4,0.002335,0.003147,0.000332,0.001072,  11.061
   184.6,0.002316,0.003128,0.001577,0.001059,  11.081
   184.8,0.002298,0.003103,0.002752,0.001032,  11.095
   185.0,0.002282,0.003084,0.003904,0.001018,  11.115
   185.2,0.002271,0.003065,0.005090,0.001005,  11.133
   185.4,0.002255,0.003038,0.006267,0.000992,  11.148
   185.6,0.002229,0.003017,0.007446,0.000978,  11.168
   185.8,0.002218,0.002996,0.008571,0.000965,  11.184
   186.0,0.002203,0.002969,0.009687,0.000965,  11.195
   186.2,0.002190,0.002950,0.010735,0.000978,  11.209
   186.4,0.002175,0.002926,0.011751,0.000951,  11.222
   186.6,0.002162,0.002900,0.012707,0.000938,  11.235
   186.8,0.002147,0.002877,0.013618,0.000938,  11.246
   187.0,0.002125,0.002857,0.014523,0.000911,  11.254
   187.2,0.002104,0.002833,0.015387,0.000885,  11.266
   187.4,0.002088,0.002803,0.016198,0.000871,  11.275
   187.6,0.002062,0.002782,0.017015,0.000871,  11.285
   187.8,0.002043,0.002760,0.017784,0.000871,  11.293
   188.0,0.002028,0.002733,0.018533,0.000871,  11.293
   188.2,0.002006,0.002711,0.018864,0.000871,  11.295
   188.4,0.001988,0.002684,0.018972,0.000820,  11.300
   188.6,0.001972,0.002660,0.018791,0.000844,  11.301
   188.8,0.001953,0.002641,0.019099,0.000794,  11.301
   189.0,0.001938,0.002616,0.019546,0.000794,  11.303
   189.2,0.001925,0.002597,0.020069,0.000818,  11.297
   189.4,0.001910,0.002580,0.020718,0.000818,  11.292
   189.6,0.001895,0.002555,0.021243,0.000818,  11.285
   189.8,0.001882,0.002534,0.021776,0.000804,  11.281
   190.0,0.001870,0.002515,0.022301,0.000804,  11.271
   190.2,0.001854,0.002490,0.022658,0.000804,  11.266
   190.4,0.001842,0.002468,0.022916,0.000791,  11.251
   190.6,0.001826,0.002452,0.023052,0.000791,  11.233
   190.8,0.001814,0.002433,0.023168,0.000791,  11.220
   191.0,0.001801,0.002419,0.023240,0.000791,  11.213
   191.2,0.001789,0.002408,0.023263,0.000791,  11.201
   191.4,0.001774,0.002393,0.023277,0.000778,  11.183
   191.6,0.001764,0.002371,0.023291,0.000764,  11.159
   191.8,0.001752,0.002352,0.023312,0.000751,  11.146
   192.0,0.001740,0.002333,0.023275,0.000737,  11.133
   192.2,0.001730,0.002306,0.023203,0.000724,  11.111
   192.4,0.001718,0.002290,0.023087,0.000724,  11.090
   192.6,0.001702,0.002271,0.022964,0.000711,  11.061
   192.8,0.001690,0.002249,0.022820,0.000724,  11.047
   193.0,0.001678,0.002232,0.022640,0.000737,  11.023
   193.2,0.001665,0.002215,0.022326,0.000724,  10.998
   193.4,0.001653,0.002191,0.021951,0.000711,  10.978
   193.6,0.001643,0.002174,0.021454,0.000724,  10.943
   193.8,0.001642,0.002158,0.021147,0.000711,  10.926
   194.0,0.001635,0.002136,0.020875,0.000697,  10.903
   194.2,0.001623,0.002121,0.020630,0.000711,  10.871
   194.4,0.001618,0.002112,0.020316,0.000697,  10.848
   194.6,0.001609,0.002090,0.019966,0.000697,  10.815
   194.8,0.001606,0.002077,0.019575,0.000711,  10.790
   195.0,0.001595,0.002068,0.019184,0.000697,  10.760
   195.2,0.001592,0.002049,0.018779,0.000697,  10.731
   195.4,0.001586,0.002032,0.018333,0.000711,  10.701
   195.6,0.001583,0.002025,0.017866,0.000697,  10.668
   195.8,0.001577,0.002010,0.017343,0.000697,  10.640
   196.0,0.001570,0.001998,0.016816,0.000711,  10.612
   196.2,0.001557,0.001989,0.016038,0.000697,  10.582
   196.4,0.001561,0.001974,0.015087,0.000697,  10.551
   196.6,0.001558,0.001973,0.014010,0.000697,  10.510
   196.8,0.001547,0.001964,0.013527,0.000697,  10.486
   197.0,0.001555,0.001951,0.013209,0.000660,  10.454
   197.2,0.001558,0.001947,0.013113,0.000697,  10.421
   197.4,0.001547,0.001940,0.012845,0.000660,  10.388
   197.6,0.001544,0.001930,0.012591,0.000660,  10.345
   197.8,0.001547,0.001923,0.012345,0.000711,  10.318
   198.0,0.001547,0.001912,0.012099,0.000724,  10.289
   198.2,0.001544,0.001904,0.011762,0.000724,  10.255
   198.4,0.001552,0.001897,0.011356,0.000724,  10.220
   198.6,0.001556,0.001887,0.010931,0.000737,  10.180
   198.8,0.001554,0.001879,0.010581,0.000737,  10.156
   199.0,0.001554,0.001871,0.010244,0.000775,  10.123
   199.2,0.001560,0.001863,0.009916,0.000751,  10.090
   199.4,0.001553,0.001853,0.009479,0.000751,  10.054
   199.6,0.001549,0.001851,0.009008,0.000775,  10.018
   199.8,0.001544,0.001855,0.008450,0.000751,   9.990
   200.0,0.001555,0.001850,0.007980,0.000751,   9.960
   200.2,0.001558,0.001840,0.007511,0.000788,   9.927
   200.4,0.001550,0.001841,0.007030,0.000764,   9.896
   200.6,0.001558,0.001834,0.006670,0.000764,   9.858
   200.8,0.001564,0.001826,0.006365,0.000802,   9.832
   201.0,0.001557,0.001822,0.006093,0.000778,   9.802
   201.2,0.001557,0.001821,0.005789,0.000791,   9.773
   201.4,0.001560,0.001819,0.005471,0.000829,   9.742
   201.6,0.001563,0.001817,0.005141,0.000791,   9.704
   201.8,0.001563,0.001806,0.004853,0.000791,   9.683
   202.0,0.001566,0.001803,0.004503,0.000829,   9.651
   202.2,0.001566,0.001801,0.004153,0.000804,   9.625
   202.4,0.001569,0.001798,0.003858,0.000804,   9.596
   202.6,0.001572,0.001796,0.003570,0.000855,   9.560
   202.8,0.001569,0.001791,0.003282,0.000831,   9.541
   203.0,0.001569,0.001789,0.002975,0.000831,   9.512
   203.2,0.001569,0.001783,0.002642,0.000869,   9.486
   203.4,0.001565,0.001781,0.002276,0.000844,   9.458
   203.6,0.001575,0.001776,0.002030,0.000844,   9.428
   203.8,0.001578,0.001768,0.001818,0.000882,   9.407
   204.0,0.001574,0.001768,0.001618,0.000858,   9.382
   204.2,0.001574,0.001769,0.001353,0.000858,   9.360
   204.4,0.001578,0.001772,0.001054,0.000895,   9.334
   204.6,0.001585,0.001770,0.000771,0.000871,   9.308
   204.8,0.001585,0.001765,0.000580,0.000871,   9.289
   205.0,0.001585,0.001768,0.000422,0.000895,   9.263
   205.2,0.001588,0.001766,0.000324,0.000895,   9.243
   205.4,0.001588,0.001762,0.000182,0.000871,   9.223
   205.6,0.001585,0.001754,-0.000022,0.000909,   9.194
   205.8,0.001581,0.001750,-0.000238,0.000922,   9.179
   206.0,0.001581,0.001747,-0.000421,0.000885,   9.156
   206.2,0.001589,0.001739,-0.000556,0.000922,   9.136
   206.4,0.001589,0.001743,-0.000711,0.000922,   9.118
   206.6,0.001581,0.001738,-0.000858,0.000885,   9.095
   206.8,0.001592,0.001727,-0.000967,0.000898,   9.084
   207.0,0.001595,0.001731,-0.001064,0.000949,   9.064
   207.2,0.001588,0.001727,-0.001141,0.000911,   9.044
   207.4,0.001592,0.001722,-0.001230,0.000911,   9.028
   207.6,0.001589,0.001725,-0.001311,0.000949,   9.006
   207.8,0.001581,0.001725,-0.001392,0.000911,   8.993
   208.0,0.001589,0.001719,-0.001539,0.000925,   8.979
   208.2,0.001589,0.001719,-0.001719,0.000962,   8.962
   208.4,0.001581,0.001711,-0.001963,0.000925,   8.950
   208.6,0.001592,0.001707,-0.002044,0.000938,   8.930
   208.8,0.001595,0.001707,-0.002093,0.000962,   8.919
   209.0,0.001588,0.001700,-0.002104,0.000938,   8.908
   209.2,0.001592,0.001706,-0.002054,0.000938,   8.891
   209.4,0.001592,0.001703,-0.001964,0.000976,   8.879
   209.6,0.001585,0.001697,-0.001841,0.000951,   8.868
   209.8,0.001592,0.001697,-0.001914,0.000938,   8.855
   210.0,0.001592,0.001695,-0.002073,0.000976,   8.843
   210.2,0.001585,0.001693,-0.002318,0.000951,   8.833
   210.4,0.001592,0.001697,-0.002411,0.000951,   8.817
   210.6,0.001592,0.001695,-0.002472,0.000989,   8.804
   210.8,0.001588,0.001687,-0.002492,0.000965,   8.794
   211.0,0.001595,0.001692,-0.002581,0.000965,   8.787
   211.2,0.001596,0.001690,-0.002646,0.001002,   8.775
   211.4,0.001601,0.001683,-0.002711,0.000978,   8.763
   211.6,0.001603,0.001679,-0.002727,0.000965,   8.749
   211.8,0.001611,0.001673,-0.002694,0.000965,   8.745
   212.0,0.001596,0.001673,-0.002629,0.000978,   8.738
   212.2,0.001606,0.001668,-0.002662,0.000978,   8.726
   212.4,0.001595,0.001664,-0.002780,0.000978,   8.714
   212.6,0.001598,0.001664,-0.002943,0.000992,   8.705
   212.8,0.001590,0.001657,-0.002988,0.000992,   8.699
   213.0,0.001580,0.001653,-0.003049,0.000992,   8.692
   213.2,0.001575,0.001657,-0.003069,0.001005,   8.684
   213.4,0.001568,0.001654,-0.003110,0.001005,   8.673
   213.6,0.001583,0.001649,-0.003162,0.001005,   8.669
   213.8,0.001589,0.001652,-0.003223,0.001018,   8.659
   214.0,0.001581,0.001647,-0.003231,0.001032,   8.655
   214.2,0.001592,0.001644,-0.003264,0.001056,   8.652
   214.4,0.001595,0.001646,-0.003284,0.001056,   8.645
   214.6,0.001591,0.001641,-0.003271,0.001056,   8.636
   214.8,0.001595,0.001643,-0.003251,0.001056,   8.633
   215.0,0.001592,0.001641,-0.003211,0.001056,   8.630
   215.2,0.001585,0.001638,-0.003211,0.001032,   8.623
   215.4,0.001581,0.001636,-0.003211,0.001056,   8.618
   215.6,0.001578,0.001634,-0.003203,0.001056,   8.611
   215.8,0.001578,0.001630,-0.003243,0.001018,   8.605
   216.0,0.001578,0.001620,-0.003231,0.001056,   8.599
   216.2,0.001581,0.001624,-0.003178,0.001080,   8.602
   216.4,0.001575,0.001622,-0.003145,0.001043,   8.596
   216.6,0.001569,0.001614,-0.003125,0.001056,   8.589
   216.8,0.001569,0.001615,-0.003145,0.001056,   8.588
   217.0,0.001563,0.001610,-0.003198,0.001018,   8.582
   217.2,0.001557,0.001602,-0.003158,0.001032,   8.580
   217.4,0.001554,0.001597,-0.003105,0.001056,   8.578
   217.6,0.001550,0.001594,-0.003040,0.001018,   8.575
   217.8,0.001555,0.001592,-0.003060,0.001032,   8.571
   218.0,0.001555,0.001587,-0.003072,0.001069,   8.568
   218.2,0.001541,0.001583,-0.003138,0.001032,   8.565
   218.4,0.001541,0.001585,-0.003105,0.001032,   8.559
   218.6,0.001541,0.001579,-0.003020,0.001069,   8.559
   218.8,0.001538,0.001574,-0.002909,0.001032,   8.556
   219.0,0.001542,0.001576,-0.003571,0.001032,   8.553
   219.2,0.001539,0.001573,-0.004564,0.001069,   8.550
   219.4,0.001529,0.001573,-0.005922,0.001032,   8.547
   219.6,0.001533,0.001570,-0.005974,0.001032,   8.544
   219.8,0.001530,0.001565,-0.005579,0.001069,   8.543
   220.0,0.001516,0.001566,-0.004731,0.001032,   8.542
   220.2,0.001521,0.001556,-0.004436,0.001032,   8.539
   220.4,0.001521,0.001549,-0.004205,0.001069,   8.541
   220.6,0.001510,0.001547,-0.004055,0.001032,   8.537
   220.8,0.001515,0.001544,-0.003832,0.001032,   8.533
   221.0,0.001511,0.001536,-0.003628,0.001069,   8.537
   221.2,0.001508,0.001534,-0.003425,0.001032,   8.533
   221.4,0.001508,0.001536,-0.003275,0.001032,   8.531
   221.6,0.001508,0.001534,-0.003169,0.001069,   8.528
   221.8,0.001505,0.001530,-0.003091,0.001032,   8.528
   222.0,0.001502,0.001529,-0.003046,0.001045,   8.524
   222.2,0.001499,0.001524,-0.003018,0.001083,   8.523
   222.4,0.001496,0.001514,-0.003031,0.001045,   8.518
   222.6,0.001485,0.001514,-0.002986,0.001059,   8.521
   222.8,0.001490,0.001512,-0.002913,0.001083,   8.522
   223.0,0.001490,0.001507,-0.002860,0.001083,   8.519
   223.2,0.001485,0.001514,-0.002872,0.001045,   8.516
   223.4,0.001490,0.001511,-0.002945,0.001083,   8.513
   223.6,0.001490,0.001508,-0.003048,0.001083,   8.512
   223.8,0.001482,0.001505,-0.003093,0.001045,   8.515
   224.0,0.001487,0.001502,-0.003133,0.001083,   8.514
   224.2,0.001484,0.001502,-0.003166,0.001083,   8.514
   224.4,0.001473,0.001492,-0.003186,0.001045,   8.511
   224.6,0.001477,0.001481,-0.003174,0.001059,   8.513
   224.8,0.001474,0.001488,-0.003153,0.001083,   8.511
   225.0,0.001464,0.001484,-0.003108,0.001045,   8.507
   225.2,0.001468,0.001473,-0.003055,0.001059,   8.508
   225.4,0.001468,0.001476,-0.003043,0.001083,   8.509
   225.6,0.001465,0.001476,-0.002990,0.001045,   8.507
   225.8,0.001463,0.001466,-0.003096,0.001059,   8.505
   226.0,0.001460,0.001469,-0.003320,0.001083,   8.508
   226.2,0.001453,0.001464,-0.003616,0.001045,   8.505
   226.4,0.001446,0.001457,-0.003782,0.001059,   8.500
   226.6,0.001446,0.001459,-0.003920,0.001083,   8.502
   226.8,0.001433,0.001451,-0.004026,0.001045,   8.502
   227.0,0.001437,0.001459,-0.004013,0.001059,   8.504
   227.2,0.001437,0.001457,-0.003920,0.001083,   8.505
   227.4,0.001430,0.001455,-0.003742,0.001045,   8.501
   227.6,0.001434,0.001450,-0.003624,0.001059,   8.501
   227.8,0.001434,0.001448,-0.003526,0.001083,   8.497
   228.0,0.001427,0.001443,-0.003428,0.001045,   8.500
   228.2,0.001431,0.001446,-0.003863,0.001059,   8.505
   228.4,0.001428,0.001441,-0.004640,0.001083,   8.500
   228.6,0.001417,0.001441,-0.005683,0.001045,   8.496
   228.8,0.001422,0.001441,-0.005675,0.001059,   8.496
   229.0,0.001419,0.001438,-0.005336,0.001083,   8.500
   229.2,0.001411,0.001433,-0.004633,0.001059,   8.497
   229.4,0.001419,0.001432,-0.004402,0.001059,   8.498
   229.6,0.001422,0.001424,-0.004232,0.001096,   8.497
   229.8,0.001411,0.001424,-0.004139,0.001072,   8.498
   230.0,0.001412,0.001421,-0.004001,0.001059,   8.499
   230.2,0.001412,0.001419,-0.003891,0.001096,   8.495
   230.4,0.001409,0.001417,-0.003785,0.001072,   8.495
   230.6,0.001409,0.001417,-0.003720,0.001059,   8.496
   230.8,0.001403,0.001415,-0.003688,0.001096,   8.496
   231.0,0.001403,0.001410,-0.003700,0.001072,   8.495
   231.2,0.001400,0.001415,-0.003655,0.001072,   8.494
   231.4,0.001400,0.001417,-0.003610,0.001109,   8.494
   231.6,0.001400,0.001410,-0.003578,0.001096,   8.496
   231.8,0.001396,0.001413,-0.003618,0.001107,   8.499
   232.0,0.001400,0.001417,-0.003691,0.001179,   8.498
   232.2,0.001403,0.001412,-0.003801,0.001179,   8.496
   232.4,0.001399,0.001420,-0.003809,0.001142,   8.492
   232.6,0.001409,0.001423,-0.003776,0.001155,   8.494
   232.8,0.001412,0.001421,-0.003711,0.001144,   8.493
   233.0,0.001405,0.001420,-0.003679,0.001171,   8.496
   233.2,0.001405,0.001420,-0.003642,0.001147,   8.495
   233.4,0.001408,0.001420,-0.003589,0.001147,   8.495
   233.6,0.001408,0.001421,-0.003564,0.001123,   8.494
   233.8,0.001415,0.001418,-0.003560,0.001160,   8.494
   234.0,0.001419,0.001413,-0.003560,0.001147,   8.494
   234.2,0.001408,0.001421,-0.003572,0.001123,   8.495
   234.4,0.001415,0.001424,-0.003625,0.001160,   8.493
   234.6,0.001415,0.001418,-0.003698,0.001147,   8.491
   234.8,0.001405,0.001418,-0.003795,0.001123,   8.491
   235.0,0.001406,0.001421,-0.003816,0.001160,   8.494
   235.2,0.001406,0.001413,-0.003823,0.001160,   8.493
   235.4,0.001399,0.001413,-0.003775,0.001136,   8.493
   235.6,0.001400,0.001407,-0.003795,0.001123,   8.493
   235.8,0.001400,0.001407,-0.003816,0.001123,   8.493
   236.0,0.001393,0.001402,-0.003881,0.001099,   8.491
   236.2,0.001397,0.001402,-0.003913,0.001085,   8.489
   236.4,0.001394,0.001402,-0.003974,0.001123,   8.492
   236.6,0.001386,0.001399,-0.004019,0.001099,   8.492
   236.8,0.001391,0.001397,-0.003974,0.001085,   8.495
   237.0,0.001388,0.001394,-0.003868,0.001123,   8.493
   237.2,0.001377,0.001391,-0.003738,0.001099,   8.489
   237.4,0.001378,0.001391,-0.003916,0.001085,   8.495
   237.6,0.001378,0.001383,-0.004245,0.001123,   8.493
   237.8,0.001371,0.001384,-0.004723,0.001099,   8.489
   238.0,0.001372,0.001382,-0.004743,0.001085,   8.488
   238.2,0.001369,0.001375,-0.004586,0.001123,   8.492
   238.4,0.001358,0.001372,-0.004282,0.001099,   8.491
   238.6,0.001360,0.001373,-0.004209,0.001085,   8.488
   238.8,0.001357,0.001365,-0.004169,0.001123,   8.491
   239.0,0.001346,0.001363,-0.004181,0.001099,   8.495
   239.2,0.001350,0.001361,-0.004096,0.001085,   8.489
   239.4,0.001347,0.001353,-0.003991,0.001123,   8.492
   239.6,0.001344,0.001356,-0.003913,0.001099,   8.489
   239.8,0.001341,0.001357,-0.003881,0.001085,   8.489
   240.0,0.001338,0.001351,-0.003868,0.001109,   8.490
   240.2,0.001338,0.001355,-0.003901,0.001085,   8.487
   240.4,0.001335,0.001350,-0.003868,0.001072,   8.493
   240.6,0.001332,0.001345,-0.003823,0.001096,   8.491
   240.8,0.001335,0.001346,-0.003750,0.001072,   8.494
   241.0,0.001324,0.001342,-0.003705,0.001059,   8.491
   241.2,0.001329,0.001337,-0.003661,0.001096,   8.492
   241.4,0.001332,0.001337,-0.003608,0.001096,   8.490
   241.6,0.001321,0.001337,-0.003628,0.001072,   8.491
   241.8,0.001326,0.001334,-0.003701,0.001096,   8.493
   242.0,0.001326,0.001333,-0.003799,0.001096,   8.492
   242.2,0.001315,0.001335,-0.003844,0.001072,   8.490
   242.4,0.001316,0.001332,-0.003904,0.001096,   8.491
   242.6,0.001316,0.001332,-0.003929,0.001096,   8.490
   242.8,0.001309,0.001330,-0.003982,0.001072,   8.490
   243.0,0.001313,0.001324,-0.003982,0.001059,   8.490
   243.2,0.001310,0.001327,-0.003961,0.001096,   8.491
   243.4,0.001303,0.001330,-0.003929,0.001072,   8.490
   243.6,0.001310,0.001322,-0.003896,0.001059,   8.490
   243.8,0.001307,0.001320,-0.003856,0.001096,   8.487
   244.0,0.001300,0.001318,-0.003864,0.001072,   8.489
   244.2,0.001307,0.001315,-0.003937,0.001059,   8.490
   244.4,0.001310,0.001315,-0.004026,0.001096,   8.490
   244.6,0.001297,0.001323,-0.004197,0.001072,   8.493
   244.8,0.001298,0.001323,-0.004249,0.001072,   8.489
   245.0,0.001298,0.001323,-0.004270,0.001072,   8.489
   245.2,0.001287,0.001323,-0.004270,0.001085,   8.489
   245.4,0.001292,0.001320,-0.004290,0.001072,   8.488
   245.6,0.001292,0.001321,-0.004310,0.001059,   8.491
   245.8,0.001284,0.001319,-0.004322,0.001059,   8.489
   246.0,0.001289,0.001318,-0.004901,0.001059,   8.489
   246.2,0.001285,0.001312,-0.005801,0.001045,   8.486
   246.4,0.001278,0.001309,-0.006993,0.001045,   8.491
   246.6,0.001282,0.001301,-0.007045,0.001059,   8.486
   246.8,0.001279,0.001295,-0.006692,0.001045,   8.487
   247.0,0.001272,0.001303,-0.005939,0.001045,   8.486
   247.2,0.001279,0.001303,-0.005624,0.001059,   8.484
   247.4,0.001282,0.001295,-0.005349,0.001045,   8.486
   247.6,0.001275,0.001301,-0.005115,0.001045,   8.487
   247.8,0.001279,0.001300,-0.004900,0.001059,   8.486
   248.0,0.001279,0.001294,-0.004710,0.001045,   8.489
   248.2,0.001279,0.001294,-0.004560,0.001045,   8.486
   248.4,0.001279,0.001299,-0.004482,0.001059,   8.486
   248.6,0.001279,0.001293,-0.004434,0.001045,   8.484
   248.8,0.001282,0.001293,-0.004479,0.001045,   8.482
   249.0,0.001279,0.001299,-0.004439,0.001059,   8.482
   249.2,0.001279,0.001296,-0.004439,0.001045,   8.485
   249.4,0.001282,0.001296,-0.004431,0.001059,   8.488
   249.6,0.001275,0.001301,-0.004354,0.001059,   8.486
   249.8,0.001279,0.001298,-0.004236,0.001059,   8.483
   250.0,0.001282,0.001301,-0.004126,0.001059,   8.486
   250.2,0.001275,0.001304,-0.004114,0.001072,   8.487
   250.4,0.001279,0.001301,-0.004106,0.001021,   8.489
   250.6,0.001282,0.001299,-0.004151,0.001059,   8.483
   250.8,0.001275,0.001303,-0.004131,0.001034,   8.486
   251.0,0.001279,0.001300,-0.004098,0.001021,   8.485
   251.2,0.001282,0.001297,-0.004053,0.001059,   8.486
   251.4,0.001275,0.001296,-0.003988,0.001059,   8.487
   251.6,0.001279,0.001293,-0.003943,0.001059,   8.484
   251.8,0.001282,0.001301,-0.003931,0.001083,   8.488
   252.0,0.001272,0.001301,-0.003890,0.001045,   8.487
   252.2,0.001276,0.001297,-0.003890,0.001059,   8.484
   252.4,0.001279,0.001303,-0.003931,0.001083,   8.482
   252.6,0.001269,0.001305,-0.003948,0.001045,   8.484
   252.8,0.001273,0.001305,-0.003980,0.001059,   8.485
   253.0,0.001276,0.001308,-0.004045,0.001083,   8.482
   253.2,0.001269,0.001302,-0.004123,0.001045,   8.483
   253.4,0.001273,0.001305,-0.004131,0.001059,   8.485
   253.6,0.001276,0.001305,-0.004078,0.001083,   8.483
   253.8,0.001266,0.001300,-0.004005,0.001045,   8.484
   254.0,0.001270,0.001298,-0.004163,0.001059,   8.484
   254.2,0.001273,0.001295,-0.004426,0.001083,   8.482
   254.4,0.001262,0.001297,-0.004775,0.001059,   8.483
   254.6,0.001270,0.001294,-0.004795,0.001059,   8.482
   254.8,0.001270,0.001294,-0.004730,0.001096,   8.481
   255.0,0.001259,0.001297,-0.004532,0.001072,   8.481
   255.2,0.001264,0.001301,-0.004592,0.001059,   8.482
   255.4,0.001264,0.001295,-0.004730,0.001096,   8.481
   255.6,0.001256,0.001297,-0.004953,0.001059,   8.477
   255.8,0.001261,0.001297,-0.004867,0.001059,   8.478
   256.0,0.001261,0.001290,-0.004697,0.001083,   8.477
   256.2,0.001256,0.001293,-0.004442,0.001045,   8.479
   256.4,0.001261,0.001293,-0.004345,0.001045,   8.481
   256.6,0.001261,0.001285,-0.004272,0.001069,   8.478
   256.8,0.001261,0.001290,-0.004272,0.001032,   8.477
   257.0,0.001261,0.001291,-0.004227,0.001032,   8.477
   257.2,0.001261,0.001288,-0.004174,0.001069,   8.476
   257.4,0.001261,0.001286,-0.004142,0.001032,   8.477
   257.6,0.001258,0.001282,-0.004129,0.001032,   8.473
   257.8,0.001258,0.001287,-0.004081,0.001069,   8.474
   258.0,0.001258,0.001290,-0.004101,0.001032,   8.478
   258.2,0.001250,0.001287,-0.004154,0.001045,   8.476
   258.4,0.001258,0.001290,-0.004244,0.001083,   8.475
   258.6,0.001254,0.001288,-0.004374,0.001083,   8.474
   258.8,0.001247,0.001283,-0.004349,0.001072,   8.479
   259.0,0.001254,0.001275,-0.004244,0.001083,   8.475
   259.2,0.001251,0.001278,-0.004094,0.001096,   8.477
   259.4,0.001244,0.001287,-0.004101,0.001072,   8.476
   259.6,0.001251,0.001281,-0.004154,0.001096,   8.473
   259.8,0.001254,0.001284,-0.004264,0.001096,   8.473
   260.0,0.001251,0.001281,-0.004296,0.001059,   8.470
   260.2,0.001256,0.001276,-0.004324,0.001083,   8.473
   260.4,0.001259,0.001281,-0.004304,0.001094,   8.472
   260.6,0.001245,0.001277,-0.004284,0.001056,   8.474
   260.8,0.001242,0.001269,-0.004247,0.001069,   8.472
   261.0,0.001242,0.001274,-0.004194,0.001056,   8.471
   261.2,0.001232,0.001270,-0.004129,0.001018,   8.474
   261.4,0.001236,0.001264,-0.004105,0.001032,   8.473
   261.6,0.001236,0.001264,-0.004092,0.001069,   8.469
   261.8,0.001228,0.001261,-0.004072,0.001032,   8.468
   262.0,0.001233,0.001261,-0.004060,0.001032,   8.473
   262.2,0.001230,0.001256,-0.004100,0.001069,   8.472
   262.4,0.001222,0.001256,-0.004105,0.001032,   8.468
   262.6,0.001227,0.001257,-0.004117,0.001032,   8.470
   262.8,0.001224,0.001254,-0.004170,0.001069,   8.467
   263.0,0.001216,0.001255,-0.004243,0.001032,   8.471
   263.2,0.001224,0.001256,-0.004243,0.001032,   8.472
   263.4,0.001227,0.001254,-0.004255,0.001069,   8.468
   263.6,0.001219,0.001253,-0.004255,0.001032,   8.467
   263.8,0.001224,0.001263,-0.004907,0.001045,   8.470
   264.0,0.001227,0.001263,-0.005924,0.001083,   8.471
   264.2,0.001219,0.001259,-0.007237,0.001045,   8.471
   264.4,0.001224,0.001260,-0.007244,0.001059,   8.469
   264.6,0.001227,0.001256,-0.006762,0.001083,   8.468
   264.8,0.001219,0.001258,-0.005767,0.001045,   8.472
   265.0,0.001224,0.001260,-0.005440,0.001059,   8.471
   265.2,0.001227,0.001257,-0.005210,0.001083,   8.468
   265.4,0.001230,0.001265,-0.005052,0.001045,   8.469
   265.6,0.001230,0.001265,-0.004842,0.001059,   8.466
   265.8,0.001233,0.001265,-0.004700,0.001083,   8.469
   266.0,0.001239,0.001265,-0.004562,0.001045,   8.466
   266.2,0.001239,0.001274,-0.004416,0.001059,   8.471
   266.4,0.001242,0.001271,-0.004331,0.001083,   8.470
   266.6,0.001245,0.001276,-0.004258,0.001045,   8.470
   266.8,0.001238,0.001283,-0.004165,0.001059,   8.470
   267.0,0.001245,0.001282,-0.004092,0.001083,   8.472
   267.2,0.001248,0.001285,-0.004060,0.001045,   8.470
   267.4,0.001241,0.001289,-0.004105,0.001059,   8.469
   267.6,0.001248,0.001286,-0.004235,0.001083,   8.470
   267.8,0.001251,0.001292,-0.004422,0.001083,   8.473
   268.0,0.001244,0.001292,-0.004442,0.001045,   8.469
   268.2,0.001251,0.001289,-0.004402,0.001083,   8.472
   268.4,0.001254,0.001297,-0.004317,0.001083,   8.472
   268.6,0.001247,0.001297,-0.004296,0.001045,   8.469
   268.8,0.001254,0.001292,-0.004264,0.001083,   8.465
   269.0,0.001254,0.001295,-0.004244,0.001083,   8.471
   269.2,0.001254,0.001290,-0.004231,0.001045,   8.469
   269.4,0.001259,0.001285,-0.004211,0.001059,   8.477
   269.6,0.001262,0.001292,-0.004231,0.001083,   8.472
   269.8,0.001262,0.001292,-0.004252,0.001045,   8.470
   270.0,0.001259,0.001290,-0.004239,0.001083,   8.468
   270.2,0.001262,0.001288,-0.004199,0.001107,   8.470
   270.4,0.001254,0.001288,-0.004187,0.001069,   8.467
   270.6,0.001251,0.001283,-0.004377,0.001083,   8.472
   270.8,0.001254,0.001283,-0.004705,0.001083,   8.472
   271.0,0.001247,0.001285,-0.005158,0.001045,   8.471
   271.2,0.001251,0.001280,-0.005126,0.001059,   8.473
   271.4,0.001254,0.001274,-0.004923,0.001083,   8.470
   271.6,0.001247,0.001277,-0.004583,0.001045,   8.473
   271.8,0.001254,0.001277,-0.004478,0.001059,   8.471
   272.0,0.001254,0.001279,-0.004417,0.001083,   8.469
   272.2,0.001247,0.001276,-0.004450,0.001045,   8.469
   272.4,0.001254,0.001281,-0.004410,0.001059,   8.470
   272.6,0.001254,0.001276,-0.004369,0.001083,   8.471
   272.8,0.001247,0.001278,-0.004349,0.001045,   8.469
   273.0,0.001251,0.001276,-0.004317,0.001059,   8.473
   273.2,0.001254,0.001271,-0.004304,0.001083,   8.472
   273.4,0.001247,0.001273,-0.004272,0.001059,   8.474
   273.6,0.001251,0.001280,-0.004292,0.001059,   8.477
   273.8,0.001254,0.001280,-0.004324,0.001096,   8.473
   274.0,0.001247,0.001280,-0.004410,0.001072,   8.474
   274.2,0.001251,0.001287,-0.004442,0.001072,   8.478
   274.4,0.001259,0.001289,-0.004475,0.001109,   8.478
   274.6,0.001263,0.001286,-0.004515,0.001085,   8.476
   274.8,0.001269,0.001288,-0.004523,0.001085,   8.478
   275.0,0.001276,0.001288,-0.004523,0.001109,   8.477
   275.2,0.001264,0.001286,-0.004510,0.001085,   8.476
   275.4,0.001271,0.001292,-0.004466,0.001085,   8.477
   275.6,0.001262,0.001297,-0.004433,0.001123,   8.480
   275.8,0.001265,0.001293,-0.004408,0.001099,   8.477
   276.0,0.001261,0.001298,-0.004404,0.001085,   8.478
   276.2,0.001264,0.001297,-0.004404,0.001123,   8.477
   276.4,0.001270,0.001302,-0.004457,0.001099,   8.480
   276.6,0.001262,0.001302,-0.004497,0.001085,   8.481
   276.8,0.001262,0.001299,-0.004529,0.001123,   8.478
   277.0,0.001266,0.001299,-0.004607,0.001099,   8.476
   277.2,0.001258,0.001299,-0.004744,0.001085,   8.481
   277.4,0.001258,0.001293,-0.004942,0.001123,   8.478
   277.6,0.001261,0.001293,-0.005205,0.001123,   8.474
   277.8,0.001254,0.001297,-0.005710,0.001085,   8.480
   278.0,0.001258,0.001293,-0.006383,0.001123,   8.479
   278.2,0.001261,0.001293,-0.007220,0.001109,   8.481
   278.4,0.001251,0.001293,-0.007337,0.001072,   8.481
   278.6,0.001255,0.001288,-0.007168,0.001109,   8.480
   278.8,0.001255,0.001297,-0.006730,0.001109,   8.483
   279.0,0.001248,0.001297,-0.006017,0.001085,   8.479
   279.2,0.001252,0.001297,-0.005755,0.001085,   8.482
   279.4,0.001256,0.001299,-0.005525,0.001109,   8.484
   279.6,0.001254,0.001296,-0.005335,0.001085,   8.482
   279.8,0.001257,0.001290,-0.005125,0.001085,   8.481
   280.0,0.001257,0.001299,-0.004967,0.001109,   8.481
   280.2,0.001257,0.001297,-0.004817,0.001085,   8.481
   280.4,0.001256,0.001295,-0.004930,0.001085,   8.483
   280.6,0.001251,0.001295,-0.005165,0.001109,   8.481
   280.8,0.001251,0.001289,-0.005585,0.001085,   8.479
   281.0,0.001259,0.001292,-0.005573,0.001085,   8.484
   281.2,0.001262,0.001292,-0.005395,0.001109,   8.482
   281.4,0.001251,0.001289,-0.005092,0.001085,   8.483
   281.6,0.001238,0.001289,-0.004935,0.001072,   8.483
   281.8,0.001238,0.001284,-0.004785,0.001096,   8.482
   282.0,0.001238,0.001284,-0.004655,0.001072,   8.484
   282.2,0.001232,0.001281,-0.004550,0.001059,   8.483
   282.4,0.001232,0.001276,-0.004477,0.001096,   8.482
   282.6,0.001232,0.001281,-0.004444,0.001072,   8.484
   282.8,0.001228,0.001277,-0.004444,0.001059,   8.487
   283.0,0.001228,0.001269,-0.004489,0.001096,   8.481
   283.2,0.001228,0.001272,-0.004546,0.001072,   8.484
   283.4,0.001236,0.001273,-0.004514,0.001059,   8.484
   283.6,0.001236,0.001267,-0.004477,0.001096,   8.484
   283.8,0.001228,0.001262,-0.004371,0.001072,   8.482
   284.0,0.001233,0.001268,-0.004404,0.001059,   8.486
   284.2,0.001233,0.001265,-0.004481,0.001096,   8.486
   284.4,0.001228,0.001261,-0.004603,0.001059,   8.483
   284.6,0.001239,0.001267,-0.004624,0.001059,   8.487
   284.8,0.001232,0.001267,-0.004603,0.001083,   8.485
   285.0,0.001224,0.001261,-0.004583,0.001045,   8.486
   285.2,0.001227,0.001269,-0.004801,0.001059,   8.485
   285.4,0.001232,0.001272,-0.005117,0.001083,   8.487
   285.6,0.001232,0.001266,-0.005549,0.001083,   8.486
   285.8,0.001235,0.001269,-0.005492,0.001045,   8.483
   286.0,0.001232,0.001269,-0.005258,0.001083,   8.484
   286.2,0.001232,0.001266,-0.004825,0.001083,   8.482
   286.4,0.001232,0.001272,-0.004780,0.001045,   8.483
   286.6,0.001228,0.001266,-0.004797,0.001083,   8.483
   286.8,0.001228,0.001269,-0.004911,0.001083,   8.486
   287.0,0.001228,0.001266,-0.004891,0.001045,   8.485
   287.2,0.001228,0.001263,-0.004818,0.001059,   8.486
   287.4,0.001225,0.001268,-0.004753,0.001083,   8.489
   287.6,0.001230,0.001270,-0.004636,0.001059,   8.485
   287.8,0.001234,0.001267,-0.004596,0.001059,   8.485
   288.0,0.001234,0.001270,-0.004624,0.001096,   8.488
   288.2,0.001234,0.001272,-0.004616,0.001072,   8.486
   288.4,0.001237,0.001266,-0.004866,0.001059,   8.486
   288.6,0.001240,0.001270,-0.005206,0.001096,   8.487
   288.8,0.001240,0.001270,-0.005683,0.001072,   8.488
   289.0,0.001237,0.001268,-0.005703,0.001059,   8.490
   289.2,0.001237,0.001273,-0.005534,0.001096,   8.489
   289.4,0.001230,0.001265,-0.005198,0.001072,   8.488
   289.6,0.001230,0.001263,-0.005283,0.001059,   8.488
   289.8,0.001230,0.001266,-0.005473,0.001096,   8.488
   290.0,0.001222,0.001267,-0.005820,0.001072,   8.485
   290.2,0.001230,0.001273,-0.005756,0.001059,   8.489
   290.4,0.001227,0.001273,-0.005526,0.001096,   8.486
   290.6,0.001219,0.001268,-0.005198,0.001072,   8.484
   290.8,0.001227,0.001276,-0.005041,0.001059,   8.489
   291.0,0.001224,0.001280,-0.004916,0.001096,   8.490
   291.2,0.001224,0.001269,-0.004823,0.001072,   8.492
   291.4,0.001234,0.001269,-0.004697,0.001059,   8.490
   291.6,0.001237,0.001266,-0.004612,0.001096,   8.492
   291.8,0.001230,0.001266,-0.004535,0.001072,   8.489
   292.0,0.001230,0.001264,-0.004510,0.001059,   8.488
   292.2,0.001233,0.001258,-0.004503,0.001096,   8.492
   292.4,0.001228,0.001261,-0.004568,0.001059,   8.489
   292.6,0.001236,0.001263,-0.004555,0.001083,   8.493
   292.8,0.001236,0.001261,-0.004523,0.001107,   8.494
   293.0,0.001236,0.001264,-0.004490,0.001069,   8.489
   293.2,0.001239,0.001270,-0.004458,0.001069,   8.489
   293.4,0.001239,0.001270,-0.004405,0.001069,   8.492
   293.6,0.001239,0.001270,-0.004352,0.001032,   8.489
   293.8,0.001239,0.001270,-0.004300,0.001032,   8.494
   294.0,0.001233,0.001275,-0.004267,0.001069,   8.492
   294.2,0.001233,0.001272,-0.004259,0.001032,   8.494
   294.4,0.001232,0.001272,-0.004227,0.001045,   8.492
   294.6,0.001239,0.001274,-0.004194,0.001083,   8.491
   294.8,0.001239,0.001271,-0.004202,0.001083,   8.491
   295.0,0.001235,0.001274,-0.004352,0.001059,   8.493
   295.2,0.001232,0.001271,-0.004592,0.001083,   8.493
   295.4,0.001232,0.001273,-0.004917,0.001083,   8.490
   295.6,0.001235,0.001276,-0.005002,0.001045,   8.492
   295.8,0.001232,0.001273,-0.004982,0.001083,   8.493
   296.0,0.001232,0.001273,-0.004876,0.001083,   8.494
   296.2,0.001232,0.001273,-0.004714,0.001045,   8.493
   296.4,0.001236,0.001270,-0.004605,0.001059,   8.493
   296.6,0.001236,0.001270,-0.004467,0.001083,   8.488
   296.8,0.001228,0.001275,-0.004317,0.001045,   8.488
   297.0,0.001236,0.001272,-0.004317,0.001059,   8.492
   297.2,0.001239,0.001273,-0.004369,0.001083,   8.495
   297.4,0.001232,0.001273,-0.004471,0.001045,   8.491
   297.6,0.001242,0.001273,-0.004496,0.001059,   8.492
   297.8,0.001245,0.001265,-0.004549,0.001083,   8.490
   298.0,0.001235,0.001275,-0.004601,0.001045,   8.493
   298.2,0.001242,0.001274,-0.004569,0.001059,   8.492
   298.4,0.001245,0.001277,-0.004504,0.001083,   8.492
   298.6,0.001238,0.001277,-0.004414,0.001059,   8.490
   298.8,0.001248,0.001282,-0.004337,0.001059,   8.492
   299.0,0.001251,0.001277,-0.004284,0.001096,   8.490
   299.2,0.001244,0.001282,-0.004231,0.001072,   8.489
   299.4,0.001251,0.001285,-0.004337,0.001072,   8.490
   299.6,0.001254,0.001282,-0.004512,0.001109,   8.494
   299.8,0.001254,0.001285,-0.004751,0.001085,   8.490
   300.0,0.001262,0.001284,-0.004804,0.001085,   8.493
   300.2,0.001262,0.001281,-0.004771,0.001109,   8.494
   300.4,0.001254,0.001284,-0.004694,0.001085,   8.489
   300.6,0.001254,0.001284,-0.004617,0.001085,   8.490
   300.8,0.001254,0.001278,-0.004532,0.001109,   8.492
   301.0,0.001244,0.001281,-0.004447,0.001085,   8.490
   301.2,0.001248,0.001277,-0.004369,0.001085,   8.491
   301.4,0.001245,0.001269,-0.004272,0.001109,   8.492
   301.6,0.001248,0.001274,-0.004159,0.001085,   8.489
   301.8,0.001245,0.001275,-0.004094,0.001072,   8.494
   302.0,0.001248,0.001273,-0.004028,0.001096,   8.492
   302.2,0.001251,0.001276,-0.003976,0.001072,   8.486
   302.4,0.001248,0.001282,-0.004000,0.001059,   8.492
   302.6,0.001248,0.001279,-0.004078,0.001096,   8.494
   302.8,0.001251,0.001284,-0.004268,0.001072,   8.492
   303.0,0.001241,0.001281,-0.004467,0.001059,   8.493
   303.2,0.001248,0.001277,-0.004677,0.001096,   8.491
   303.4,0.001251,0.001283,-0.004960,0.001096,   8.494
   303.6,0.001241,0.001281,-0.004988,0.001072,   8.496
   303.8,0.001248,0.001277,-0.004895,0.001096,   8.494
   304.0,0.001251,0.001281,-0.004710,0.001096,   8.492
   304.2,0.001238,0.001278,-0.004605,0.001072,   8.493
   304.4,0.001242,0.001275,-0.004499,0.001096,   8.495
   304.6,0.001245,0.001278,-0.004430,0.001096,   8.493
   304.8,0.001238,0.001278,-0.004324,0.001072,   8.493
   305.0,0.001238,0.001275,-0.004292,0.001059,   8.494
   305.2,0.001241,0.001281,-0.004296,0.001096,   8.494
   305.4,0.001241,0.001281,-0.004361,0.001072,   8.493
   305.6,0.001238,0.001281,-0.004329,0.001059,   8.494
   305.8,0.001241,0.001279,-0.004276,0.001096,   8.493
   306.0,0.001241,0.001275,-0.004244,0.001072,   8.490
   306.2,0.001238,0.001269,-0.004219,0.001059,   8.494
   306.4,0.001241,0.001274,-0.004187,0.001096,   8.492
   306.6,0.001238,0.001271,-0.004166,0.001059,   8.493
   306.8,0.001235,0.001271,-0.004166,0.001059,   8.496
   307.0,0.001235,0.001268,-0.004179,0.001083,   8.488
   307.2,0.001235,0.001265,-0.004191,0.001059,   8.489
   307.4,0.001232,0.001269,-0.004126,0.001059,   8.494
   307.6,0.001235,0.001263,-0.004061,0.001096,   8.492
   307.8,0.001235,0.001269,-0.003963,0.001059,   8.489
   308.0,0.001235,0.001269,-0.003988,0.001059,   8.495
   308.2,0.001235,0.001263,-0.004086,0.001083,   8.491
   308.4,0.001235,0.001265,-0.004268,0.001045,   8.493
   308.6,0.001232,0.001260,-0.004261,0.001059,   8.492
   308.8,0.001235,0.001254,-0.004216,0.001083,   8.492
   309.0,0.001235,0.001260,-0.004138,0.001045,   8.495
   309.2,0.001235,0.001255,-0.004146,0.001096,   8.494
   309.4,0.001238,0.001250,-0.004166,0.001120,   8.493
   309.6,0.001238,0.001263,-0.004191,0.001096,   8.492
   309.8,0.001238,0.001266,-0.004191,0.001134,   8.496
   310.0,0.001241,0.001261,-0.004199,0.001134,   8.492
   310.2,0.001241,0.001265,-0.004159,0.001109,   8.490
   310.4,0.001238,0.001265,-0.004146,0.001134,   8.494
   310.6,0.001238,0.001260,-0.004106,0.001134,   8.495
   310.8,0.001238,0.001262,-0.004086,0.001109,   8.493
   311.0,0.001241,0.001265,-0.004086,0.001096,   8.492
   311.2,0.001245,0.001260,-0.004106,0.001096,   8.491
   311.4,0.001241,0.001262,-0.004159,0.001072,   8.493
   311.6,0.001241,0.001265,-0.004179,0.001059,   8.489
   311.8,0.001238,0.001262,-0.004219,0.001096,   8.488
   312.0,0.001241,0.001262,-0.004224,0.001096,   8.489
   312.2,0.001241,0.001262,-0.004183,0.001072,   8.492
   312.4,0.001238,0.001259,-0.004179,0.001096,   8.493
   312.6,0.001238,0.001262,-0.004138,0.001096,   8.492
   312.8,0.001238,0.001264,-0.004106,0.001072,   8.493
   313.0,0.001239,0.001261,-0.004094,0.001096,   8.487
   313.2,0.001242,0.001259,-0.004073,0.001096,   8.487
   313.4,0.001238,0.001262,-0.004086,0.001072,   8.492
   313.6,0.001245,0.001259,-0.004138,0.001059,   8.488
   313.8,0.001248,0.001259,-0.004196,0.001096,   8.489
   314.0,0.001241,0.001262,-0.004313,0.001072,   8.494
   314.2,0.001245,0.001256,-0.004261,0.001072,   8.490
   314.4,0.001248,0.001261,-0.004203,0.001109,   8.489
   314.6,0.001241,0.001263,-0.004086,0.001085,   8.490
   314.8,0.001245,0.001263,-0.004073,0.001085,   8.491
   315.0,0.001248,0.001260,-0.004118,0.001109,   8.491
   315.2,0.001241,0.001261,-0.004216,0.001085,   8.491
   315.4,0.001248,0.001262,-0.004248,0.001085,   8.494
   315.6,0.001251,0.001259,-0.004281,0.001109,   8.492
   315.8,0.001236,0.001260,-0.004313,0.001085,   8.494
   316.0,0.001236,0.001266,-0.004669,0.001085,   8.496
   316.2,0.001243,0.001263,-0.005195,0.001109,   8.488
   316.4,0.001246,0.001269,-0.005905,0.001085,   8.489
   316.6,0.001253,0.001271,-0.005965,0.001085,   8.490
   316.8,0.001259,0.001273,-0.005800,0.001123,   8.489
   317.0,0.001266,0.001278,-0.005405,0.001099,   8.490
   317.2,0.001273,0.001288,-0.005235,0.001085,   8.487
   317.4,0.001276,0.001285,-0.005078,0.001123,   8.491
   317.6,0.001272,0.001285,-0.004920,0.001099,   8.492
   317.8,0.001279,0.001287,-0.004823,0.001085,   8.488
   318.0,0.001285,0.001286,-0.004758,0.001123,   8.488
   318.2,0.001281,0.001289,-0.004738,0.001099,   8.492
   318.4,0.001281,0.001292,-0.004640,0.001099,   8.490
   318.6,0.001284,0.001291,-0.004551,0.001136,   8.493
   318.8,0.001287,0.001288,-0.004413,0.001112,   8.486
   319.0,0.001284,0.001290,-0.004393,0.001112,   8.489
   319.2,0.001284,0.001287,-0.004425,0.001136,   8.491
   319.4,0.001277,0.001290,-0.004503,0.001112,   8.493
   319.6,0.001284,0.001295,-0.004482,0.001112,   8.489
   319.8,0.001284,0.001290,-0.004462,0.001136,   8.491
   320.0,0.001277,0.001293,-0.004450,0.001112,   8.492
   320.2,0.001277,0.001301,-0.004385,0.001112,   8.492
   320.4,0.001284,0.001293,-0.004312,0.001136,   8.488
   320.6,0.001284,0.001297,-0.004247,0.001112,   8.490
   320.8,0.001284,0.001300,-0.004518,0.001112,   8.494
   321.0,0.001284,0.001294,-0.004923,0.001136,   8.495
   321.2,0.001284,0.001297,-0.005506,0.001136,   8.491
   321.4,0.001281,0.001300,-0.005526,0.001112,   8.490
   321.6,0.001278,0.001297,-0.005348,0.001136,   8.491
   321.8,0.001275,0.001297,-0.004988,0.001136,   8.494
   322.0,0.001275,0.001297,-0.004883,0.001099,   8.488
   322.2,0.001272,0.001293,-0.004798,0.001123,   8.492
   322.4,0.001272,0.001293,-0.004758,0.001123,   8.490
   322.6,0.001269,0.001297,-0.004758,0.001099,   8.493
   322.8,0.001266,0.001291,-0.004673,0.001085,   8.489
   323.0,0.001273,0.001294,-0.004608,0.001123,   8.493
   323.2,0.001274,0.001292,-0.004515,0.001099,   8.489
   323.4,0.001272,0.001285,-0.004430,0.001085,   8.492
   323.6,0.001272,0.001285,-0.004357,0.001123,   8.492
   323.8,0.001272,0.001276,-0.004292,0.001099,   8.492
   324.0,0.001265,0.001270,-0.004259,0.001085,   8.491
   324.2,0.001258,0.001276,-0.004219,0.001109,   8.490
   324.4,0.001250,0.001276,-0.004252,0.001085,   8.492
   324.6,0.001258,0.001276,-0.004264,0.001085,   8.491
   324.8,0.001258,0.001275,-0.004317,0.001072,   8.492
   325.0,0.001250,0.001275,-0.004389,0.001085,   8.490
   325.2,0.001258,0.001283,-0.004337,0.001085,   8.492
   325.4,0.001254,0.001280,-0.004252,0.001072,   8.490
   325.6,0.001247,0.001274,-0.004142,0.001085,   8.491
   325.8,0.001254,0.001274,-0.004340,0.001085,   8.488
   326.0,0.001251,0.001269,-0.004648,0.001072,   8.490
   326.2,0.001244,0.001274,-0.005126,0.001085,   8.491
   326.4,0.001251,0.001270,-0.005324,0.001085,   8.488
   326.6,0.001254,0.001262,-0.005449,0.001072,   8.489
   326.8,0.001247,0.001262,-0.005514,0.001085,   8.489
   327.0,0.001251,0.001263,-0.005461,0.001085,   8.492
   327.2,0.001254,0.001258,-0.005336,0.001109,   8.488
   327.4,0.001244,0.001260,-0.005150,0.001085,   8.488
   327.6,0.001248,0.001265,-0.005001,0.001085,   8.487
   327.8,0.001251,0.001262,-0.004831,0.001109,   8.494
   328.0,0.001241,0.001262,-0.004640,0.001085,   8.492
   328.2,0.001248,0.001262,-0.004543,0.001085,   8.488
   328.4,0.001248,0.001259,-0.004470,0.001109,   8.490
   328.6,0.001248,0.001262,-0.004458,0.001085,   8.490
   328.8,0.001248,0.001262,-0.004438,0.001085,   8.491
   329.0,0.001248,0.001254,-0.004438,0.001109,   8.489
   329.2,0.001251,0.001261,-0.004482,0.001085,   8.492
   329.4,0.001248,0.001261,-0.004458,0.001072,   8.490
   329.6,0.001245,0.001259,-0.004385,0.001096,   8.488
   329.8,0.001248,0.001254,-0.004287,0.001059,   8.492
   330.0,0.001238,0.001257,-0.004263,0.001059,   8.488
   330.2,0.001242,0.001260,-0.004255,0.001083,   8.487
   330.4,0.001242,0.001254,-0.004308,0.001083,   8.489
   330.6,0.001235,0.001260,-0.004360,0.001045,   8.488
   330.8,0.001239,0.001257,-0.004397,0.001083,   8.490
   331.0,0.001239,0.001254,-0.004475,0.001083,   8.492
   331.2,0.001232,0.001256,-0.004507,0.001045,   8.489
   331.4,0.001236,0.001250,-0.004519,0.001083,   8.492
   331.6,0.001236,0.001250,-0.004507,0.001083,   8.487
   331.8,0.001228,0.001256,-0.004467,0.001045,   8.489
   332.0,0.001233,0.001253,-0.004382,0.001059,   8.490
   332.2,0.001233,0.001250,-0.004304,0.001083,   8.489
   332.4,0.001232,0.001252,-0.004194,0.001059,   8.489
   332.6,0.001239,0.001248,-0.004129,0.001059,   8.488
   332.8,0.001239,0.001247,-0.004097,0.001096,   8.492
   333.0,0.001235,0.001252,-0.004109,0.001072,   8.489
   333.2,0.001239,0.001255,-0.004064,0.001059,   8.487
   333.4,0.001239,0.001250,-0.003991,0.001096,   8.487
   333.6,0.001235,0.001250,-0.003959,0.001072,   8.489
   333.8,0.001239,0.001251,-0.004012,0.001059,   8.487
   334.0,0.001239,0.001249,-0.004089,0.001096,   8.488
   334.2,0.001235,0.001253,-0.004252,0.001072,   8.487
   334.4,0.001239,0.001257,-0.004337,0.001059,   8.488
   334.6,0.001239,0.001254,-0.004414,0.001096,   8.486
   334.8,0.001235,0.001254,-0.004499,0.001072,   8.488
   335.0,0.001239,0.001258,-0.004499,0.001059,   8.491
   335.2,0.001239,0.001253,-0.004479,0.001096,   8.491
   335.4,0.001235,0.001254,-0.004426,0.001072,   8.489
   335.6,0.001239,0.001252,-0.004382,0.001059,   8.489
   335.8,0.001239,0.001246,-0.004317,0.001096,   8.489
   336.0,0.001235,0.001249,-0.004272,0.001072,   8.492
   336.2,0.001239,0.001254,-0.004227,0.001059,   8.492
   336.4,0.001239,0.001254,-0.004194,0.001096,   8.491
   336.6,0.001232,0.001251,-0.004154,0.001072,   8.486
   336.8,0.001233,0.001255,-0.004154,0.001059,   8.484
   337.0,0.001240,0.001255,-0.004194,0.001096,   8.489
   337.2,0.001236,0.001250,-0.004239,0.001072,   8.491
   337.4,0.001240,0.001250,-0.004247,0.001059,   8.487
   337.6,0.001240,0.001253,-0.004235,0.001096,   8.485
   337.8,0.001243,0.001252,-0.004194,0.001072,   8.487
   338.0,0.001243,0.001260,-0.004215,0.001059,   8.489
   338.2,0.001240,0.001262,-0.004259,0.001096,   8.490
   338.4,0.001240,0.001254,-0.004337,0.001072,   8.489
   338.6,0.001243,0.001257,-0.004304,0.001059,   8.491
   338.8,0.001240,0.001257,-0.004259,0.001096,   8.484
   339.0,0.001240,0.001253,-0.004174,0.001096,   8.490
   339.2,0.001243,0.001253,-0.004470,0.001072,   8.486
   339.4,0.001240,0.001253,-0.004936,0.001096,   8.488
   339.6,0.001240,0.001253,-0.005591,0.001096,   8.486
   339.8,0.001243,0.001255,-0.005708,0.001072,   8.486
   340.0,0.001240,0.001252,-0.005683,0.001096,   8.490
   340.2,0.001240,0.001249,-0.005453,0.001096,   8.488
   340.4,0.001243,0.001251,-0.005073,0.001072,   8.486
   340.6,0.001240,0.001254,-0.004936,0.001059,   8.486
   340.8,0.001240,0.001251,-0.004810,0.001096,   8.488
   341.0,0.001239,0.001260,-0.004681,0.001072,   8.486
   341.2,0.001239,0.001259,-0.004636,0.001059,   8.489
   341.4,0.001242,0.001258,-0.004628,0.001096,   8.488
   341.6,0.001235,0.001263,-0.004640,0.001072,   8.488
   341.8,0.001242,0.001265,-0.004588,0.001059,   8.485
   342.0,0.001245,0.001263,-0.004515,0.001096,   8.483
   342.2,0.001238,0.001266,-0.004450,0.001072,   8.488
   342.4,0.001248,0.001265,-0.004365,0.001059,   8.486
   342.6,0.001251,0.001259,-0.004272,0.001096,   8.487
   342.8,0.001241,0.001267,-0.004227,0.001072,   8.487
   343.0,0.001248,0.001264,-0.004235,0.001059,   8.490
   343.2,0.001251,0.001264,-0.004259,0.001096,   8.488
   343.4,0.001241,0.001267,-0.004337,0.001072,   8.489
   343.6,0.001245,0.001265,-0.004284,0.001059,   8.490
   343.8,0.001245,0.001265,-0.004207,0.001096,   8.490
   344.0,0.001238,0.001262,-0.004117,0.001072,   8.490
   344.2,0.001232,0.001267,-0.004044,0.001059,   8.489
   344.4,0.001235,0.001267,-0.003991,0.001096,   8.490
   344.6,0.001235,0.001261,-0.003999,0.001072,   8.487
   344.8,0.001235,0.001265,-0.003975,0.001059,   8.487
   345.0,0.001235,0.001261,-0.003954,0.001096,   8.488
   345.2,0.001227,0.001259,-0.003954,0.001072,   8.488
   345.4,0.001228,0.001257,-0.004040,0.001059,   8.485
   345.6,0.001225,0.001253,-0.004170,0.001096,   8.485
   345.8,0.001228,0.001250,-0.004332,0.001072,   8.485
   346.0,0.001228,0.001246,-0.004345,0.001059,   8.488
   346.2,0.001233,0.001248,-0.004332,0.001096,   8.490
   346.4,0.001233,0.001246,-0.004239,0.001072,   8.486
   346.6,0.001228,0.001252,-0.004345,0.001059,   8.486
   346.8,0.001236,0.001252,-0.004555,0.001096,   8.490
   347.0,0.001236,0.001252,-0.004851,0.001072,   8.487
   347.2,0.001232,0.001252,-0.004798,0.001059,   8.492
   347.4,0.001239,0.001244,-0.004668,0.001096,   8.488
   347.6,0.001239,0.001253,-0.004413,0.001096,   8.487
   347.8,0.001235,0.001259,-0.004866,0.001072,   8.487
   348.0,0.001239,0.001254,-0.005634,0.001096,   8.490
   348.2,0.001239,0.001251,-0.006686,0.001096,   8.487
   348.4,0.001235,0.001251,-0.006863,0.001059,   8.490
   348.6,0.001239,0.001248,-0.006738,0.001096,   8.492
   348.8,0.001242,0.001246,-0.006360,0.001083,   8.489
   349.0,0.001235,0.001246,-0.005659,0.001045,   8.487
   349.2,0.001242,0.001243,-0.005416,0.001059,   8.486
   349.4,0.001245,0.001243,-0.005206,0.001083,   8.485
   349.6,0.001235,0.001246,-0.005036,0.001045,   8.486
   349.8,0.001235,0.001243,-0.004854,0.001059,   8.488
   350.0,0.001238,0.001246,-0.004696,0.001045,   8.488
   350.2,0.001235,0.001254,-0.004559,0.001045,   8.489
   350.4,0.001242,0.001254,-0.004486,0.001059,   8.486
   350.6,0.001245,0.001251,-0.004506,0.001045,   8.485
   350.8,0.001235,0.001255,-0.004571,0.001045,   8.487
   351.0,0.001242,0.001256,-0.004563,0.001059,   8.489
   351.2,0.001245,0.001250,-0.004563,0.001083,   8.488
   351.4,0.001235,0.001256,-0.004583,0.001045,   8.485
   351.6,0.001235,0.001254,-0.004526,0.001059,   8.486
   351.8,0.001238,0.001253,-0.004401,0.001083,   8.487
   352.0,0.001235,0.001258,-0.004283,0.001045,   8.488
   352.2,0.001235,0.001254,-0.004238,0.001059,   8.488
   352.4,0.001235,0.001254,-0.004218,0.001083,   8.488
   352.6,0.001235,0.001256,-0.004238,0.001045,   8.490
   352.8,0.001232,0.001248,-0.004250,0.001059,   8.486
   353.0,0.001232,0.001247,-0.004336,0.001083,   8.485
   353.2,0.001232,0.001250,-0.004405,0.001045,   8.484
   353.4,0.001228,0.001250,-0.004425,0.001059,   8.487
   353.6,0.001228,0.001244,-0.004433,0.001083,   8.488
   353.8,0.001228,0.001250,-0.004425,0.001045,   8.487
   354.0,0.001228,0.001250,-0.004393,0.001059,   8.489
   354.2,0.001228,0.001243,-0.004368,0.001083,   8.491
   354.4,0.001228,0.001246,-0.004343,0.001045,   8.492
   354.6,0.001228,0.001246,-0.004364,0.001059,   8.486
   354.8,0.001228,0.001243,-0.004408,0.001083,   8.486
   355.0,0.001221,0.001248,-0.004486,0.001045,   8.489
   355.2,0.001228,0.001250,-0.004716,0.001059,   8.489
   355.4,0.001228,0.001245,-0.005012,0.001083,   8.489
   355.6,0.001221,0.001250,-0.005404,0.001059,   8.489
   355.8,0.001221,0.001254,-0.005436,0.001059,   8.487
   356.0,0.001228,0.001250,-0.005331,0.001096,   8.489
   356.2,0.001232,0.001248,-0.005101,0.001072,   8.489
   356.4,0.001232,0.001251,-0.005004,0.001059,   8.488
   356.6,0.001235,0.001248,-0.004879,0.001096,   8.489
   356.8,0.001235,0.001254,-0.004761,0.001096,   8.489
   357.0,0.001235,0.001259,-0.004664,0.001059,   8.492
   357.2,0.001232,0.001259,-0.004579,0.001096,   8.490
   357.4,0.001232,0.001260,-0.004494,0.001083,   8.487
   357.6,0.001235,0.001261,-0.004449,0.001045,   8.485
   357.8,0.001239,0.001261,-0.004436,0.001083,   8.488
   358.0,0.001242,0.001258,-0.004416,0.001083,   8.489
   358.2,0.001235,0.001256,-0.004457,0.001059,   8.493
   358.4,0.001242,0.001258,-0.004497,0.001059,   8.488
   358.6,0.001245,0.001260,-0.004570,0.001096,   8.488
   358.8,0.001241,0.001265,-0.004627,0.001072,   8.490
   359.0,0.001251,0.001269,-0.004659,0.001072,   8.493
   359.2,0.001258,0.001264,-0.004700,0.001109,   8.487
   359.4,0.001253,0.001269,-0.004724,0.001085,   8.492
   359.6,0.001264,0.001272,-0.004692,0.001085,   8.489
   359.8,0.001270,0.001272,-0.004647,0.001123,   8.488
   360.0,0.001266,0.001280,-0.004562,0.001099,   8.489
   360.2,0.001273,0.001283,-0.004570,0.001085,   8.487
   360.4,0.001276,0.001282,-0.004622,0.001123,   8.490
   360.6,0.001272,0.001282,-0.004700,0.001099,   8.489
   360.8,0.001279,0.001281,-0.004870,0.001099,   8.493
   361.0,0.001285,0.001281,-0.005153,0.001136,   8.494
   361.2,0.001285,0.001283,-0.005512,0.001112,   8.491
   361.4,0.001293,0.001282,-0.005460,0.001112,   8.487
   361.6,0.001296,0.001282,-0.005278,0.001136,   8.490
   361.8,0.001296,0.001282,-0.004958,0.001112,   8.490
   362.0,0.001293,0.001286,-0.005358,0.001112,   8.491
   362.2,0.001297,0.001285,-0.006065,0.001136,   8.493
   362.4,0.001297,0.001279,-0.007091,0.001112,   8.492
   362.6,0.001297,0.001281,-0.007079,0.001112,   8.490
   362.8,0.001294,0.001278,-0.006693,0.001136,   8.490
   363.0,0.001294,0.001283,-0.005948,0.001112,   8.492
   363.2,0.001287,0.001281,-0.005661,0.001112,   8.495
   363.4,0.001282,0.001276,-0.005419,0.001136,   8.488
   363.6,0.001279,0.001281,-0.005201,0.001112,   8.493
   363.8,0.001284,0.001285,-0.005055,0.001099,   8.490
   364.0,0.001280,0.001279,-0.005003,0.001123,   8.492
   364.2,0.001280,0.001282,-0.005007,0.001099,   8.493
   364.4,0.001273,0.001285,-0.004870,0.001085,   8.493
   364.6,0.001277,0.001280,-0.004720,0.001123,   8.491
   364.8,0.001277,0.001280,-0.004537,0.001099,   8.492
   365.0,0.001274,0.001280,-0.004768,0.001085,   8.491
   365.2,0.001271,0.001274,-0.005193,0.001109,   8.485
   365.4,0.001271,0.001274,-0.005827,0.001109,   8.491
   365.6,0.001264,0.001274,-0.005872,0.001072,   8.493
   365.8,0.001261,0.001266,-0.005759,0.001109,   8.494
   366.0,0.001261,0.001272,-0.005469,0.001109,   8.491
   366.2,0.001256,0.001270,-0.005299,0.001072,   8.493
   366.4,0.001261,0.001262,-0.005129,0.001109,   8.492
   366.6,0.001261,0.001270,-0.004947,0.001109,   8.487
   366.8,0.001253,0.001271,-0.004829,0.001085,   8.494
   367.0,0.001258,0.001265,-0.004732,0.001085,   8.493
   367.2,0.001254,0.001271,-0.004659,0.001109,   8.489
   367.4,0.001247,0.001266,-0.004639,0.001085,   8.489
   367.6,0.001251,0.001261,-0.004594,0.001085,   8.492
   367.8,0.001251,0.001263,-0.004554,0.001109,   8.493
   368.0,0.001244,0.001263,-0.004542,0.001085,   8.492
   368.2,0.001251,0.001255,-0.004542,0.001085,   8.491
   368.4,0.001254,0.001258,-0.004574,0.001109,   8.490
   368.6,0.001244,0.001259,-0.004619,0.001085,   8.491
   368.8,0.001245,0.001265,-0.004619,0.001085,   8.488
   369.0,0.001248,0.001251,-0.004599,0.001109,   8.488
   369.2,0.001241,0.001259,-0.004599,0.001085,   8.490
   369.4,0.001248,0.001259,-0.004566,0.001085,   8.491
   369.6,0.001251,0.001251,-0.004494,0.001085,   8.491
   369.8,0.001241,0.001254,-0.004449,0.001099,   8.491
   370.0,0.001245,0.001260,-0.004416,0.001085,   8.491
   370.2,0.001248,0.001257,-0.004376,0.001072,   8.493
   370.4,0.001241,0.001259,-0.004364,0.001085,   8.493
   370.6,0.001245,0.001261,-0.004404,0.001085,   8.492
   370.8,0.001248,0.001258,-0.004449,0.001109,   8.491
   371.0,0.001241,0.001258,-0.004534,0.001085,   8.492
   371.2,0.001248,0.001258,-0.004587,0.001072,   8.491
   371.4,0.001251,0.001255,-0.004644,0.001096,   8.493
   371.6,0.001241,0.001258,-0.004741,0.001072,   8.493
   371.8,0.001245,0.001255,-0.004786,0.001059,   8.489
