Run Name,Run 1
Run Date,10:45:55 AM   04-03-15
Method Name,34% CRL group 2 April 7 2014.3
Export Format Version, 1.00
Method ID, 2448
Points/Second, 5.00
Number of Records,   2850
Offset from Run Start Time,00:00:00
Run End Time,00:09:30
Time,Second
QuadTec 1, (280.0 nm), AU
QuadTec 2, (260.0 nm), AU
Gradient Pump,<Not Selected>
QuadTec 3, (214.0 nm), AU
QuadTec 4, (405.0 nm), AU
Conductivity,mS/cm
Trace 6,<Not Available>
GP Pressure,<Not Selected>
Volume,<Not Selected>
Fraction,<Not Available>
Time,QuadTec 1,QuadTec 2,QuadTec 3,QuadTec 4,Conductivity
     0.0,0.001475,0.001372,0.033890,0.001140,  39.208
     0.2,0.001478,0.001374,0.033872,0.001140,  39.215
     0.4,0.001478,0.001373,0.033825,0.001126,  39.221
     0.6,0.001478,0.001373,0.033793,0.001151,  39.235
     0.8,0.001481,0.001373,0.033833,0.001151,  39.241
     1.0,0.001481,0.001370,0.033890,0.001164,  39.252
     1.2,0.001478,0.001377,0.033985,0.001164,  39.257
     1.4,0.001481,0.001381,0.033956,0.001177,  39.262
     1.6,0.001481,0.001378,0.033851,0.001153,  39.264
     1.8,0.001485,0.001370,0.033725,0.001153,  39.267
     2.0,0.001485,0.001367,0.033715,0.001167,  39.269
     2.2,0.001478,0.001369,0.033715,0.001129,  39.269
     2.4,0.001488,0.001372,0.033762,0.001153,  39.267
     2.6,0.000877,0.001375,0.033845,0.001167,  39.264
     2.8,0.000884,0.001381,0.033895,0.001129,  39.259
     3.0,0.000166,0.001381,0.034000,0.001153,  39.258
     3.2,-0.000217,0.001387,0.034011,0.001167,  39.250
     3.4,0.000000,0.001387,0.033990,0.001116,  39.247
     3.6,0.000000,0.000000,0.032621,0.001140,  39.217
     3.8,0.000000,0.000000,0.032621,0.001153,  39.199
     4.0,0.000000,0.000000,0.032621,0.001116,  39.189
     4.2,0.000000,0.000000,0.032621,0.001153,  39.180
     4.4,0.000000,0.000000,0.000000,0.000059,  39.174
     4.6,0.000000,0.000000,0.000000,0.000000,  39.172
     4.8,0.000000,0.000000,0.000000,0.000000,  39.170
     5.0,0.000000,0.000000,0.000000,0.000000,  39.168
     5.2,0.000000,0.000000,0.000000,0.000000,  39.165
     5.4,0.000000,0.000000,0.000000,0.000000,  39.163
     5.6,0.000000,0.000000,0.000000,0.000000,  39.161
     5.8,0.000000,0.000000,0.000000,0.000000,  39.159
     6.0,0.000000,0.000000,0.000000,0.000000,  39.158
     6.2,0.000000,0.000000,0.000000,0.000000,  39.148
     6.4,0.000000,0.000000,0.000000,0.000000,  39.149
     6.6,0.000000,0.000000,0.000000,0.000000,  39.157
     6.8,0.000000,0.000000,0.000000,0.000000,  39.171
     7.0,-0.000258,0.000000,0.000000,0.000000,  39.177
     7.2,-0.000468,0.000000,0.000000,0.000000,  39.188
     7.4,-0.000630,0.000000,0.000000,0.000000,  39.190
     7.6,-0.000761,0.000000,0.000000,0.000000,  39.190
     7.8,-0.000844,0.000000,0.000000,0.000000,  39.191
     8.0,-0.000877,-0.000226,0.000000,0.000000,  39.194
     8.2,-0.000900,-0.000408,-0.000086,0.000000,  39.194
     8.4,-0.000881,-0.000549,-0.000205,0.000000,  39.197
     8.6,-0.000824,-0.000653,-0.000416,0.000000,  39.192
     8.8,-0.000795,-0.000721,-0.000765,0.000000,  39.195
     9.0,-0.000751,-0.000740,-0.001203,-0.000216,  39.197
     9.2,-0.000695,-0.000782,-0.001758,-0.000296,  39.196
     9.4,-0.000658,-0.000812,-0.002406,-0.000376,  39.196
     9.6,-0.000627,-0.000828,-0.003037,-0.000457,  39.193
     9.8,-0.000596,-0.000822,-0.003731,-0.000497,  39.183
    10.0,-0.000574,-0.000796,-0.004481,-0.000563,  39.154
    10.2,-0.000537,-0.000751,-0.004833,-0.000617,  39.131
    10.4,-0.000500,-0.000724,-0.005031,-0.000603,  39.131
    10.6,-0.000460,-0.000690,-0.005073,-0.000577,  39.124
    10.8,-0.000446,-0.000660,-0.005217,-0.000537,  39.119
    11.0,-0.000437,-0.000627,-0.005325,-0.000497,  39.119
    11.2,-0.000429,-0.000589,-0.005443,-0.000457,  39.117
    11.4,-0.000446,-0.000549,-0.005615,-0.000430,  39.115
    11.6,-0.000460,-0.000524,-0.005833,-0.000403,  39.110
    11.8,-0.000490,-0.000502,-0.006061,-0.000376,  39.111
    12.0,-0.000516,-0.000494,-0.005959,-0.000350,  39.110
    12.2,-0.000527,-0.000498,-0.005756,-0.000323,  39.106
    12.4,-0.000541,-0.000514,-0.005397,-0.000310,  39.110
    12.6,-0.000567,-0.000545,-0.005261,-0.000283,  39.113
    12.8,-0.000585,-0.000564,-0.005191,-0.000283,  39.115
    13.0,-0.000596,-0.000573,-0.005171,-0.000296,  39.129
    13.2,-0.000622,-0.000583,-0.005063,-0.000336,  39.138
    13.4,-0.000638,-0.000602,-0.004908,-0.000363,  39.153
    13.6,-0.000649,-0.000608,-0.004752,-0.000376,  39.163
    13.8,-0.000672,-0.000619,-0.004559,-0.000454,  39.175
    14.0,-0.000687,-0.000639,-0.004420,-0.000481,  39.185
    14.2,-0.000695,-0.000658,-0.004247,-0.000545,  39.197
    14.4,-0.000690,-0.000679,-0.004108,-0.000572,  39.200
    14.6,-0.000669,-0.000694,-0.004008,-0.000561,  39.203
    14.8,-0.000624,-0.000708,-0.003953,-0.000574,  39.208
    15.0,-0.000595,-0.000714,-0.003938,-0.000625,  39.202
    15.2,-0.000548,-0.000718,-0.003938,-0.000614,  39.194
    15.4,-0.000492,-0.000716,-0.003992,-0.000627,  39.184
    15.6,-0.000462,-0.000711,-0.004100,-0.000678,  39.183
    15.8,-0.000431,-0.000699,-0.004245,-0.000667,  39.180
    16.0,-0.000396,-0.000671,-0.004461,-0.000681,  39.178
    16.2,-0.000376,-0.000633,-0.004749,-0.000732,  39.173
    16.4,-0.000354,-0.000585,-0.004950,-0.000734,  39.164
    16.6,-0.000331,-0.000552,-0.005187,-0.000694,  39.125
    16.8,-0.000322,-0.000524,-0.005425,-0.000678,  39.105
    17.0,-0.000313,-0.000492,-0.005490,-0.000561,  39.093
    17.2,-0.000308,-0.000472,-0.005523,-0.000507,  39.093
    17.4,-0.000311,-0.000453,-0.005477,-0.000491,  39.087
    17.6,-0.000311,-0.000434,-0.005723,-0.000427,  39.086
    17.8,-0.000313,-0.000420,-0.006054,-0.000387,  39.083
    18.0,-0.000322,-0.000407,-0.006494,-0.000398,  39.080
    18.2,-0.000295,-0.000394,-0.006530,-0.000347,  39.080
    18.4,-0.000253,-0.000402,-0.006384,-0.000321,  39.077
    18.6,-0.000183,-0.000417,-0.006064,-0.000331,  39.068
    18.8,-0.000146,-0.000445,-0.005782,-0.000280,  39.066
    19.0,-0.000120,-0.000426,-0.005428,-0.000280,  39.065
    19.2,-0.000085,-0.000375,-0.005001,-0.000331,  39.063
    19.4,-0.000109,-0.000317,-0.004610,-0.000334,  39.072
    19.6,-0.000169,-0.000272,-0.004237,-0.000334,  39.079
    19.8,-0.000242,-0.000223,-0.003837,-0.000358,  39.097
    20.0,-0.000304,-0.000173,-0.003584,-0.000334,  39.117
    20.2,-0.000372,-0.000180,-0.003450,-0.000307,  39.123
    20.4,-0.000438,-0.000208,-0.003391,-0.000291,  39.124
    20.6,-0.000509,-0.000266,-0.003337,-0.000200,  39.130
    20.8,-0.000588,-0.000316,-0.003311,-0.000187,  39.133
    21.0,-0.000659,-0.000378,-0.003355,-0.000174,  39.134
    21.2,-0.000662,-0.000451,-0.003437,-0.000211,  39.135
    21.4,-0.000638,-0.000501,-0.003437,-0.000200,  39.135
    21.6,-0.000572,-0.000550,-0.003481,-0.000265,  39.139
    21.8,-0.000535,-0.000604,-0.003515,-0.000331,  39.138
    22.0,-0.000498,-0.000628,-0.003667,-0.000374,  39.138
    22.2,-0.000451,-0.000634,-0.003910,-0.000414,  39.135
    22.4,-0.000417,-0.000622,-0.004234,-0.000518,  39.135
    22.6,-0.000386,-0.000610,-0.004487,-0.000534,  39.133
    22.8,-0.000355,-0.000596,-0.004749,-0.000547,  39.125
    23.0,-0.000327,-0.000575,-0.005014,-0.000612,  39.083
    23.2,-0.000306,-0.000538,-0.005269,-0.000587,  39.062
    23.4,-0.000284,-0.000520,-0.005507,-0.000561,  39.052
    23.6,-0.000272,-0.000491,-0.005746,-0.000558,  39.048
    23.8,-0.000266,-0.000458,-0.005695,-0.000467,  39.048
    24.0,-0.000273,-0.000435,-0.005452,-0.000441,  39.046
    24.2,-0.000275,-0.000411,-0.005069,-0.000414,  39.047
    24.4,-0.000298,-0.000393,-0.005039,-0.000350,  39.045
    24.6,-0.000315,-0.000376,-0.005075,-0.000323,  39.042
    24.8,-0.000341,-0.000369,-0.005231,-0.000310,  39.042
    25.0,-0.000363,-0.000361,-0.005241,-0.000283,  39.047
    25.2,-0.000389,-0.000367,-0.005216,-0.000256,  39.047
    25.4,-0.000406,-0.000388,-0.005200,-0.000230,  39.055
    25.6,-0.000428,-0.000424,-0.005138,-0.000216,  39.060
    25.8,-0.000453,-0.000449,-0.005041,-0.000203,  39.069
    26.0,-0.000473,-0.000464,-0.004917,-0.000230,  39.082
    26.2,-0.000491,-0.000480,-0.005151,-0.000256,  39.106
    26.4,-0.000514,-0.000494,-0.005523,-0.000270,  39.116
    26.6,-0.000533,-0.000510,-0.006061,-0.000296,  39.136
    26.8,-0.000551,-0.000520,-0.005999,-0.000336,  39.141
    27.0,-0.000574,-0.000531,-0.005717,-0.000350,  39.148
    27.2,-0.000585,-0.000548,-0.005258,-0.000376,  39.147
    27.4,-0.000576,-0.000570,-0.005250,-0.000403,  39.144
    27.6,-0.000554,-0.000587,-0.005399,-0.000416,  39.141
    27.8,-0.000513,-0.000606,-0.005668,-0.000443,  39.129
    28.0,-0.000476,-0.000619,-0.005660,-0.000470,  39.131
    28.2,-0.000433,-0.000627,-0.005586,-0.000497,  39.128
    28.4,-0.000383,-0.000623,-0.005429,-0.000497,  39.126
    28.6,-0.000346,-0.000608,-0.005224,-0.000523,  39.124
    28.8,-0.000315,-0.000587,-0.005229,-0.000523,  39.125
    29.0,-0.000291,-0.000545,-0.005271,-0.000537,  39.123
    29.2,-0.000266,-0.000489,-0.005366,-0.000563,  39.123
    29.4,-0.000251,-0.000461,-0.005361,-0.000577,  39.119
    29.6,-0.000238,-0.000425,-0.005341,-0.000537,  39.082
    29.8,-0.000232,-0.000396,-0.005302,-0.000497,  39.064
    30.0,-0.000235,-0.000380,-0.005308,-0.000430,  39.057
    30.2,-0.000251,-0.000359,-0.005315,-0.000376,  39.055
    30.4,-0.000248,-0.000350,-0.005351,-0.000336,  39.049
    30.6,-0.000244,-0.000335,-0.005700,-0.000310,  39.049
    30.8,-0.000241,-0.000331,-0.006172,-0.000283,  39.050
    31.0,-0.000229,-0.000324,-0.006837,-0.000243,  39.050
    31.2,-0.000207,-0.000327,-0.006755,-0.000216,  39.042
    31.4,-0.000189,-0.000330,-0.006371,-0.000190,  39.048
    31.6,-0.000154,-0.000332,-0.005728,-0.000227,  39.044
    31.8,-0.000169,-0.000342,-0.005446,-0.000227,  39.048
    32.0,-0.000203,-0.000323,-0.005194,-0.000240,  39.042
    32.2,-0.000252,-0.000286,-0.005009,-0.000291,  39.048
    32.4,-0.000293,-0.000240,-0.004762,-0.000307,  39.056
    32.6,-0.000345,-0.000248,-0.004497,-0.000307,  39.071
    32.8,-0.000401,-0.000264,-0.004214,-0.000318,  39.081
    33.0,-0.000438,-0.000294,-0.004038,-0.000254,  39.095
    33.2,-0.000472,-0.000333,-0.003928,-0.000240,  39.109
    33.4,-0.000499,-0.000377,-0.003845,-0.000278,  39.114
    33.6,-0.000536,-0.000422,-0.003781,-0.000254,  39.115
    33.8,-0.000573,-0.000461,-0.003770,-0.000267,  39.118
    34.0,-0.000610,-0.000495,-0.003781,-0.000345,  39.117
    34.2,-0.000595,-0.000524,-0.003752,-0.000374,  39.120
    34.4,-0.000558,-0.000551,-0.003750,-0.000401,  39.119
    34.6,-0.000496,-0.000573,-0.003729,-0.000441,  39.120
    34.8,-0.000456,-0.000592,-0.003783,-0.000457,  39.119
    35.0,-0.000416,-0.000595,-0.003874,-0.000483,  39.121
    35.2,-0.000379,-0.000581,-0.004028,-0.000497,  39.124
    35.4,-0.000345,-0.000551,-0.004219,-0.000510,  39.117
    35.6,-0.000314,-0.000526,-0.004343,-0.000523,  39.119
    35.8,-0.000276,-0.000493,-0.004459,-0.000537,  39.115
    36.0,-0.000259,-0.000455,-0.004593,-0.000550,  39.077
    36.2,-0.000240,-0.000429,-0.004691,-0.000550,  39.054
    36.4,-0.000214,-0.000398,-0.004789,-0.000523,  39.051
    36.6,-0.000215,-0.000373,-0.004853,-0.000470,  39.052
    36.8,-0.000218,-0.000351,-0.004917,-0.000403,  39.053
    37.0,-0.000228,-0.000329,-0.005018,-0.000363,  39.054
    37.2,-0.000240,-0.000324,-0.005100,-0.000336,  39.053
    37.4,-0.000262,-0.000314,-0.005128,-0.000310,  39.056
    37.6,-0.000285,-0.000304,-0.005146,-0.000283,  39.059
    37.8,-0.000307,-0.000297,-0.005172,-0.000256,  39.063
    38.0,-0.000333,-0.000290,-0.005192,-0.000230,  39.066
    38.2,-0.000357,-0.000302,-0.005241,-0.000203,  39.070
    38.4,-0.000379,-0.000321,-0.005274,-0.000203,  39.081
    38.6,-0.000401,-0.000352,-0.005248,-0.000190,  39.083
    38.8,-0.000422,-0.000371,-0.005215,-0.000190,  39.084
    39.0,-0.000441,-0.000393,-0.005137,-0.000216,  39.097
    39.2,-0.000462,-0.000410,-0.005009,-0.000256,  39.111
    39.4,-0.000481,-0.000432,-0.004824,-0.000283,  39.127
    39.6,-0.000502,-0.000446,-0.004595,-0.000310,  39.128
    39.8,-0.000515,-0.000460,-0.004466,-0.000323,  39.128
    40.0,-0.000530,-0.000479,-0.004384,-0.000350,  39.129
    40.2,-0.000539,-0.000502,-0.004312,-0.000363,  39.128
    40.4,-0.000535,-0.000525,-0.004286,-0.000390,  39.128
    40.6,-0.000516,-0.000544,-0.004335,-0.000403,  39.132
    40.8,-0.000488,-0.000563,-0.004438,-0.000416,  39.126
    41.0,-0.000454,-0.000570,-0.004438,-0.000457,  39.127
    41.2,-0.000414,-0.000572,-0.004456,-0.000470,  39.128
    41.4,-0.000364,-0.000575,-0.004471,-0.000521,  39.126
    41.6,-0.000322,-0.000563,-0.004821,-0.000547,  39.126
    41.8,-0.000297,-0.000537,-0.005353,-0.000561,  39.127
    42.0,-0.000286,-0.000504,-0.006086,-0.000574,  39.126
    42.2,-0.000271,-0.000461,-0.006966,-0.000574,  39.126
    42.4,-0.000265,-0.000430,-0.007000,-0.000563,  39.124
    42.6,-0.000271,-0.000407,-0.006795,-0.000537,  39.097
    42.8,-0.000277,-0.000383,-0.006361,-0.000483,  39.087
    43.0,-0.000286,-0.000367,-0.006184,-0.000416,  39.081
    43.2,-0.000305,-0.000363,-0.006026,-0.000363,  39.079
    43.4,-0.000314,-0.000355,-0.005877,-0.000323,  39.078
    43.6,-0.000317,-0.000352,-0.005749,-0.000310,  39.084
    43.8,-0.000320,-0.000360,-0.005649,-0.000283,  39.085
    44.0,-0.000333,-0.000360,-0.005613,-0.000256,  39.085
    44.2,-0.000351,-0.000369,-0.005521,-0.000243,  39.086
    44.4,-0.000372,-0.000379,-0.005403,-0.000230,  39.089
    44.6,-0.000390,-0.000383,-0.005302,-0.000230,  39.090
    44.8,-0.000419,-0.000390,-0.005251,-0.000243,  39.092
    45.0,-0.000430,-0.000400,-0.005238,-0.000256,  39.098
    45.2,-0.000452,-0.000414,-0.005245,-0.000283,  39.106
    45.4,-0.000478,-0.000422,-0.005247,-0.000286,  39.116
    45.6,-0.000499,-0.000439,-0.005258,-0.000299,  39.122
    45.8,-0.000514,-0.000466,-0.005286,-0.000336,  39.129
    46.0,-0.000536,-0.000484,-0.005186,-0.000299,  39.137
    46.2,-0.000549,-0.000503,-0.005039,-0.000299,  39.137
    46.4,-0.000554,-0.000530,-0.004854,-0.000363,  39.136
    46.6,-0.000580,-0.000546,-0.004705,-0.000366,  39.145
    46.8,-0.000607,-0.000559,-0.004566,-0.000379,  39.146
    47.0,-0.000628,-0.000574,-0.004446,-0.000443,  39.144
    47.2,-0.000614,-0.000585,-0.004343,-0.000432,  39.142
    47.4,-0.000567,-0.000600,-0.004268,-0.000446,  39.150
    47.6,-0.000495,-0.000604,-0.004232,-0.000510,  39.148
    47.8,-0.000456,-0.000612,-0.004294,-0.000499,  39.149
    48.0,-0.000413,-0.000608,-0.004420,-0.000499,  39.153
    48.2,-0.000359,-0.000586,-0.004631,-0.000537,  39.150
    48.4,-0.000327,-0.000558,-0.004775,-0.000512,  39.151
    48.6,-0.000296,-0.000532,-0.004937,-0.000512,  39.152
    48.8,-0.000264,-0.000490,-0.005110,-0.000550,  39.149
    49.0,-0.000246,-0.000448,-0.005218,-0.000512,  39.127
    49.2,-0.000217,-0.000416,-0.005290,-0.000486,  39.124
    49.4,-0.000200,-0.000390,-0.005344,-0.000446,  39.129
    49.6,-0.000205,-0.000363,-0.005372,-0.000443,  39.126
    49.8,-0.000200,-0.000342,-0.005380,-0.000352,  39.129
    50.0,-0.000213,-0.000324,-0.005377,-0.000336,  39.127
    50.2,-0.000236,-0.000314,-0.005349,-0.000310,  39.137
    50.4,-0.000256,-0.000302,-0.005375,-0.000232,  39.135
    50.6,-0.000280,-0.000300,-0.005411,-0.000205,  39.144
    50.8,-0.000309,-0.000289,-0.005477,-0.000216,  39.141
    51.0,-0.000330,-0.000291,-0.005441,-0.000165,  39.147
    51.2,-0.000347,-0.000300,-0.005359,-0.000152,  39.143
    51.4,-0.000369,-0.000322,-0.005233,-0.000176,  39.148
    51.6,-0.000392,-0.000345,-0.005107,-0.000125,  39.150
    51.8,-0.000414,-0.000360,-0.004963,-0.000125,  39.153
    52.0,-0.000425,-0.000372,-0.004793,-0.000190,  39.149
    52.2,-0.000440,-0.000388,-0.004685,-0.000243,  39.158
    52.4,-0.000455,-0.000405,-0.004621,-0.000256,  39.156
    52.6,-0.000471,-0.000433,-0.004577,-0.000283,  39.157
    52.8,-0.000491,-0.000459,-0.004551,-0.000310,  39.160
    53.0,-0.000492,-0.000476,-0.004561,-0.000336,  39.166
    53.2,-0.000497,-0.000493,-0.004592,-0.000350,  39.163
    53.4,-0.000496,-0.000501,-0.004510,-0.000390,  39.165
    53.6,-0.000467,-0.000512,-0.004399,-0.000416,  39.163
    53.8,-0.000436,-0.000529,-0.004260,-0.000430,  39.166
    54.0,-0.000412,-0.000542,-0.004260,-0.000457,  39.166
    54.2,-0.000368,-0.000539,-0.004325,-0.000457,  39.165
    54.4,-0.000331,-0.000537,-0.004453,-0.000483,  39.165
    54.6,-0.000320,-0.000530,-0.004554,-0.000497,  39.165
    54.8,-0.000297,-0.000510,-0.004734,-0.000497,  39.168
    55.0,-0.000291,-0.000479,-0.004958,-0.000510,  39.167
    55.2,-0.000295,-0.000442,-0.005361,-0.000537,  39.168
    55.4,-0.000298,-0.000426,-0.005884,-0.000523,  39.164
    55.6,-0.000310,-0.000410,-0.006545,-0.000483,  39.149
    55.8,-0.000324,-0.000391,-0.007334,-0.000430,  39.148
    56.0,-0.000333,-0.000384,-0.007462,-0.000376,  39.147
    56.2,-0.000335,-0.000386,-0.007452,-0.000323,  39.140
    56.4,-0.000355,-0.000382,-0.007240,-0.000310,  39.143
    56.6,-0.000363,-0.000384,-0.007028,-0.000296,  39.143
    56.8,-0.000380,-0.000387,-0.006763,-0.000283,  39.146
    57.0,-0.000403,-0.000392,-0.006405,-0.000270,  39.145
    57.2,-0.000408,-0.000397,-0.006128,-0.000296,  39.148
    57.4,-0.000423,-0.000407,-0.005880,-0.000296,  39.146
    57.6,-0.000443,-0.000414,-0.005631,-0.000283,  39.146
    57.8,-0.000448,-0.000428,-0.005595,-0.000296,  39.147
    58.0,-0.000463,-0.000435,-0.005680,-0.000310,  39.146
    58.2,-0.000483,-0.000449,-0.005877,-0.000323,  39.149
    58.4,-0.000485,-0.000461,-0.005702,-0.000350,  39.156
    58.6,-0.000500,-0.000476,-0.005379,-0.000363,  39.162
    58.8,-0.000510,-0.000490,-0.004901,-0.000403,  39.162
    59.0,-0.000516,-0.000506,-0.004737,-0.000430,  39.168
    59.2,-0.000525,-0.000524,-0.004644,-0.000443,  39.173
    59.4,-0.000524,-0.000533,-0.004611,-0.000470,  39.169
    59.6,-0.000542,-0.000543,-0.004510,-0.000459,  39.169
    59.8,-0.000564,-0.000558,-0.004446,-0.000472,  39.172
    60.0,-0.000595,-0.000565,-0.004410,-0.000523,  39.169
    60.2,-0.000573,-0.000564,-0.004327,-0.000486,  39.170
    60.4,-0.000534,-0.000571,-0.004245,-0.000486,  39.173
    60.6,-0.000465,-0.000583,-0.004191,-0.000537,  39.175
    60.8,-0.000419,-0.000595,-0.004281,-0.000550,  39.174
    61.0,-0.000383,-0.000580,-0.004428,-0.000563,  39.174
    61.2,-0.000333,-0.000560,-0.004675,-0.000563,  39.172
    61.4,-0.000295,-0.000528,-0.004819,-0.000563,  39.170
    61.6,-0.000272,-0.000497,-0.004963,-0.000577,  39.171
    61.8,-0.000243,-0.000461,-0.005117,-0.000577,  39.175
    62.0,-0.000218,-0.000421,-0.005197,-0.000563,  39.152
    62.2,-0.000207,-0.000393,-0.005267,-0.000523,  39.148
    62.4,-0.000184,-0.000367,-0.005311,-0.000457,  39.154
    62.6,-0.000178,-0.000343,-0.005383,-0.000390,  39.152
    62.8,-0.000186,-0.000325,-0.005473,-0.000350,  39.155
    63.0,-0.000187,-0.000306,-0.005537,-0.000310,  39.159
    63.2,-0.000197,-0.000292,-0.005603,-0.000283,  39.158
    63.4,-0.000226,-0.000288,-0.005675,-0.000270,  39.161
    63.6,-0.000246,-0.000277,-0.005721,-0.000243,  39.160
    63.8,-0.000265,-0.000269,-0.005750,-0.000216,  39.161
    64.0,-0.000292,-0.000277,-0.005706,-0.000203,  39.158
    64.2,-0.000313,-0.000292,-0.005670,-0.000190,  39.160
    64.4,-0.000334,-0.000309,-0.005598,-0.000163,  39.156
    64.6,-0.000353,-0.000326,-0.005441,-0.000149,  39.155
    64.8,-0.000374,-0.000335,-0.005259,-0.000149,  39.152
    65.0,-0.000390,-0.000357,-0.005005,-0.000163,  39.157
    65.2,-0.000405,-0.000371,-0.004840,-0.000216,  39.158
    65.4,-0.000418,-0.000384,-0.004704,-0.000230,  39.163
    65.6,-0.000427,-0.000403,-0.004577,-0.000256,  39.168
    65.8,-0.000439,-0.000419,-0.004459,-0.000283,  39.174
    66.0,-0.000445,-0.000436,-0.004359,-0.000296,  39.171
    66.2,-0.000458,-0.000450,-0.004294,-0.000323,  39.173
    66.4,-0.000449,-0.000460,-0.004230,-0.000350,  39.175
    66.6,-0.000436,-0.000477,-0.004158,-0.000363,  39.174
    66.8,-0.000415,-0.000489,-0.004132,-0.000390,  39.173
    67.0,-0.000393,-0.000506,-0.004206,-0.000416,  39.177
    67.2,-0.000368,-0.000516,-0.004338,-0.000430,  39.170
    67.4,-0.000344,-0.000508,-0.004551,-0.000443,  39.177
    67.6,-0.000334,-0.000500,-0.004659,-0.000470,  39.175
    67.8,-0.000328,-0.000486,-0.004729,-0.000470,  39.175
    68.0,-0.000331,-0.000457,-0.004796,-0.000497,  39.179
    68.2,-0.000328,-0.000419,-0.004858,-0.000497,  39.178
    68.4,-0.000328,-0.000408,-0.004940,-0.000470,  39.172
    68.6,-0.000334,-0.000404,-0.005005,-0.000430,  39.156
    68.8,-0.000322,-0.000396,-0.005030,-0.000390,  39.151
    69.0,-0.000300,-0.000394,-0.005066,-0.000363,  39.150
    69.2,-0.000276,-0.000395,-0.005077,-0.000336,  39.145
    69.4,-0.000273,-0.000396,-0.005400,-0.000336,  39.147
    69.6,-0.000279,-0.000392,-0.005898,-0.000336,  39.149
    69.8,-0.000297,-0.000374,-0.006550,-0.000323,  39.147
    70.0,-0.000310,-0.000360,-0.007360,-0.000336,  39.148
    70.2,-0.000328,-0.000358,-0.007340,-0.000336,  39.148
    70.4,-0.000353,-0.000347,-0.007090,-0.000323,  39.151
    70.6,-0.000365,-0.000342,-0.006602,-0.000336,  39.150
    70.8,-0.000381,-0.000357,-0.006336,-0.000350,  39.151
    71.0,-0.000396,-0.000368,-0.006098,-0.000323,  39.150
    71.2,-0.000408,-0.000394,-0.005851,-0.000296,  39.149
    71.4,-0.000421,-0.000408,-0.005631,-0.000270,  39.156
    71.6,-0.000429,-0.000423,-0.005421,-0.000270,  39.161
    71.8,-0.000441,-0.000425,-0.005220,-0.000283,  39.166
    72.0,-0.000461,-0.000432,-0.005102,-0.000336,  39.170
    72.2,-0.000466,-0.000447,-0.005040,-0.000350,  39.180
    72.4,-0.000484,-0.000462,-0.005009,-0.000363,  39.183
    72.6,-0.000520,-0.000477,-0.004937,-0.000390,  39.187
    72.8,-0.000543,-0.000490,-0.004883,-0.000403,  39.190
    73.0,-0.000537,-0.000502,-0.004821,-0.000416,  39.186
    73.2,-0.000520,-0.000508,-0.004988,-0.000443,  39.187
    73.4,-0.000472,-0.000526,-0.005258,-0.000457,  39.192
    73.6,-0.000416,-0.000529,-0.005673,-0.000470,  39.186
    73.8,-0.000384,-0.000538,-0.005681,-0.000470,  39.190
    74.0,-0.000333,-0.000532,-0.005576,-0.000470,  39.188
    74.2,-0.000287,-0.000508,-0.005332,-0.000497,  39.192
    74.4,-0.000253,-0.000480,-0.005284,-0.000523,  39.191
    74.6,-0.000228,-0.000452,-0.005307,-0.000523,  39.191
    74.8,-0.000199,-0.000418,-0.005387,-0.000510,  39.188
    75.0,-0.000174,-0.000376,-0.005392,-0.000510,  39.169
    75.2,-0.000156,-0.000352,-0.005390,-0.000470,  39.161
    75.4,-0.000143,-0.000327,-0.005398,-0.000416,  39.162
    75.6,-0.000137,-0.000302,-0.005416,-0.000363,  39.161
    75.8,-0.000140,-0.000286,-0.005498,-0.000310,  39.163
    76.0,-0.000153,-0.000263,-0.005590,-0.000270,  39.163
    76.2,-0.000168,-0.000248,-0.005598,-0.000243,  39.167
    76.4,-0.000193,-0.000236,-0.005580,-0.000203,  39.166
    76.6,-0.000224,-0.000230,-0.005542,-0.000176,  39.164
    76.8,-0.000245,-0.000228,-0.005488,-0.000176,  39.160
    77.0,-0.000278,-0.000238,-0.005449,-0.000149,  39.157
    77.2,-0.000299,-0.000259,-0.005387,-0.000136,  39.157
    77.4,-0.000315,-0.000293,-0.005333,-0.000136,  39.153
    77.6,-0.000341,-0.000309,-0.005308,-0.000136,  39.152
    77.8,-0.000349,-0.000331,-0.005277,-0.000136,  39.155
    78.0,-0.000364,-0.000352,-0.005263,-0.000163,  39.161
    78.2,-0.000390,-0.000369,-0.005137,-0.000203,  39.166
    78.4,-0.000398,-0.000383,-0.004981,-0.000230,  39.172
    78.6,-0.000401,-0.000400,-0.004752,-0.000256,  39.175
    78.8,-0.000415,-0.000412,-0.004680,-0.000259,  39.177
    79.0,-0.000404,-0.000427,-0.004682,-0.000272,  39.178
    79.2,-0.000407,-0.000434,-0.004705,-0.000323,  39.179
    79.4,-0.000413,-0.000446,-0.004651,-0.000326,  39.181
    79.6,-0.000412,-0.000459,-0.004623,-0.000339,  39.190
    79.8,-0.000409,-0.000463,-0.004561,-0.000390,  39.191
    80.0,-0.000403,-0.000475,-0.004348,-0.000379,  39.194
    80.2,-0.000394,-0.000483,-0.004067,-0.000392,  39.191
    80.4,-0.000390,-0.000483,-0.003711,-0.000443,  39.192
    80.6,-0.000387,-0.000480,-0.003727,-0.000432,  39.191
    80.8,-0.000377,-0.000484,-0.003874,-0.000432,  39.191
    81.0,-0.000377,-0.000478,-0.004186,-0.000470,  39.188
    81.2,-0.000358,-0.000473,-0.004286,-0.000406,  39.188
    81.4,-0.000337,-0.000469,-0.004423,-0.000392,  39.185
    81.6,-0.000309,-0.000454,-0.004541,-0.000416,  39.170
    81.8,-0.000281,-0.000439,-0.004652,-0.000366,  39.163
    82.0,-0.000250,-0.000425,-0.004781,-0.000339,  39.169
    82.2,-0.000226,-0.000408,-0.004901,-0.000376,  39.159
    82.4,-0.000219,-0.000387,-0.005027,-0.000339,  39.161
    82.6,-0.000226,-0.000368,-0.005135,-0.000326,  39.165
    82.8,-0.000247,-0.000353,-0.005218,-0.000363,  39.163
    83.0,-0.000260,-0.000329,-0.005225,-0.000326,  39.163
    83.2,-0.000278,-0.000317,-0.005223,-0.000299,  39.165
    83.4,-0.000303,-0.000313,-0.005167,-0.000310,  39.169
    83.6,-0.000318,-0.000308,-0.005177,-0.000246,  39.168
    83.8,-0.000334,-0.000315,-0.005218,-0.000219,  39.169
    84.0,-0.000349,-0.000335,-0.005305,-0.000243,  39.165
    84.2,-0.000365,-0.000355,-0.005261,-0.000192,  39.167
    84.4,-0.000377,-0.000370,-0.005179,-0.000192,  39.172
    84.6,-0.000392,-0.000389,-0.005068,-0.000192,  39.174
    84.8,-0.000405,-0.000400,-0.004904,-0.000256,  39.180
    85.0,-0.000423,-0.000418,-0.004786,-0.000246,  39.196
    85.2,-0.000445,-0.000427,-0.004677,-0.000296,  39.193
    85.4,-0.000466,-0.000437,-0.004569,-0.000323,  39.194
    85.6,-0.000491,-0.000454,-0.004487,-0.000312,  39.197
    85.8,-0.000519,-0.000465,-0.004423,-0.000326,  39.189
    86.0,-0.000494,-0.000482,-0.004368,-0.000390,  39.198
    86.2,-0.000451,-0.000496,-0.004314,-0.000366,  39.193
    86.4,-0.000383,-0.000503,-0.004307,-0.000379,  39.197
    86.6,-0.000340,-0.000512,-0.004317,-0.000430,  39.196
    86.8,-0.000306,-0.000512,-0.004399,-0.000419,  39.198
    87.0,-0.000272,-0.000507,-0.004572,-0.000419,  39.195
    87.2,-0.000244,-0.000481,-0.004772,-0.000483,  39.201
    87.4,-0.000230,-0.000454,-0.004731,-0.000459,  39.206
    87.6,-0.000207,-0.000428,-0.004606,-0.000432,  39.200
    87.8,-0.000198,-0.000392,-0.004369,-0.000457,  39.205
    88.0,-0.000182,-0.000361,-0.004449,-0.000392,  39.196
    88.2,-0.000170,-0.000337,-0.004606,-0.000352,  39.191
    88.4,-0.000158,-0.000312,-0.004884,-0.000336,  39.188
    88.6,-0.000151,-0.000295,-0.004948,-0.000259,  39.190
    88.8,-0.000151,-0.000276,-0.004984,-0.000232,  39.187
    89.0,-0.000150,-0.000265,-0.004992,-0.000230,  39.185
    89.2,-0.000167,-0.000248,-0.005074,-0.000179,  39.184
    89.4,-0.000189,-0.000241,-0.005203,-0.000152,  39.182
    89.6,-0.000209,-0.000239,-0.005333,-0.000176,  39.180
    89.8,-0.000232,-0.000235,-0.005305,-0.000125,  39.183
    90.0,-0.000253,-0.000244,-0.005213,-0.000099,  39.183
    90.2,-0.000268,-0.000263,-0.005066,-0.000136,  39.183
    90.4,-0.000294,-0.000286,-0.004984,-0.000099,  39.186
    90.6,-0.000315,-0.000297,-0.004860,-0.000112,  39.183
    90.8,-0.000335,-0.000309,-0.004763,-0.000176,  39.184
    91.0,-0.000358,-0.000329,-0.004672,-0.000165,  39.178
    91.2,-0.000360,-0.000348,-0.004600,-0.000192,  39.178
    91.4,-0.000362,-0.000360,-0.004528,-0.000205,  39.184
    91.6,-0.000348,-0.000377,-0.004456,-0.000270,  39.198
    91.8,-0.000300,-0.000400,-0.004772,-0.000246,  39.193
    92.0,-0.000245,-0.000415,-0.005265,-0.000296,  39.195
    92.2,-0.000264,-0.000430,-0.005914,-0.000323,  39.197
    92.4,-0.000297,-0.000415,-0.005842,-0.000312,  39.196
    92.6,-0.000371,-0.000381,-0.005475,-0.000326,  39.194
    92.8,-0.000400,-0.000335,-0.004859,-0.000376,  39.199
    93.0,-0.000405,-0.000338,-0.004594,-0.000352,  39.194
    93.2,-0.000401,-0.000352,-0.004357,-0.000352,  39.195
    93.4,-0.000399,-0.000380,-0.004159,-0.000376,  39.196
    93.6,-0.000380,-0.000430,-0.004128,-0.000352,  39.197
    93.8,-0.000345,-0.000452,-0.004180,-0.000312,  39.197
    94.0,-0.000324,-0.000469,-0.004340,-0.000310,  39.196
    94.2,-0.000305,-0.000477,-0.004373,-0.000219,  39.196
    94.4,-0.000280,-0.000477,-0.004399,-0.000219,  39.186
    94.6,-0.000259,-0.000466,-0.004435,-0.000296,  39.185
    94.8,-0.000234,-0.000446,-0.004543,-0.000326,  39.189
    95.0,-0.000216,-0.000425,-0.004706,-0.000326,  39.189
    95.2,-0.000191,-0.000393,-0.004904,-0.000376,  39.190
    95.4,-0.000195,-0.000367,-0.004984,-0.000339,  39.188
    95.6,-0.000208,-0.000352,-0.005081,-0.000312,  39.187
    95.8,-0.000222,-0.000326,-0.005135,-0.000323,  39.189
    96.0,-0.000245,-0.000308,-0.005161,-0.000259,  39.191
    96.2,-0.000266,-0.000298,-0.005205,-0.000232,  39.192
    96.4,-0.000287,-0.000295,-0.005215,-0.000230,  39.193
    96.6,-0.000309,-0.000294,-0.005318,-0.000179,  39.194
    96.8,-0.000325,-0.000301,-0.005485,-0.000152,  39.195
    97.0,-0.000336,-0.000317,-0.005698,-0.000176,  39.197
    97.2,-0.000359,-0.000348,-0.005682,-0.000139,  39.195
    97.4,-0.000377,-0.000359,-0.005584,-0.000139,  39.194
    97.6,-0.000392,-0.000374,-0.005386,-0.000203,  39.192
    97.8,-0.000411,-0.000386,-0.005592,-0.000219,  39.195
    98.0,-0.000427,-0.000401,-0.005971,-0.000246,  39.198
    98.2,-0.000435,-0.000424,-0.006477,-0.000259,  39.197
    98.4,-0.000464,-0.000439,-0.007149,-0.000323,  39.192
    98.6,-0.000488,-0.000454,-0.006976,-0.000299,  39.195
    98.8,-0.000512,-0.000471,-0.006564,-0.000350,  39.193
    99.0,-0.000498,-0.000474,-0.005904,-0.000376,  39.196
    99.2,-0.000451,-0.000484,-0.005563,-0.000366,  39.194
    99.4,-0.000373,-0.000499,-0.005242,-0.000379,  39.192
    99.6,-0.000340,-0.000505,-0.004983,-0.000430,  39.196
    99.8,-0.000300,-0.000500,-0.004952,-0.000419,  39.196
   100.0,-0.000259,-0.000486,-0.005060,-0.000432,  39.202
   100.2,-0.000235,-0.000475,-0.005297,-0.000446,  39.197
   100.4,-0.000211,-0.000443,-0.005320,-0.000435,  39.200
   100.6,-0.000185,-0.000417,-0.005299,-0.000408,  39.201
   100.8,-0.000166,-0.000394,-0.005269,-0.000368,  39.197
   101.0,-0.000151,-0.000355,-0.005313,-0.000341,  39.194
   101.2,-0.000138,-0.000329,-0.005377,-0.000315,  39.193
   101.4,-0.000129,-0.000308,-0.005487,-0.000275,  39.196
   101.6,-0.000123,-0.000282,-0.005513,-0.000248,  39.193
   101.8,-0.000123,-0.000262,-0.005510,-0.000221,  39.194
   102.0,-0.000122,-0.000251,-0.005472,-0.000195,  39.191
   102.2,-0.000145,-0.000236,-0.005452,-0.000155,  39.193
   102.4,-0.000156,-0.000224,-0.005423,-0.000115,  39.188
   102.6,-0.000183,-0.000220,-0.005413,-0.000101,  39.184
   102.8,-0.000213,-0.000210,-0.005339,-0.000088,  39.188
   103.0,-0.000234,-0.000219,-0.005267,-0.000074,  39.188
   103.2,-0.000259,-0.000242,-0.005159,-0.000061,  39.183
   103.4,-0.000282,-0.000271,-0.005069,-0.000074,  39.186
   103.6,-0.000294,-0.000288,-0.004999,-0.000088,  39.182
   103.8,-0.000302,-0.000300,-0.004930,-0.000139,  39.185
   104.0,-0.000291,-0.000317,-0.004775,-0.000165,  39.185
   104.2,-0.000257,-0.000337,-0.004611,-0.000192,  39.186
   104.4,-0.000203,-0.000351,-0.004400,-0.000243,  39.184
   104.6,-0.000161,-0.000363,-0.004291,-0.000232,  39.188
   104.8,-0.000109,-0.000350,-0.004222,-0.000246,  39.185
   105.0,-0.000046,-0.000329,-0.004216,-0.000259,  39.188
   105.2,-0.000081,-0.000290,-0.004108,-0.000310,  39.186
   105.4,-0.000146,-0.000252,-0.003964,-0.000286,  39.185
   105.6,-0.000246,-0.000202,-0.003791,-0.000323,  39.184
   105.8,-0.000288,-0.000145,-0.003610,-0.000336,  39.182
   106.0,-0.000309,-0.000158,-0.003383,-0.000312,  39.182
   106.2,-0.000305,-0.000196,-0.003164,-0.000272,  39.190
   106.4,-0.000303,-0.000263,-0.002908,-0.000283,  39.188
   106.6,-0.000288,-0.000299,-0.002970,-0.000192,  39.185
   106.8,-0.000250,-0.000331,-0.003197,-0.000139,  39.186
   107.0,-0.000235,-0.000357,-0.003579,-0.000149,  39.186
   107.2,-0.000213,-0.000378,-0.003729,-0.000072,  39.187
   107.4,-0.000190,-0.000378,-0.003833,-0.000085,  39.177
   107.6,-0.000174,-0.000369,-0.003900,-0.000190,  39.176
   107.8,-0.000169,-0.000350,-0.004080,-0.000246,  39.169
   108.0,-0.000160,-0.000332,-0.004310,-0.000246,  39.170
   108.2,-0.000151,-0.000313,-0.004570,-0.000283,  39.166
   108.4,-0.000157,-0.000293,-0.004714,-0.000219,  39.168
   108.6,-0.000169,-0.000281,-0.004814,-0.000205,  39.164
   108.8,-0.000194,-0.000265,-0.004904,-0.000230,  39.167
   109.0,-0.000220,-0.000252,-0.004966,-0.000179,  39.164
   109.2,-0.000245,-0.000253,-0.004966,-0.000152,  39.164
   109.4,-0.000265,-0.000253,-0.004974,-0.000176,  39.165
   109.6,-0.000294,-0.000263,-0.004974,-0.000125,  39.161
   109.8,-0.000308,-0.000283,-0.004984,-0.000099,  39.159
   110.0,-0.000325,-0.000295,-0.004969,-0.000136,  39.160
   110.2,-0.000351,-0.000323,-0.004868,-0.000099,  39.159
   110.4,-0.000363,-0.000341,-0.004768,-0.000112,  39.159
   110.6,-0.000375,-0.000358,-0.004606,-0.000190,  39.162
   110.8,-0.000387,-0.000373,-0.004523,-0.000205,  39.165
   111.0,-0.000400,-0.000393,-0.004425,-0.000232,  39.163
   111.2,-0.000401,-0.000409,-0.004382,-0.000296,  39.163
   111.4,-0.000420,-0.000425,-0.004364,-0.000299,  39.162
   111.6,-0.000458,-0.000445,-0.004358,-0.000312,  39.166
   111.8,-0.000485,-0.000448,-0.004389,-0.000376,  39.162
   112.0,-0.000467,-0.000452,-0.004538,-0.000366,  39.161
   112.2,-0.000424,-0.000464,-0.004770,-0.000379,  39.164
   112.4,-0.000356,-0.000474,-0.005047,-0.000392,  39.166
   112.6,-0.000321,-0.000482,-0.005417,-0.000430,  39.168
   112.8,-0.000279,-0.000477,-0.005773,-0.000419,  39.170
   113.0,-0.000248,-0.000456,-0.006158,-0.000457,  39.171
   113.2,-0.000225,-0.000426,-0.006595,-0.000470,  39.170
   113.4,-0.000200,-0.000408,-0.006583,-0.000459,  39.173
   113.6,-0.000179,-0.000383,-0.006386,-0.000432,  39.172
   113.8,-0.000164,-0.000364,-0.005987,-0.000443,  39.167
   114.0,-0.000146,-0.000339,-0.005846,-0.000379,  39.163
   114.2,-0.000126,-0.000318,-0.005733,-0.000339,  39.158
   114.4,-0.000130,-0.000297,-0.005667,-0.000323,  39.157
   114.6,-0.000123,-0.000273,-0.005572,-0.000259,  39.149
   114.8,-0.000125,-0.000254,-0.005488,-0.000232,  39.148
   115.0,-0.000137,-0.000245,-0.005395,-0.000230,  39.148
   115.2,-0.000150,-0.000231,-0.005357,-0.000179,  39.148
   115.4,-0.000175,-0.000221,-0.005329,-0.000152,  39.146
   115.6,-0.000193,-0.000217,-0.005347,-0.000176,  39.139
   115.8,-0.000216,-0.000211,-0.005339,-0.000125,  39.144
   116.0,-0.000230,-0.000217,-0.005351,-0.000099,  39.141
   116.2,-0.000241,-0.000239,-0.005410,-0.000136,  39.143
   116.4,-0.000229,-0.000267,-0.005282,-0.000099,  39.141
   116.6,-0.000211,-0.000281,-0.005092,-0.000099,  39.142
   116.8,-0.000167,-0.000293,-0.004835,-0.000163,  39.140
   117.0,-0.000127,-0.000305,-0.004680,-0.000152,  39.140
   117.2,-0.000085,-0.000301,-0.004564,-0.000179,  39.141
   117.4,-0.000028,-0.000288,-0.004477,-0.000230,  39.146
   117.6,0.000015,-0.000255,-0.004417,-0.000232,  39.144
   117.8,0.000062,-0.000222,-0.004404,-0.000259,  39.145
   118.0,0.000109,-0.000174,-0.004448,-0.000310,  39.149
   118.2,0.000063,-0.000125,-0.004229,-0.000286,  39.143
   118.4,-0.000030,-0.000085,-0.003873,-0.000272,  39.145
   118.6,-0.000169,-0.000040,-0.003432,-0.000283,  39.143
   118.8,-0.000209,0.000003,-0.003223,-0.000192,  39.145
   119.0,-0.000235,-0.000029,-0.003052,-0.000139,  39.146
   119.2,-0.000232,-0.000095,-0.002939,-0.000149,  39.145
   119.4,-0.000225,-0.000198,-0.003011,-0.000085,  39.145
   119.6,-0.000224,-0.000248,-0.003156,-0.000059,  39.144
   119.8,-0.000198,-0.000285,-0.003445,-0.000045,  39.146
   120.0,-0.000182,-0.000312,-0.003806,-0.000056,  39.145
   120.2,-0.000167,-0.000325,-0.004059,-0.000005,  39.142
   120.4,-0.000147,-0.000315,-0.004330,-0.000096,  39.135
   120.6,-0.000132,-0.000289,-0.004610,-0.000163,  39.129
   120.8,-0.000119,-0.000279,-0.005076,-0.000219,  39.131
   121.0,-0.000107,-0.000271,-0.005635,-0.000232,  39.131
   121.2,-0.000113,-0.000264,-0.006278,-0.000270,  39.125
   121.4,-0.000128,-0.000252,-0.006384,-0.000192,  39.126
   121.6,-0.000159,-0.000244,-0.006235,-0.000165,  39.128
   121.8,-0.000184,-0.000235,-0.005864,-0.000165,  39.128
   122.0,-0.000209,-0.000221,-0.005816,-0.000115,  39.131
   122.2,-0.000240,-0.000224,-0.005808,-0.000101,  39.125
   122.4,-0.000258,-0.000228,-0.005882,-0.000088,  39.123
   122.6,-0.000281,-0.000232,-0.005790,-0.000088,  39.125
   122.8,-0.000289,-0.000243,-0.005644,-0.000074,  39.123
   123.0,-0.000301,-0.000267,-0.005469,-0.000061,  39.123
   123.2,-0.000324,-0.000297,-0.005323,-0.000048,  39.126
   123.4,-0.000340,-0.000318,-0.005158,-0.000061,  39.120
   123.6,-0.000348,-0.000334,-0.005004,-0.000101,  39.125
   123.8,-0.000363,-0.000353,-0.004876,-0.000168,  39.126
   124.0,-0.000375,-0.000373,-0.004749,-0.000195,  39.129
   124.2,-0.000388,-0.000384,-0.004641,-0.000221,  39.131
   124.4,-0.000409,-0.000398,-0.004559,-0.000261,  39.131
   124.6,-0.000431,-0.000416,-0.004505,-0.000275,  39.131
   124.8,-0.000459,-0.000419,-0.004443,-0.000288,  39.133
   125.0,-0.000437,-0.000428,-0.004353,-0.000315,  39.135
   125.2,-0.000394,-0.000438,-0.004289,-0.000328,  39.137
   125.4,-0.000325,-0.000445,-0.004224,-0.000341,  39.138
   125.6,-0.000288,-0.000453,-0.004250,-0.000368,  39.139
   125.8,-0.000258,-0.000444,-0.004340,-0.000382,  39.141
   126.0,-0.000217,-0.000423,-0.004510,-0.000395,  39.140
   126.2,-0.000183,-0.000400,-0.004611,-0.000395,  39.141
   126.4,-0.000166,-0.000376,-0.004755,-0.000382,  39.137
   126.6,-0.000140,-0.000352,-0.004868,-0.000419,  39.137
   126.8,-0.000115,-0.000321,-0.005032,-0.000355,  39.132
   127.0,-0.000107,-0.000302,-0.005084,-0.000341,  39.131
   127.2,-0.000087,-0.000281,-0.005081,-0.000339,  39.122
   127.4,-0.000078,-0.000254,-0.005051,-0.000275,  39.116
   127.6,-0.000088,-0.000237,-0.005066,-0.000221,  39.114
   127.8,-0.000087,-0.000228,-0.005066,-0.000195,  39.114
   128.0,-0.000099,-0.000210,-0.005102,-0.000192,  39.112
   128.2,-0.000121,-0.000200,-0.005156,-0.000165,  39.110
   128.4,-0.000144,-0.000191,-0.005231,-0.000152,  39.108
   128.6,-0.000141,-0.000183,-0.005305,-0.000163,  39.106
   128.8,-0.000123,-0.000174,-0.005333,-0.000112,  39.105
   129.0,-0.000098,-0.000184,-0.005362,-0.000085,  39.102
   129.2,-0.000073,-0.000204,-0.005382,-0.000109,  39.103
   129.4,-0.000046,-0.000228,-0.005331,-0.000085,  39.101
   129.6,-0.000025,-0.000230,-0.005253,-0.000085,  39.101
   129.8,0.000016,-0.000219,-0.005132,-0.000136,  39.101
   130.0,0.000056,-0.000200,-0.005045,-0.000125,  39.098
   130.2,0.000100,-0.000174,-0.004967,-0.000139,  39.097
   130.4,0.000143,-0.000138,-0.004890,-0.000190,  39.103
   130.6,0.000166,-0.000091,-0.004599,-0.000179,  39.101
   130.8,0.000166,-0.000056,-0.004223,-0.000165,  39.104
   131.0,0.000147,-0.000013,-0.003747,-0.000203,  39.107
   131.2,0.000082,0.000024,-0.003502,-0.000152,  39.107
   131.4,-0.000020,0.000047,-0.003331,-0.000125,  39.105
   131.6,-0.000163,0.000065,-0.003192,-0.000123,  39.107
   131.8,-0.000207,0.000068,-0.003093,-0.000059,  39.106
   132.0,-0.000214,0.000011,-0.003050,-0.000019,  39.107
   132.2,-0.000181,-0.000079,-0.003068,-0.000029,  39.103
   132.4,-0.000165,-0.000210,-0.003228,0.000035,  39.108
   132.6,-0.000152,-0.000258,-0.003489,0.000048,  39.105
   132.8,-0.000137,-0.000274,-0.003865,-0.000003,  39.103
   133.0,-0.000114,-0.000279,-0.004126,-0.000019,  39.104
   133.2,-0.000099,-0.000283,-0.004371,-0.000059,  39.100
   133.4,-0.000094,-0.000268,-0.004607,-0.000136,  39.091
   133.6,-0.000081,-0.000250,-0.004806,-0.000165,  39.081
   133.8,-0.000072,-0.000240,-0.004916,-0.000179,  39.074
   134.0,-0.000060,-0.000223,-0.005050,-0.000192,  39.065
   134.2,-0.000063,-0.000210,-0.005124,-0.000203,  39.069
   134.4,-0.000075,-0.000206,-0.005166,-0.000152,  39.064
   134.6,-0.000097,-0.000194,-0.005145,-0.000176,  39.065
   134.8,-0.000115,-0.000181,-0.005115,-0.000125,  39.058
   135.0,-0.000143,-0.000179,-0.005122,-0.000074,  39.053
   135.2,-0.000177,-0.000177,-0.005158,-0.000061,  39.057
   135.4,-0.000196,-0.000183,-0.005225,-0.000048,  39.055
   135.6,-0.000217,-0.000189,-0.005207,-0.000048,  39.051
   135.8,-0.000236,-0.000208,-0.005171,-0.000034,  39.047
   136.0,-0.000251,-0.000223,-0.005119,-0.000034,  39.055
   136.2,-0.000270,-0.000253,-0.005178,-0.000034,  39.048
   136.4,-0.000288,-0.000275,-0.005309,-0.000034,  39.046
   136.6,-0.000301,-0.000280,-0.005499,-0.000112,  39.055
   136.8,-0.000307,-0.000297,-0.005381,-0.000152,  39.058
   137.0,-0.000319,-0.000314,-0.005124,-0.000179,  39.070
   137.2,-0.000322,-0.000324,-0.004756,-0.000243,  39.071
   137.4,-0.000338,-0.000339,-0.004600,-0.000246,  39.074
   137.6,-0.000359,-0.000351,-0.004481,-0.000272,  39.080
   137.8,-0.000387,-0.000357,-0.004409,-0.000336,  39.095
   138.0,-0.000372,-0.000365,-0.004298,-0.000312,  39.092
   138.2,-0.000335,-0.000382,-0.004224,-0.000326,  39.097
   138.4,-0.000275,-0.000399,-0.004123,-0.000390,  39.099
   138.6,-0.000248,-0.000412,-0.004409,-0.000366,  39.098
   138.8,-0.000211,-0.000407,-0.004905,-0.000379,  39.100
   139.0,-0.000167,-0.000389,-0.005593,-0.000430,  39.100
   139.2,-0.000140,-0.000359,-0.005729,-0.000406,  39.094
   139.4,-0.000118,-0.000335,-0.005701,-0.000406,  39.091
   139.6,-0.000100,-0.000309,-0.005507,-0.000430,  39.087
   139.8,-0.000075,-0.000281,-0.005522,-0.000366,  39.087
   140.0,-0.000057,-0.000263,-0.005532,-0.000326,  39.069
   140.2,-0.000041,-0.000238,-0.005578,-0.000310,  39.048
   140.4,-0.000029,-0.000215,-0.005661,-0.000232,  39.036
   140.6,-0.000023,-0.000199,-0.005743,-0.000205,  39.034
   140.8,-0.000023,-0.000182,-0.005879,-0.000179,  39.037
   141.0,-0.000023,-0.000165,-0.006017,-0.000190,  39.030
   141.2,-0.000026,-0.000150,-0.005886,-0.000152,  39.026
   141.4,-0.000032,-0.000142,-0.005656,-0.000176,  39.021
   141.6,-0.000014,-0.000130,-0.005315,-0.000163,  39.023
   141.8,0.000014,-0.000132,-0.005112,-0.000112,  39.021
   142.0,0.000054,-0.000147,-0.004937,-0.000099,  39.019
   142.2,0.000095,-0.000161,-0.004775,-0.000109,  39.013
   142.4,0.000138,-0.000151,-0.004510,-0.000059,  39.016
   142.6,0.000181,-0.000140,-0.004209,-0.000059,  39.012
   142.8,0.000203,-0.000106,-0.003891,-0.000072,  39.015
   143.0,0.000212,-0.000076,-0.003628,-0.000074,  39.022
   143.2,0.000216,-0.000048,-0.003383,-0.000074,  39.028
   143.4,0.000172,-0.000007,-0.003158,-0.000061,  39.033
   143.6,0.000110,0.000036,-0.002755,-0.000074,  39.038
   143.8,0.000028,0.000065,-0.002321,-0.000061,  39.036
   144.0,-0.000031,0.000089,-0.001784,-0.000034,  39.041
   144.2,-0.000094,0.000111,-0.001582,-0.000008,  39.042
   144.4,-0.000146,0.000087,-0.001528,0.000019,  39.044
   144.6,-0.000191,0.000042,-0.001606,0.000046,  39.044
   144.8,-0.000202,-0.000023,-0.001681,0.000086,  39.045
   145.0,-0.000182,-0.000094,-0.001810,0.000099,  39.044
   145.2,-0.000151,-0.000185,-0.002015,0.000086,  39.044
   145.4,-0.000134,-0.000283,-0.002290,0.000046,  39.047
   145.6,-0.000106,-0.000308,-0.002608,0.000006,  39.050
   145.8,-0.000071,-0.000312,-0.002998,-0.000048,  39.048
   146.0,-0.000054,-0.000285,-0.003187,-0.000141,  39.047
   146.2,-0.000032,-0.000273,-0.003267,-0.000155,  39.046
   146.4,-0.000003,-0.000248,-0.003275,-0.000181,  39.021
   146.6,0.000014,-0.000222,-0.003329,-0.000181,  39.011
   146.8,0.000036,-0.000206,-0.003401,-0.000168,  39.009
   147.0,0.000065,-0.000182,-0.003476,-0.000155,  39.009
   147.2,0.000067,-0.000155,-0.003458,-0.000141,  39.001
   147.4,0.000070,-0.000137,-0.003422,-0.000128,  39.009
   147.6,0.000065,-0.000116,-0.003321,-0.000139,  39.001
   147.8,0.000042,-0.000096,-0.003221,-0.000088,  39.005
   148.0,0.000020,-0.000081,-0.003112,-0.000088,  39.003
   148.2,-0.000003,-0.000074,-0.003014,-0.000099,  39.000
   148.4,-0.000029,-0.000072,-0.002898,-0.000048,  39.005
   148.6,-0.000051,-0.000085,-0.002784,-0.000048,  39.001
   148.8,-0.000062,-0.000104,-0.002706,-0.000034,  39.002
   149.0,-0.000085,-0.000132,-0.002657,-0.000034,  39.000
   149.2,-0.000100,-0.000146,-0.002509,-0.000034,  39.005
   149.4,-0.000108,-0.000156,-0.002318,-0.000034,  39.011
   149.6,-0.000128,-0.000171,-0.002124,-0.000074,  39.021
   149.8,-0.000143,-0.000181,-0.002302,-0.000115,  39.018
   150.0,-0.000148,-0.000198,-0.002623,-0.000141,  39.033
   150.2,-0.000160,-0.000209,-0.003165,-0.000168,  39.035
   150.4,-0.000183,-0.000228,-0.003075,-0.000221,  39.042
   150.6,-0.000196,-0.000242,-0.002752,-0.000248,  39.045
   150.8,-0.000207,-0.000257,-0.002232,-0.000299,  39.055
   151.0,-0.000173,-0.000268,-0.002049,-0.000312,  39.052
   151.2,-0.000123,-0.000277,-0.001948,-0.000326,  39.055
   151.4,-0.000048,-0.000289,-0.001929,-0.000390,  39.051
   151.6,-0.000003,-0.000305,-0.001808,-0.000366,  39.048
   151.8,0.000054,-0.000290,-0.001730,-0.000366,  39.042
   152.0,0.000108,-0.000266,-0.001644,-0.000416,  39.044
   152.2,0.000150,-0.000239,-0.001569,-0.000392,  39.039
   152.4,0.000199,-0.000203,-0.001478,-0.000392,  39.039
   152.6,0.000250,-0.000160,-0.001434,-0.000403,  39.034
   152.8,0.000292,-0.000112,-0.001307,-0.000352,  39.030
   153.0,0.000338,-0.000077,-0.001136,-0.000312,  39.017
   153.2,0.000395,-0.000041,-0.000957,-0.000310,  39.003
   153.4,0.000422,-0.000012,-0.000674,-0.000219,  39.001
   153.6,0.000446,0.000018,-0.000307,-0.000179,  38.999
   153.8,0.000472,0.000049,0.000104,-0.000203,  38.996
   154.0,0.000490,0.000082,0.000497,-0.000152,  38.985
   154.2,0.000511,0.000107,0.000928,-0.000125,  38.982
   154.4,0.000537,0.000134,0.001340,-0.000149,  38.983
   154.6,0.000567,0.000163,0.001779,-0.000099,  38.977
   154.8,0.000613,0.000177,0.002108,-0.000085,  38.982
   155.0,0.000670,0.000181,0.002383,-0.000059,  38.979
   155.2,0.000694,0.000181,0.002621,-0.000083,  38.974
   155.4,0.000719,0.000210,0.002896,-0.000045,  38.980
   155.6,0.000738,0.000240,0.003171,-0.000096,  38.978
   155.8,0.000703,0.000291,0.003447,-0.000123,  38.979
   156.0,0.000644,0.000322,0.003667,-0.000125,  38.983
   156.2,0.000568,0.000348,0.003832,-0.000112,  38.984
   156.4,0.000502,0.000372,0.003987,-0.000136,  38.995
   156.6,0.000434,0.000394,0.003748,-0.000085,  39.001
   156.8,0.000373,0.000375,0.003290,-0.000045,  39.012
   157.0,0.000330,0.000335,0.002626,-0.000056,  39.013
   157.2,0.000295,0.000283,0.002571,0.000022,  39.016
   157.4,0.000284,0.000233,0.002705,0.000048,  39.017
   157.6,0.000275,0.000173,0.003030,-0.000003,  39.019
   157.8,0.000305,0.000103,0.003109,-0.000016,  39.020
   158.0,0.000352,0.000041,0.003120,-0.000043,  39.017
   158.2,0.000423,-0.000021,0.003120,-0.000109,  39.022
   158.4,0.000474,-0.000077,0.003159,-0.000152,  39.020
   158.6,0.000536,-0.000077,0.003191,-0.000205,  39.015
   158.8,0.000611,-0.000054,0.003212,-0.000283,  39.018
   159.0,0.000672,0.000003,0.003454,-0.000299,  39.011
   159.2,0.000737,0.000044,0.003795,-0.000312,  39.017
   159.4,0.000813,0.000087,0.004218,-0.000350,  38.991
   159.6,0.000879,0.000145,0.004652,-0.000286,  38.974
   159.8,0.000954,0.000191,0.005141,-0.000259,  38.976
   160.0,0.001042,0.000238,0.005673,-0.000270,  38.970
   160.2,0.001099,0.000285,0.006331,-0.000192,  38.973
   160.4,0.001159,0.000332,0.007063,-0.000152,  38.967
   160.6,0.001213,0.000382,0.007871,-0.000163,  38.967
   160.8,0.001227,0.000432,0.008605,-0.000112,  38.961
   161.0,0.001224,0.000477,0.009368,-0.000099,  38.962
   161.2,0.001203,0.000519,0.010132,-0.000072,  38.962
   161.4,0.001183,0.000567,0.010886,-0.000123,  38.962
   161.6,0.001158,0.000582,0.011495,-0.000072,  38.958
   161.8,0.001134,0.000577,0.012057,-0.000096,  38.957
   162.0,0.001105,0.000559,0.012544,-0.000083,  38.963
   162.2,0.001091,0.000549,0.012810,-0.000045,  38.964
   162.4,0.001074,0.000527,0.012926,-0.000059,  38.972
   162.6,0.001051,0.000510,0.012880,-0.000123,  38.985
   162.8,0.001043,0.000493,0.012880,-0.000125,  38.993
   163.0,0.001030,0.000477,0.012794,-0.000139,  38.996
   163.2,0.001014,0.000469,0.012630,-0.000203,  39.007
   163.4,0.001018,0.000454,0.012600,-0.000205,  39.016
   163.6,0.001012,0.000434,0.012616,-0.000232,  39.020
   163.8,0.001063,0.000423,0.012605,-0.000296,  39.013
   164.0,0.001164,0.000413,0.012729,-0.000286,  39.015
   164.2,0.001284,0.000398,0.012890,-0.000312,  39.008
   164.4,0.001368,0.000394,0.013118,-0.000326,  39.009
   164.6,0.001452,0.000382,0.013437,-0.000315,  39.008
   164.8,0.001523,0.000405,0.013829,-0.000328,  39.007
   165.0,0.001594,0.000454,0.014258,-0.000341,  39.008
   165.2,0.001697,0.000518,0.014835,-0.000368,  39.003
   165.4,0.001811,0.000575,0.015495,-0.000368,  39.004
   165.6,0.001928,0.000645,0.016262,-0.000355,  39.008
   165.8,0.002045,0.000723,0.017114,-0.000328,  39.006
   166.0,0.002172,0.000791,0.018059,-0.000288,  38.982
   166.2,0.002310,0.000859,0.019082,-0.000235,  38.959
   166.4,0.002411,0.000939,0.020378,-0.000195,  38.956
   166.6,0.002515,0.001012,0.021805,-0.000155,  38.947
   166.8,0.002606,0.001091,0.023417,-0.000128,  38.946
   167.0,0.002679,0.001173,0.025093,-0.000115,  38.947
   167.2,0.002751,0.001244,0.026864,-0.000088,  38.944
   167.4,0.002816,0.001316,0.028748,-0.000074,  38.942
   167.6,0.002858,0.001382,0.030027,-0.000061,  38.942
   167.8,0.002896,0.001437,0.031035,-0.000048,  38.941
   168.0,0.002925,0.001481,0.031791,-0.000048,  38.940
   168.2,0.002896,0.001515,0.032341,-0.000034,  38.940
   168.4,0.002849,0.001550,0.032647,-0.000048,  38.940
   168.6,0.002776,0.001597,0.032721,-0.000099,  38.938
   168.8,0.002709,0.001639,0.032552,-0.000074,  38.943
   169.0,0.002651,0.001631,0.032584,-0.000115,  38.946
   169.2,0.002590,0.001604,0.032525,-0.000139,  38.959
   169.4,0.002539,0.001557,0.032427,-0.000061,  38.964
   169.6,0.002516,0.001526,0.032270,-0.000021,  38.970
   169.8,0.002491,0.001478,0.032042,-0.000008,  38.971
   170.0,0.002485,0.001433,0.031756,-0.000008,  38.972
   170.2,0.002488,0.001384,0.031627,-0.000021,  38.974
   170.4,0.002505,0.001342,0.031478,-0.000034,  38.979
   170.6,0.002582,0.001301,0.031376,-0.000074,  38.977
   170.8,0.002690,0.001262,0.031497,-0.000141,  38.972
   171.0,0.002846,0.001226,0.031717,-0.000168,  38.979
   171.2,0.002961,0.001195,0.032058,-0.000246,  38.979
   171.4,0.003080,0.001164,0.032447,-0.000299,  38.975
   171.6,0.003192,0.001191,0.032911,-0.000288,  38.977
   171.8,0.003307,0.001261,0.033473,-0.000328,  38.980
   172.0,0.003475,0.001358,0.034419,-0.000344,  38.979
   172.2,0.003659,0.001438,0.035599,-0.000317,  38.974
   172.4,0.003864,0.001549,0.037009,-0.000304,  38.946
   172.6,0.004073,0.001662,0.038691,-0.000301,  38.930
   172.8,0.004294,0.001767,0.040592,-0.000286,  38.930
   173.0,0.004530,0.001887,0.042734,-0.000246,  38.927
   173.2,0.004695,0.002007,0.045138,-0.000168,  38.915
   173.4,0.004832,0.002133,0.047766,-0.000128,  38.919
   173.6,0.004942,0.002275,0.050672,-0.000101,  38.916
   173.8,0.004995,0.002416,0.053378,-0.000101,  38.913
   174.0,0.005004,0.002530,0.056088,-0.000074,  38.916
   174.2,0.004970,0.002643,0.058838,-0.000048,  38.919
   174.4,0.004957,0.002739,0.060453,-0.000034,  38.924
   174.6,0.004925,0.002782,0.061470,-0.000008,  38.922
   174.8,0.004890,0.002797,0.061949,-0.000008,  38.922
   175.0,0.004878,0.002775,0.061919,0.000006,  38.926
   175.2,0.004855,0.002760,0.061369,-0.000008,  38.932
   175.4,0.004856,0.002734,0.060252,-0.000034,  38.942
   175.6,0.004862,0.002695,0.058623,-0.000088,  38.956
   175.8,0.004872,0.002673,0.058636,-0.000101,  38.963
   176.0,0.004895,0.002659,0.058943,-0.000165,  38.971
   176.2,0.004923,0.002652,0.059601,-0.000128,  38.967
   176.4,0.004950,0.002640,0.060028,-0.000155,  38.971
   176.6,0.004990,0.002637,0.060475,-0.000192,  38.963
   176.8,0.005112,0.002643,0.060973,-0.000195,  38.967
   177.0,0.005270,0.002650,0.061487,-0.000221,  38.963
   177.2,0.005484,0.002650,0.062018,-0.000235,  38.964
   177.4,0.005681,0.002665,0.062572,-0.000248,  38.966
   177.6,0.005884,0.002680,0.063518,-0.000288,  38.965
   177.8,0.006113,0.002737,0.064692,-0.000301,  38.966
   178.0,0.006308,0.002815,0.066045,-0.000315,  38.964
   178.2,0.006496,0.002917,0.067556,-0.000328,  38.961
   178.4,0.006671,0.003025,0.069231,-0.000291,  38.959
   178.6,0.006841,0.003155,0.071064,-0.000291,  38.961
   178.8,0.007058,0.003295,0.073530,-0.000291,  38.962
   179.0,0.007278,0.003436,0.076399,-0.000226,  38.936
   179.2,0.007504,0.003586,0.079658,-0.000173,  38.922
   179.4,0.007718,0.003748,0.082739,-0.000157,  38.910
   179.6,0.007925,0.003890,0.085880,-0.000117,  38.907
   179.8,0.008124,0.004032,0.089163,-0.000077,  38.904
   180.0,0.008281,0.004170,0.092470,-0.000050,  38.903
   180.2,0.008420,0.004303,0.095811,-0.000024,  38.899
   180.4,0.008530,0.004430,0.099224,-0.000010,  38.901
   180.6,0.008586,0.004550,0.101933,-0.000010,  38.899
   180.8,0.008602,0.004653,0.104328,0.000003,  38.894
   181.0,0.008577,0.004749,0.106356,-0.000010,  38.897
   181.2,0.008561,0.004824,0.107653,-0.000024,  38.894
   181.4,0.008530,0.004856,0.108463,-0.000024,  38.892
   181.6,0.008479,0.004873,0.108673,-0.000050,  38.886
   181.8,0.008460,0.004862,0.109025,-0.000077,  38.898
   182.0,0.008445,0.004842,0.109157,-0.000090,  38.902
   182.2,0.008435,0.004821,0.109071,-0.000128,  38.909
   182.4,0.008445,0.004778,0.108751,-0.000115,  38.917
   182.6,0.008467,0.004748,0.108744,-0.000115,  38.929
   182.8,0.008506,0.004732,0.108728,-0.000165,  38.929
   183.0,0.008544,0.004710,0.108720,-0.000155,  38.933
   183.2,0.008583,0.004703,0.108962,-0.000208,  38.940
   183.4,0.008647,0.004701,0.109251,-0.000235,  38.940
   183.6,0.008796,0.004706,0.109697,-0.000261,  38.941
   183.8,0.008990,0.004715,0.110252,-0.000288,  38.942
   184.0,0.009246,0.004715,0.110863,-0.000301,  38.941
   184.2,0.009508,0.004716,0.111593,-0.000315,  38.939
   184.4,0.009799,0.004717,0.112536,-0.000341,  38.942
   184.6,0.010125,0.004794,0.113639,-0.000355,  38.943
   184.8,0.010413,0.004901,0.114887,-0.000355,  38.940
   185.0,0.010690,0.005055,0.116398,-0.000382,  38.947
   185.2,0.010986,0.005213,0.118120,-0.000355,  38.938
   185.4,0.011268,0.005384,0.120021,-0.000328,  38.911
   185.6,0.011622,0.005587,0.123901,-0.000288,  38.891
   185.8,0.012020,0.005796,0.128895,-0.000197,  38.891
   186.0,0.012442,0.006028,0.135004,-0.000157,  38.888
   186.2,0.012704,0.006274,0.140518,-0.000117,  38.884
   186.4,0.012888,0.006514,0.146316,-0.000026,  38.885
   186.6,0.013003,0.006758,0.152349,-0.000013,  38.884
   186.8,0.013100,0.007009,0.157111,-0.000024,  38.886
   187.0,0.013138,0.007183,0.161308,0.000016,  38.884
   187.2,0.013118,0.007323,0.164922,0.000030,  38.891
   187.4,0.013136,0.007440,0.167256,0.000043,  38.895
   187.6,0.013148,0.007503,0.168616,0.000032,  38.892
   187.8,0.013151,0.007529,0.169046,0.000046,  38.890
   188.0,0.013173,0.007518,0.169730,0.000059,  38.889
   188.2,0.013203,0.007525,0.170064,0.000008,  38.893
   188.4,0.013252,0.007533,0.170057,-0.000019,  38.898
   188.6,0.013306,0.007521,0.170372,-0.000008,  38.899
   188.8,0.013356,0.007518,0.170707,-0.000034,  38.902
   189.0,0.013431,0.007528,0.171039,-0.000061,  38.904
   189.2,0.013501,0.007533,0.171363,-0.000101,  38.911
   189.4,0.013570,0.007544,0.172005,-0.000128,  38.915
   189.6,0.013654,0.007571,0.172736,-0.000179,  38.912
   189.8,0.013851,0.007602,0.173578,-0.000168,  38.922
   190.0,0.014099,0.007634,0.174421,-0.000181,  38.921
   190.2,0.014422,0.007673,0.175301,-0.000232,  38.917
   190.4,0.014742,0.007718,0.176190,-0.000221,  38.911
   190.6,0.015076,0.007792,0.177715,-0.000248,  38.918
   190.8,0.015455,0.007873,0.179514,-0.000261,  38.914
   191.0,0.015797,0.007973,0.181632,-0.000288,  38.919
   191.2,0.016123,0.008088,0.184708,-0.000301,  38.913
   191.4,0.016464,0.008266,0.188431,-0.000288,  38.914
   191.6,0.016762,0.008474,0.192847,-0.000288,  38.915
   191.8,0.017031,0.008715,0.197136,-0.000288,  38.914
   192.0,0.017295,0.008926,0.201736,-0.000248,  38.891
   192.2,0.017546,0.009133,0.206665,-0.000232,  38.874
   192.4,0.017783,0.009347,0.211314,-0.000179,  38.865
   192.6,0.018019,0.009532,0.216014,-0.000125,  38.859
   192.8,0.018242,0.009700,0.220704,-0.000149,  38.857
   193.0,0.018473,0.009861,0.225408,-0.000099,  38.852
   193.2,0.018722,0.010045,0.230132,-0.000072,  38.850
   193.4,0.018975,0.010222,0.234792,-0.000109,  38.837
   193.6,0.019141,0.010411,0.239257,-0.000072,  38.838
   193.8,0.019247,0.010572,0.243592,-0.000059,  38.838
   194.0,0.019304,0.010716,0.247777,-0.000123,  38.833
   194.2,0.019361,0.010846,0.251012,-0.000099,  38.835
   194.4,0.019403,0.010935,0.253626,-0.000112,  38.834
   194.6,0.019419,0.011013,0.255696,-0.000139,  38.832
   194.8,0.019460,0.011067,0.257201,-0.000141,  38.835
   195.0,0.019509,0.011105,0.258075,-0.000155,  38.844
   195.2,0.019571,0.011122,0.258357,-0.000168,  38.852
   195.4,0.019639,0.011129,0.259143,-0.000195,  38.881
   195.6,0.019710,0.011149,0.259772,-0.000195,  38.884
   195.8,0.019791,0.011166,0.260335,-0.000246,  38.886
   196.0,0.019866,0.011189,0.260999,-0.000272,  38.891
   196.2,0.019934,0.011223,0.261690,-0.000286,  38.886
   196.4,0.019996,0.011255,0.262364,-0.000323,  38.893
   196.6,0.020226,0.011294,0.263064,-0.000336,  38.890
   196.8,0.020521,0.011329,0.264193,-0.000312,  38.893
   197.0,0.020889,0.011355,0.265475,-0.000363,  38.892
   197.2,0.021288,0.011377,0.266921,-0.000376,  38.889
   197.4,0.021732,0.011458,0.268439,-0.000352,  38.893
   197.6,0.022223,0.011561,0.270114,-0.000352,  38.892
   197.8,0.022717,0.011692,0.271830,-0.000352,  38.893
   198.0,0.023235,0.011844,0.275662,-0.000341,  38.891
   198.2,0.023773,0.012064,0.280639,-0.000328,  38.889
   198.4,0.024262,0.012331,0.286731,-0.000288,  38.850
   198.6,0.024739,0.012634,0.293072,-0.000261,  38.828
   198.8,0.025204,0.012927,0.300198,-0.000208,  38.828
   199.0,0.025521,0.013243,0.308065,-0.000168,  38.829
   199.2,0.025764,0.013572,0.315076,-0.000115,  38.827
   199.4,0.025917,0.013874,0.322003,-0.000037,  38.833
   199.6,0.026006,0.014167,0.328903,-0.000010,  38.834
   199.8,0.026120,0.014460,0.334700,0.000003,  38.835
   200.0,0.026212,0.014687,0.339857,0.000081,  38.835
   200.2,0.026275,0.014885,0.344278,0.000094,  38.841
   200.4,0.026347,0.015047,0.347640,0.000097,  38.837
   200.6,0.026410,0.015150,0.350121,0.000123,  38.838
   200.8,0.026459,0.015214,0.351626,0.000137,  38.838
   201.0,0.026528,0.015236,0.353061,0.000150,  38.830
   201.2,0.026603,0.015265,0.353966,0.000137,  38.827
   201.4,0.026682,0.015286,0.354336,0.000110,  38.826
   201.6,0.026771,0.015291,0.355285,0.000070,  38.838
   201.8,0.026863,0.015310,0.356243,0.000043,  38.840
   202.0,0.026958,0.015343,0.357212,0.000016,  38.850
   202.2,0.027063,0.015378,0.358325,0.000001,  38.860
   202.4,0.027178,0.015409,0.359532,-0.000064,  38.870
   202.6,0.027290,0.015450,0.360793,-0.000090,  38.875
   202.8,0.027566,0.015494,0.361661,-0.000093,  38.878
   203.0,0.027925,0.015544,0.362370,-0.000144,  38.879
   203.2,0.028363,0.015593,0.362936,-0.000170,  38.877
   203.4,0.028755,0.015649,0.363308,-0.000160,  38.881
   203.6,0.029171,0.015785,0.365442,-0.000173,  38.879
   203.8,0.029607,0.015970,0.368242,-0.000211,  38.881
   204.0,0.029980,0.016185,0.371724,-0.000186,  38.880
   204.2,0.030334,0.016414,0.376442,-0.000224,  38.883
   204.4,0.030679,0.016681,0.382141,-0.000261,  38.881
   204.6,0.031045,0.016975,0.388860,-0.000275,  38.879
   204.8,0.031393,0.017188,0.394696,-0.000237,  38.877
   205.0,0.031742,0.017372,0.400567,-0.000184,  38.853
   205.2,0.032205,0.017533,0.406526,-0.000144,  38.831
   205.4,0.032707,0.017660,0.412230,-0.000077,  38.827
   205.6,0.033253,0.017863,0.417874,-0.000037,  38.826
   205.8,0.033637,0.018076,0.423319,-0.000010,  38.825
   206.0,0.033967,0.018301,0.429241,-0.000010,  38.822
   206.2,0.034234,0.018554,0.435295,-0.000034,  38.828
   206.4,0.034452,0.018827,0.441536,-0.000059,  38.825
   206.6,0.034649,0.019125,0.449036,-0.000059,  38.825
   206.8,0.034817,0.019396,0.457303,-0.000083,  38.826
   207.0,0.034937,0.019668,0.466362,-0.000120,  38.828
   207.2,0.035037,0.019947,0.471942,-0.000045,  38.827
   207.4,0.035125,0.020113,0.476027,-0.000032,  38.826
   207.6,0.035190,0.020226,0.478565,-0.000043,  38.829
   207.8,0.035256,0.020278,0.481142,0.000008,  38.835
   208.0,0.035326,0.020337,0.482847,0.000008,  38.847
   208.2,0.035393,0.020374,0.483655,-0.000005,  38.852
   208.4,0.035469,0.020384,0.485037,-0.000021,  38.865
   208.6,0.035556,0.020414,0.486326,-0.000034,  38.883
   208.8,0.035647,0.020442,0.487292,-0.000061,  38.877
   209.0,0.035734,0.020463,0.488621,-0.000101,  38.887
   209.2,0.035821,0.020492,0.490052,-0.000115,  38.881
   209.4,0.035912,0.020532,0.491536,-0.000128,  38.883
   209.6,0.036210,0.020569,0.492261,-0.000168,  38.884
   209.8,0.036623,0.020603,0.492630,-0.000157,  38.891
   210.0,0.037155,0.020633,0.492641,-0.000184,  38.885
   210.2,0.037632,0.020668,0.492303,-0.000224,  38.886
   210.4,0.038144,0.020827,0.494725,-0.000237,  38.890
   210.6,0.038698,0.021038,0.497982,-0.000275,  38.891
   210.8,0.039208,0.021329,0.502127,-0.000251,  38.895
   211.0,0.039722,0.021611,0.507730,-0.000251,  38.891
   211.2,0.040230,0.021929,0.514612,-0.000261,  38.891
   211.4,0.040776,0.022275,0.522706,-0.000221,  38.869
   211.6,0.041336,0.022545,0.530081,-0.000130,  38.860
   211.8,0.041907,0.022791,0.537647,-0.000077,  38.851
   212.0,0.042342,0.023020,0.545492,-0.000024,  38.849
   212.2,0.042720,0.023224,0.552938,0.000016,  38.854
   212.4,0.043041,0.023515,0.560184,0.000070,  38.856
   212.6,0.043249,0.023824,0.567285,0.000110,  38.853
   212.8,0.043382,0.024156,0.575161,0.000150,  38.854
   213.0,0.043423,0.024446,0.583267,0.000153,  38.853
   213.2,0.043386,0.024721,0.591700,0.000179,  38.855
   213.4,0.043443,0.024987,0.596662,0.000193,  38.848
   213.6,0.043505,0.025123,0.599776,0.000182,  38.842
   213.8,0.043556,0.025199,0.601106,0.000195,  38.839
   214.0,0.043617,0.025205,0.602935,0.000233,  38.840
   214.2,0.043689,0.025232,0.604097,0.000219,  38.842
   214.4,0.043771,0.025250,0.604463,0.000193,  38.846
   214.6,0.043856,0.025245,0.605622,0.000153,  38.859
   214.8,0.043955,0.025259,0.606783,0.000126,  38.863
   215.0,0.044065,0.025285,0.607948,0.000086,  38.878
   215.2,0.044181,0.025311,0.609413,0.000032,  38.884
   215.4,0.044314,0.025338,0.610815,-0.000008,  38.896
   215.6,0.044462,0.025370,0.612447,-0.000048,  38.897
   215.8,0.044735,0.025413,0.614100,-0.000088,  38.896
   216.0,0.045095,0.025461,0.615707,-0.000115,  38.902
   216.2,0.045534,0.025529,0.617396,-0.000155,  38.905
   216.4,0.045914,0.025603,0.619970,-0.000181,  38.904
   216.6,0.046316,0.025736,0.622858,-0.000195,  38.903
   216.8,0.046739,0.025923,0.626288,-0.000221,  38.904
   217.0,0.047134,0.026145,0.630151,-0.000235,  38.907
   217.2,0.047531,0.026375,0.634684,-0.000248,  38.910
   217.4,0.047927,0.026625,0.639582,-0.000299,  38.902
   217.6,0.048375,0.026914,0.645099,-0.000275,  38.901
   217.8,0.048862,0.027165,0.650924,-0.000301,  38.895
   218.0,0.049382,0.027402,0.657167,-0.000299,  38.873
   218.2,0.049928,0.027646,0.663929,-0.000221,  38.866
   218.4,0.050521,0.027865,0.670355,-0.000155,  38.868
   218.6,0.051157,0.028062,0.676784,-0.000101,  38.862
   218.8,0.051632,0.028250,0.683310,-0.000088,  38.860
   219.0,0.052050,0.028431,0.691016,-0.000061,  38.860
   219.2,0.052416,0.028736,0.699233,-0.000021,  38.861
   219.4,0.052653,0.029092,0.707989,-0.000008,  38.868
   219.6,0.052810,0.029489,0.717289,0.000006,  38.877
   219.8,0.052880,0.029808,0.727084,0.000083,  38.877
   220.0,0.052977,0.030104,0.737305,0.000137,  38.882
   220.2,0.053044,0.030390,0.742992,0.000177,  38.885
   220.4,0.053086,0.030556,0.746651,0.000203,  38.885
   220.6,0.053093,0.030647,0.747926,0.000244,  38.888
   220.8,0.053151,0.030678,0.750686,0.000233,  38.896
   221.0,0.053225,0.030724,0.753211,0.000169,  38.910
   221.2,0.053291,0.030745,0.755178,0.000128,  38.916
   221.4,0.053364,0.030740,0.756735,0.000113,  38.929
   221.6,0.053452,0.030758,0.757912,0.000072,  38.936
   221.8,0.053550,0.030773,0.758608,0.000019,  38.939
   222.0,0.053665,0.030786,0.759879,-0.000034,  38.943
   222.2,0.053812,0.030817,0.761348,-0.000061,  38.943
   222.4,0.053966,0.030839,0.762822,-0.000115,  38.949
   222.6,0.054323,0.030872,0.764897,-0.000155,  38.957
   222.8,0.054806,0.030905,0.767189,-0.000181,  38.961
   223.0,0.055395,0.030936,0.769584,-0.000221,  38.959
   223.2,0.055876,0.030975,0.772988,-0.000248,  38.960
   223.4,0.056379,0.031172,0.776979,-0.000261,  38.964
   223.6,0.056878,0.031448,0.781456,-0.000288,  38.968
   223.8,0.057357,0.031817,0.785876,-0.000301,  38.969
   224.0,0.057844,0.032119,0.790455,-0.000248,  38.980
   224.2,0.058313,0.032430,0.795219,-0.000181,  38.982
   224.4,0.058892,0.032754,0.800036,-0.000101,  38.968
   224.6,0.059533,0.033047,0.806048,-0.000034,  38.945
   224.8,0.060221,0.033337,0.812609,-0.000019,  38.939
   225.0,0.060707,0.033607,0.819880,0.000072,  38.937
   225.2,0.061130,0.033933,0.827880,0.000126,  38.943
   225.4,0.061471,0.034301,0.836789,0.000142,  38.943
   225.6,0.061674,0.034685,0.846524,0.000233,  38.946
   225.8,0.061785,0.034971,0.855967,0.000273,  38.943
   226.0,0.061781,0.035214,0.865227,0.000300,  38.938
   226.2,0.061831,0.035431,0.874703,0.000326,  38.938
   226.4,0.061866,0.035599,0.880606,0.000340,  38.943
   226.6,0.061877,0.035708,0.884499,0.000366,  38.945
   226.8,0.061913,0.035772,0.886451,0.000393,  38.946
   227.0,0.061956,0.035791,0.888301,0.000407,  38.955
   227.2,0.061991,0.035801,0.889194,0.000393,  38.963
   227.4,0.062031,0.035793,0.889123,0.000366,  38.972
   227.6,0.062105,0.035754,0.890135,0.000286,  38.988
   227.8,0.062191,0.035746,0.891134,0.000233,  38.996
   228.0,0.062294,0.035741,0.891985,0.000179,  39.002
   228.2,0.062404,0.035733,0.893670,0.000099,  39.014
   228.4,0.062540,0.035749,0.895624,0.000046,  39.014
   228.6,0.062690,0.035772,0.897579,-0.000008,  39.024
   228.8,0.062879,0.035808,0.899286,-0.000074,  39.037
   229.0,0.063107,0.035855,0.900725,-0.000115,  39.035
   229.2,0.063376,0.035908,0.902040,-0.000141,  39.042
   229.4,0.063715,0.035980,0.904064,-0.000195,  39.045
   229.6,0.064119,0.036065,0.906400,-0.000208,  39.046
   229.8,0.064588,0.036161,0.908889,-0.000208,  39.048
   230.0,0.065040,0.036281,0.913485,-0.000221,  39.049
   230.2,0.065524,0.036483,0.919498,-0.000248,  39.052
   230.4,0.066035,0.036726,0.926687,-0.000261,  39.051
   230.6,0.066556,0.037026,0.932895,-0.000315,  39.049
   230.8,0.067111,0.037288,0.939350,-0.000301,  39.039
   231.0,0.067681,0.037547,0.945911,-0.000248,  39.026
   231.2,0.068233,0.037823,0.951764,-0.000195,  39.028
   231.4,0.068804,0.038142,0.957358,-0.000155,  39.032
   231.6,0.069369,0.038480,0.962706,-0.000152,  39.040
   231.8,0.069793,0.038856,0.967604,-0.000074,  39.043
   232.0,0.070167,0.039197,0.975443,-0.000048,  39.046
   232.2,0.070468,0.039534,0.984312,-0.000019,  39.051
   232.4,0.070657,0.039874,0.994248,0.000113,  39.061
   232.6,0.070770,0.040130,1.003490,0.000219,  39.064
   232.8,0.070792,0.040344,1.012950,0.000300,  39.073
   233.0,0.070842,0.040524,1.022414,0.000366,  39.076
   233.2,0.070883,0.040665,1.028775,0.000407,  39.089
   233.4,0.070890,0.040756,1.033473,0.000460,  39.092
   233.6,0.070919,0.040801,1.036236,0.000487,  39.104
   233.8,0.070955,0.040803,1.038834,0.000487,  39.112
   234.0,0.070995,0.040801,1.040462,0.000460,  39.132
   234.2,0.071046,0.040774,1.040909,0.000393,  39.142
   234.4,0.071101,0.040732,1.042312,0.000300,  39.158
   234.6,0.071163,0.040706,1.043518,0.000233,  39.168
   234.8,0.071228,0.040683,1.044720,0.000153,  39.171
   235.0,0.071396,0.040671,1.046323,0.000072,  39.179
   235.2,0.071603,0.040676,1.047931,0.000019,  39.178
   235.4,0.071862,0.040689,1.049539,-0.000048,  39.184
   235.6,0.072244,0.040728,1.051570,-0.000115,  39.188
   235.8,0.072726,0.040756,1.053214,-0.000155,  39.188
   236.0,0.073296,0.040789,1.054864,-0.000195,  39.193
   236.2,0.073749,0.040828,1.058377,-0.000235,  39.198
   236.4,0.074192,0.041047,1.062550,-0.000261,  39.209
   236.6,0.074640,0.041362,1.067401,-0.000288,  39.218
   236.8,0.075102,0.041776,1.072131,-0.000301,  39.224
   237.0,0.075583,0.042077,1.077146,-0.000235,  39.230
   237.2,0.076076,0.042369,1.082029,-0.000141,  39.231
   237.4,0.076628,0.042650,1.088456,0.000006,  39.223
   237.6,0.077229,0.042945,1.095630,0.000113,  39.206
   237.8,0.077868,0.043234,1.103603,0.000182,  39.196
   238.0,0.078307,0.043515,1.110581,0.000275,  39.196
   238.2,0.078677,0.043831,1.117442,0.000356,  39.200
   238.4,0.078963,0.044168,1.123921,0.000372,  39.194
   238.6,0.079107,0.044518,1.130269,0.000412,  39.192
   238.8,0.079151,0.044808,1.138696,0.000463,  39.193
   239.0,0.079081,0.045083,1.147043,0.000465,  39.207
   239.2,0.079074,0.045339,1.156328,0.000505,  39.217
   239.4,0.079051,0.045442,1.161847,0.000570,  39.224
   239.6,0.079011,0.045461,1.165597,0.000596,  39.234
   239.8,0.079003,0.045395,1.166972,0.000599,  39.239
   240.0,0.079014,0.045374,1.169102,0.000663,  39.252
   240.2,0.079044,0.045329,1.170434,0.000650,  39.266
   240.4,0.079085,0.045271,1.170665,0.000559,  39.272
   240.6,0.079151,0.045189,1.171993,0.000529,  39.290
   240.8,0.079244,0.045136,1.173341,0.000463,  39.306
   241.0,0.079314,0.045086,1.174421,0.000318,  39.324
   241.2,0.079400,0.045031,1.174973,0.000222,  39.333
   241.4,0.079496,0.045026,1.174989,0.000142,  39.345
   241.6,0.079596,0.045039,1.175020,0.000037,  39.348
   241.8,0.079696,0.045073,1.175581,-0.000019,  39.349
   242.0,0.079815,0.045110,1.175862,-0.000085,  39.361
   242.2,0.079930,0.045165,1.176417,-0.000163,  39.358
   242.4,0.080250,0.045229,1.178068,-0.000179,  39.367
   242.6,0.080651,0.045263,1.179466,-0.000179,  39.379
   242.8,0.081146,0.045292,1.181422,-0.000165,  39.383
   243.0,0.081645,0.045316,1.185863,-0.000101,  39.387
   243.2,0.082178,0.045472,1.191190,-0.000074,  39.388
   243.4,0.082760,0.045696,1.198010,-0.000048,  39.394
   243.6,0.083250,0.045985,1.204365,-0.000048,  39.397
   243.8,0.083703,0.046287,1.211422,-0.000021,  39.389
   244.0,0.084137,0.046620,1.218588,-0.000008,  39.377
   244.2,0.084576,0.046992,1.225300,0.000006,  39.378
   244.4,0.084993,0.047305,1.231822,0.000086,  39.390
   244.6,0.085410,0.047607,1.238150,0.000179,  39.402
   244.8,0.085718,0.047900,1.245796,0.000300,  39.413
   245.0,0.085959,0.048163,1.252903,0.000393,  39.424
   245.2,0.086147,0.048413,1.260437,0.000487,  39.439
   245.4,0.086238,0.048650,1.266442,0.000594,  39.456
   245.6,0.086268,0.048855,1.272176,0.000661,  39.471
   245.8,0.086215,0.049044,1.276270,0.000677,  39.481
   246.0,0.086196,0.049212,1.280056,0.000754,  39.493
   246.2,0.086177,0.049252,1.283869,0.000768,  39.502
   246.4,0.086128,0.049225,1.287370,0.000757,  39.522
   246.6,0.086117,0.049132,1.289833,0.000821,  39.539
   246.8,0.086128,0.049063,1.291969,0.000821,  39.560
   247.0,0.086140,0.048980,1.293757,0.000818,  39.574
   247.2,0.086159,0.048876,1.294123,0.000711,  39.593
   247.4,0.086204,0.048818,1.295537,0.000578,  39.607
   247.6,0.086245,0.048770,1.296610,0.000522,  39.628
   247.8,0.086385,0.048738,1.297678,0.000388,  39.639
   248.0,0.086596,0.048717,1.299111,0.000217,  39.644
   248.2,0.086856,0.048693,1.300193,0.000086,  39.652
   248.4,0.087142,0.048677,1.301642,-0.000008,  39.658
   248.6,0.087463,0.048663,1.303120,-0.000088,  39.668
   248.8,0.087845,0.048655,1.303877,-0.000192,  39.672
   249.0,0.088265,0.048661,1.305010,-0.000246,  39.678
   249.2,0.088651,0.048669,1.308324,-0.000248,  39.680
   249.4,0.089060,0.048884,1.312404,-0.000288,  39.694
   249.6,0.089477,0.049212,1.317271,-0.000315,  39.692
   249.8,0.089842,0.049647,1.322217,-0.000341,  39.699
   250.0,0.090180,0.049957,1.327623,-0.000261,  39.710
   250.2,0.090510,0.050264,1.332720,-0.000115,  39.717
   250.4,0.090872,0.050558,1.337845,0.000046,  39.700
   250.6,0.091238,0.050815,1.342623,0.000193,  39.685
   250.8,0.091626,0.051039,1.347447,0.000340,  39.673
   251.0,0.091901,0.051243,1.352727,0.000487,  39.673
   251.2,0.092119,0.051457,1.357658,0.000594,  39.676
   251.4,0.092298,0.051680,1.362645,0.000687,  39.692
   251.6,0.092347,0.051899,1.368140,0.000741,  39.710
   251.8,0.092298,0.052090,1.373283,0.000808,  39.728
   252.0,0.092168,0.052264,1.378059,0.000861,  39.742
   252.2,0.092095,0.052428,1.381124,0.000901,  39.759
   252.4,0.091993,0.052463,1.383328,0.000942,  39.772
   252.6,0.091889,0.052415,1.384651,0.000944,  39.797
   252.8,0.091847,0.052292,1.384667,0.001009,  39.814
   253.0,0.091821,0.052187,1.385544,0.001009,  39.832
   253.2,0.091836,0.052063,1.386438,0.000931,  39.854
   253.4,0.091851,0.051913,1.386438,0.000915,  39.876
   253.6,0.091874,0.051822,1.387318,0.000835,  39.902
   253.8,0.091928,0.051763,1.387755,0.000727,  39.915
   254.0,0.091977,0.051715,1.387747,0.000594,  39.932
   254.2,0.092023,0.051688,1.388177,0.000447,  39.945
   254.4,0.092084,0.051683,1.387716,0.000353,  39.960
   254.6,0.092126,0.051688,1.387708,0.000246,  39.981
   254.8,0.092161,0.051721,1.388154,0.000139,  39.984
   255.0,0.092195,0.051748,1.387716,0.000099,  39.991
   255.2,0.092363,0.051777,1.387740,0.000086,  40.004
   255.4,0.092596,0.051812,1.388224,0.000072,  40.007
   255.6,0.092905,0.051806,1.388286,0.000086,  40.019
   255.8,0.093277,0.051787,1.388801,0.000099,  40.020
   256.0,0.093583,0.051744,1.391485,0.000126,  40.029
   256.2,0.093916,0.051876,1.395074,0.000139,  40.039
   256.4,0.094265,0.052088,1.399590,0.000153,  40.048
   256.6,0.094526,0.052370,1.403717,0.000139,  40.058
   256.8,0.094738,0.052590,1.408341,0.000166,  40.051
   257.0,0.094929,0.052829,1.412097,0.000219,  40.044
   257.2,0.095129,0.053068,1.415869,0.000259,  40.056
   257.4,0.095302,0.053248,1.418719,0.000340,  40.078
   257.6,0.095479,0.053410,1.421107,0.000460,  40.103
   257.8,0.095579,0.053539,1.423983,0.000594,  40.118
   258.0,0.095626,0.053671,1.425922,0.000687,  40.142
   258.2,0.095641,0.053787,1.427862,0.000730,  40.168
   258.4,0.095602,0.053895,1.429810,0.000810,  40.192
   258.6,0.095503,0.053970,1.431760,0.000877,  40.222
   258.8,0.095371,0.054037,1.432746,0.000893,  40.247
   259.0,0.095283,0.054091,1.433757,0.000944,  40.273
   259.2,0.095187,0.054054,1.433788,0.000971,  40.301
   259.4,0.095106,0.053956,1.433835,0.000984,  40.333
   259.6,0.095045,0.053811,1.432909,0.000947,  40.364
   259.8,0.094980,0.053701,1.433395,0.000958,  40.384
   260.0,0.094941,0.053577,1.434361,0.000853,  40.405
   260.2,0.094899,0.053437,1.435810,0.000810,  40.431
   260.4,0.094857,0.053329,1.436782,0.000727,  40.461
   260.6,0.094829,0.053249,1.437756,0.000620,  40.478
   260.8,0.094895,0.053174,1.438232,0.000513,  40.493
   261.0,0.094999,0.053115,1.439233,0.000380,  40.511
   261.2,0.095168,0.053066,1.439742,0.000273,  40.521
   261.4,0.095418,0.053029,1.439757,0.000193,  40.523
   261.6,0.095722,0.053007,1.440753,0.000113,  40.535
   261.8,0.096107,0.052972,1.440738,0.000046,  40.537
   262.0,0.096349,0.052942,1.441217,-0.000008,  40.546
   262.2,0.096543,0.052910,1.443243,-0.000048,  40.549
   262.4,0.096716,0.053066,1.445286,-0.000074,  40.559
   262.6,0.096847,0.053319,1.447879,-0.000115,  40.564
   262.8,0.096940,0.053666,1.449920,-0.000155,  40.568
   263.0,0.097005,0.053876,1.451432,-0.000074,  40.583
   263.2,0.097032,0.054065,1.453466,0.000046,  40.583
   263.4,0.097125,0.054235,1.454495,0.000219,  40.574
   263.6,0.097229,0.054370,1.454503,0.000366,  40.556
   263.8,0.097329,0.054469,1.454526,0.000500,  40.551
   264.0,0.097380,0.054547,1.454518,0.000634,  40.576
   264.2,0.097403,0.054634,1.453984,0.000741,  40.609
   264.4,0.097407,0.054720,1.453443,0.000821,  40.631
   264.6,0.097333,0.054793,1.453961,0.000875,  40.664
   264.8,0.097214,0.054847,1.453984,0.000928,  40.696
   265.0,0.097040,0.054901,1.454008,0.000982,  40.723
   265.2,0.096943,0.054939,1.454518,0.001009,  40.749
   265.4,0.096854,0.054896,1.454495,0.001049,  40.789
   265.6,0.096770,0.054818,1.454472,0.001075,  40.823
   265.8,0.096727,0.054693,1.454456,0.001089,  40.846
   266.0,0.096704,0.054591,1.454448,0.001062,  40.893
   266.2,0.096700,0.054491,1.454441,0.001009,  40.917
   266.4,0.096696,0.054383,1.454448,0.000915,  40.961
   266.6,0.096708,0.054318,1.454456,0.000848,  40.994
   266.8,0.096727,0.054289,1.454472,0.000757,  41.010
   267.0,0.096703,0.054278,1.453976,0.000714,  41.039
   267.2,0.096657,0.054262,1.453984,0.000647,  41.065
   267.4,0.096607,0.054267,1.454008,0.000570,  41.074
   267.6,0.096584,0.054278,1.454039,0.000554,  41.099
   267.8,0.096546,0.054267,1.454550,0.000527,  41.104
   268.0,0.096530,0.054248,1.454542,0.000527,  41.125
   268.2,0.096600,0.054224,1.454008,0.000527,  41.138
   268.4,0.096704,0.054180,1.454518,0.000540,  41.151
   268.6,0.096866,0.054135,1.453984,0.000567,  41.169
   268.8,0.096951,0.054075,1.452949,0.000580,  41.173
   269.0,0.097017,0.054013,1.452972,0.000607,  41.184
   269.2,0.097074,0.054056,1.453011,0.000594,  41.192
   269.4,0.097109,0.054143,1.452041,0.000554,  41.215
   269.6,0.097128,0.054264,1.452549,0.000487,  41.226
   269.8,0.097121,0.054337,1.453042,0.000500,  41.226
   270.0,0.097101,0.054413,1.452996,0.000516,  41.229
   270.2,0.097094,0.054486,1.452463,0.000583,  41.257
   270.4,0.097078,0.054534,1.450933,0.000636,  41.292
   270.6,0.097051,0.054567,1.448895,0.000666,  41.340
   270.8,0.097001,0.054594,1.447345,0.000770,  41.368
   271.0,0.096916,0.054615,1.444786,0.000824,  41.409
   271.2,0.096827,0.054629,1.442233,0.000826,  41.442
   271.4,0.096708,0.054637,1.440220,0.000904,  41.475
   271.6,0.096557,0.054637,1.437233,0.000958,  41.527
   271.8,0.096399,0.054621,1.434275,0.000947,  41.557
   272.0,0.096256,0.054607,1.432792,0.000998,  41.593
   272.2,0.096110,0.054537,1.431322,0.001025,  41.635
   272.4,0.095971,0.054434,1.430332,0.001000,  41.673
   272.6,0.095844,0.054305,1.430308,0.001025,  41.727
   272.8,0.095725,0.054183,1.429802,0.000998,  41.742
   273.0,0.095605,0.054054,1.429771,0.000893,  41.783
   273.2,0.095498,0.053908,1.430254,0.000824,  41.801
   273.4,0.095390,0.053790,1.429779,0.000757,  41.824
   273.6,0.095298,0.053687,1.429802,0.000639,  41.837
   273.8,0.095279,0.053588,1.429312,0.000570,  41.845
   274.0,0.095294,0.053491,1.429312,0.000516,  41.864
   274.2,0.095367,0.053410,1.428807,0.000449,  41.870
   274.4,0.095444,0.053340,1.428319,0.000385,  41.877
   274.6,0.095540,0.053262,1.428311,0.000369,  41.883
   274.8,0.095675,0.053189,1.427343,0.000291,  41.889
   275.0,0.095736,0.053122,1.426369,0.000275,  41.896
   275.2,0.095764,0.053184,1.425875,0.000259,  41.904
   275.4,0.095771,0.053310,1.424905,0.000233,  41.911
   275.6,0.095771,0.053513,1.424412,0.000206,  41.923
   275.8,0.095748,0.053607,1.423445,0.000179,  41.924
   276.0,0.095702,0.053682,1.422014,0.000233,  41.934
   276.2,0.095687,0.053742,1.419636,0.000313,  41.935
   276.4,0.095667,0.053780,1.417233,0.000447,  41.952
   276.6,0.095644,0.053823,1.414836,0.000554,  41.960
   276.8,0.095587,0.053857,1.411040,0.000661,  41.977
   277.0,0.095510,0.053884,1.407735,0.000768,  42.011
   277.2,0.095402,0.053919,1.404446,0.000848,  42.044
   277.4,0.095325,0.053946,1.400264,0.000915,  42.085
   277.6,0.095259,0.053973,1.397077,0.000955,  42.122
   277.8,0.095183,0.053979,1.393485,0.000995,  42.158
   278.0,0.095124,0.053979,1.389955,0.001022,  42.187
   278.2,0.095063,0.053968,1.388185,0.001049,  42.223
   278.4,0.094998,0.053922,1.386866,0.001089,  42.275
   278.6,0.094932,0.053865,1.385994,0.001102,  42.312
   278.8,0.094887,0.053785,1.385544,0.001116,  42.350
   279.0,0.094856,0.053731,1.385979,0.001089,  42.387
   279.2,0.094840,0.053680,1.386399,0.001035,  42.425
   279.4,0.094783,0.053637,1.386399,0.000955,  42.461
   279.6,0.094710,0.053607,1.386843,0.000915,  42.492
   279.8,0.094621,0.053583,1.386851,0.000901,  42.507
   280.0,0.094502,0.053575,1.386851,0.000888,  42.537
   280.2,0.094360,0.053542,1.386835,0.000888,  42.552
   280.4,0.094188,0.053502,1.386819,0.000888,  42.570
   280.6,0.094100,0.053464,1.386368,0.000875,  42.594
   280.8,0.094031,0.053383,1.385916,0.000888,  42.602
   281.0,0.093992,0.053284,1.385489,0.000901,  42.624
   281.2,0.093969,0.053168,1.384613,0.000928,  42.638
   281.4,0.093958,0.053082,1.384179,0.000915,  42.649
   281.6,0.093970,0.053006,1.383305,0.000877,  42.667
   281.8,0.093958,0.052945,1.382009,0.000888,  42.675
   282.0,0.093939,0.052929,1.380701,0.000848,  42.683
   282.2,0.093927,0.052948,1.378518,0.000744,  42.696
   282.4,0.093897,0.052999,1.375927,0.000714,  42.700
   282.6,0.093843,0.053018,1.373329,0.000607,  42.723
   282.8,0.093797,0.053047,1.370739,0.000594,  42.731
   283.0,0.093743,0.053077,1.367738,0.000634,  42.742
   283.2,0.093675,0.053095,1.364360,0.000714,  42.769
   283.4,0.093613,0.053098,1.360589,0.000754,  42.807
   283.6,0.093529,0.053106,1.356039,0.000821,  42.854
   283.8,0.093429,0.053109,1.351528,0.000888,  42.880
   284.0,0.093330,0.053103,1.347064,0.000955,  42.910
   284.2,0.093184,0.053109,1.341869,0.000995,  42.954
   284.4,0.093012,0.053114,1.336363,0.001022,  42.986
   284.6,0.092829,0.053103,1.330959,0.001062,  43.028
   284.8,0.092683,0.053093,1.324492,0.001051,  43.063
   285.0,0.092553,0.053077,1.321810,0.001065,  43.096
   285.2,0.092435,0.052998,1.320254,0.001078,  43.129
   285.4,0.092324,0.052894,1.319796,0.001067,  43.173
   285.6,0.092187,0.052762,1.318997,0.001092,  43.205
   285.8,0.092042,0.052635,1.318571,0.001051,  43.240
   286.0,0.091885,0.052512,1.318532,0.000960,  43.252
   286.2,0.091759,0.052372,1.318121,0.000917,  43.267
   286.4,0.091634,0.052246,1.317735,0.000837,  43.279
   286.6,0.091531,0.052128,1.317349,0.000757,  43.285
   286.8,0.091504,0.052004,1.316955,0.000714,  43.288
   287.0,0.091508,0.051913,1.316200,0.000661,  43.289
   287.2,0.091569,0.051833,1.314701,0.000594,  43.296
   287.4,0.091595,0.051771,1.313926,0.000540,  43.317
   287.6,0.091615,0.051693,1.312778,0.000513,  43.324
   287.8,0.091645,0.051618,1.311260,0.000460,  43.326
   288.0,0.091653,0.051554,1.310126,0.000420,  43.336
   288.2,0.091649,0.051594,1.308270,0.000393,  43.343
   288.4,0.091637,0.051696,1.306782,0.000329,  43.356
   288.6,0.091618,0.051860,1.304580,0.000391,  43.365
   288.8,0.091576,0.051937,1.301658,0.000364,  43.368
   289.0,0.091546,0.052013,1.298393,0.000393,  43.374
   289.2,0.091531,0.052074,1.294443,0.000460,  43.380
   289.4,0.091515,0.052117,1.289864,0.000618,  43.396
   289.6,0.091515,0.052160,1.283954,0.000725,  43.419
   289.8,0.091450,0.052184,1.277483,0.000818,  43.433
   290.0,0.091355,0.052219,1.272688,0.000899,  43.467
   290.2,0.091241,0.052251,1.268244,0.000979,  43.496
   290.4,0.091180,0.052281,1.264140,0.001033,  43.521
   290.6,0.091131,0.052310,1.260113,0.001059,  43.567
   290.8,0.091104,0.052327,1.255801,0.001100,  43.587
   291.0,0.091073,0.052332,1.251856,0.001126,  43.612
   291.2,0.091058,0.052330,1.249908,0.001140,  43.654
   291.4,0.091047,0.052308,1.248316,0.001167,  43.688
   291.6,0.091043,0.052281,1.247395,0.001193,  43.722
   291.8,0.090978,0.052246,1.247058,0.001193,  43.757
   292.0,0.090906,0.052230,1.247042,0.001180,  43.788
   292.2,0.090799,0.052227,1.247333,0.001126,  43.813
   292.4,0.090666,0.052233,1.247310,0.001059,  43.851
   292.6,0.090502,0.052206,1.247938,0.001046,  43.871
   292.8,0.090316,0.052174,1.248253,0.001046,  43.885
   293.0,0.090160,0.052136,1.248230,0.001046,  43.899
   293.2,0.090001,0.052050,1.248207,0.001059,  43.915
   293.4,0.089853,0.051943,1.247554,0.001073,  43.939
   293.6,0.089780,0.051814,1.247216,0.001086,  43.951
   293.8,0.089743,0.051693,1.246550,0.001086,  43.963
   294.0,0.089758,0.051568,1.245579,0.001059,  43.972
   294.2,0.089754,0.051439,1.244610,0.001033,  43.980
   294.4,0.089754,0.051369,1.243012,0.000979,  43.992
   294.6,0.089777,0.051340,1.241421,0.000899,  43.999
   294.8,0.089780,0.051337,1.239527,0.000792,  44.005
   295.0,0.089769,0.051351,1.237318,0.000725,  44.029
   295.2,0.089765,0.051391,1.235128,0.000634,  44.034
   295.4,0.089754,0.051455,1.232335,0.000604,  44.038
   295.6,0.089735,0.051496,1.229220,0.000564,  44.052
   295.8,0.089723,0.051530,1.225521,0.000567,  44.061
   296.0,0.089705,0.051576,1.221846,0.000634,  44.069
   296.2,0.089671,0.051611,1.217915,0.000778,  44.093
   296.4,0.089651,0.051640,1.213424,0.000845,  44.120
   296.6,0.089602,0.051670,1.208405,0.000926,  44.164
   296.8,0.089523,0.051694,1.203428,0.000979,  44.177
   297.0,0.089443,0.051715,1.198796,0.001033,  44.205
   297.2,0.089325,0.051737,1.193643,0.001073,  44.229
   297.4,0.089166,0.051758,1.188816,0.001100,  44.266
   297.6,0.088995,0.051769,1.184320,0.001116,  44.298
   297.8,0.088866,0.051785,1.179602,0.001142,  44.322
   298.0,0.088749,0.051793,1.176847,0.001156,  44.353
   298.2,0.088647,0.051737,1.174942,0.001183,  44.375
   298.4,0.088548,0.051654,1.173605,0.001183,  44.402
   298.6,0.088423,0.051533,1.172790,0.001193,  44.423
   298.8,0.088287,0.051428,1.171969,0.001204,  44.441
   299.0,0.088147,0.051324,1.171421,0.001150,  44.459
   299.2,0.088034,0.051201,1.170880,0.001033,  44.466
   299.4,0.087931,0.051102,1.169809,0.000979,  44.475
   299.6,0.087837,0.051008,1.169009,0.000912,  44.484
   299.8,0.087818,0.050925,1.168203,0.000832,  44.487
   300.0,0.087844,0.050850,1.167115,0.000778,  44.494
   300.2,0.087909,0.050778,1.165771,0.000725,  44.494
   300.4,0.087947,0.050720,1.164438,0.000658,  44.504
   300.6,0.087996,0.050661,1.163110,0.000594,  44.515
   300.8,0.088045,0.050597,1.161264,0.000567,  44.519
   301.0,0.088075,0.050532,1.158909,0.000540,  44.523
   301.2,0.088098,0.050580,1.156052,0.000476,  44.540
   301.4,0.088109,0.050684,1.152711,0.000449,  44.542
   301.6,0.088117,0.050850,1.148913,0.000460,  44.550
   301.8,0.088117,0.050938,1.145428,0.000487,  44.552
   302.0,0.088109,0.051019,1.140735,0.000489,  44.563
   302.2,0.088117,0.051102,1.136117,0.000594,  44.568
   302.4,0.088132,0.051166,1.132614,0.000687,  44.578
   302.6,0.088147,0.051214,1.129083,0.000730,  44.588
   302.8,0.088117,0.051260,1.126012,0.000861,  44.600
   303.0,0.088064,0.051316,1.122080,0.000942,  44.620
   303.2,0.087984,0.051370,1.117720,0.001022,  44.642
   303.4,0.087962,0.051429,1.113426,0.001062,  44.680
   303.6,0.087954,0.051458,1.109400,0.001089,  44.703
   303.8,0.087962,0.051472,1.105658,0.001129,  44.721
   304.0,0.087920,0.051477,1.101741,0.001156,  44.744
   304.2,0.087863,0.051461,1.099903,0.001156,  44.778
   304.4,0.087788,0.051466,1.098773,0.001169,  44.802
   304.6,0.087690,0.051472,1.098111,0.001169,  44.832
   304.8,0.087557,0.051480,1.097025,0.001156,  44.847
   305.0,0.087402,0.051472,1.095966,0.001142,  44.879
   305.2,0.087293,0.051461,1.094941,0.001089,  44.903
   305.4,0.087184,0.051440,1.094082,0.001022,  44.925
   305.6,0.087093,0.051383,1.093210,0.001022,  44.941
   305.8,0.087002,0.051294,1.092332,0.001022,  44.956
   306.0,0.086901,0.051193,1.092300,0.001049,  44.977
   306.2,0.086803,0.051094,1.092456,0.001049,  44.985
   306.4,0.086697,0.050984,1.092821,0.001022,  45.001
   306.6,0.086686,0.050872,1.092759,0.000995,  45.010
   306.8,0.086697,0.050783,1.092253,0.000955,  45.016
   307.0,0.086750,0.050703,1.091749,0.000875,  45.024
   307.2,0.086795,0.050642,1.091260,0.000781,  45.031
   307.4,0.086844,0.050615,1.090331,0.000727,  45.039
   307.6,0.086889,0.050612,1.088979,0.000661,  45.048
   307.8,0.086923,0.050636,1.086956,0.000607,  45.047
   308.0,0.086953,0.050685,1.084292,0.000567,  45.057
   308.2,0.086976,0.050757,1.080775,0.000540,  45.067
   308.4,0.086995,0.050850,1.077511,0.000500,  45.079
   308.6,0.087002,0.050920,1.074063,0.000540,  45.091
   308.8,0.087006,0.050984,1.070230,0.000634,  45.096
   309.0,0.087021,0.051046,1.066825,0.000754,  45.096
   309.2,0.087032,0.051102,1.063642,0.000821,  45.112
   309.4,0.087044,0.051151,1.060691,0.000837,  45.133
   309.6,0.087010,0.051196,1.057961,0.000928,  45.158
   309.8,0.086946,0.051241,1.054007,0.000968,  45.173
   310.0,0.086859,0.051292,1.049492,0.000984,  45.205
   310.2,0.086761,0.051343,1.044813,0.001062,  45.223
   310.4,0.086637,0.051367,1.040800,0.001102,  45.246
   310.6,0.086493,0.051375,1.037029,0.001129,  45.265
   310.8,0.086373,0.051375,1.033504,0.001156,  45.279
   311.0,0.086252,0.051367,1.031360,0.001169,  45.312
   311.2,0.086136,0.051313,1.030015,0.001183,  45.328
   311.4,0.086034,0.051241,1.029445,0.001183,  45.345
   311.6,0.085940,0.051139,1.028845,0.001196,  45.359
   311.8,0.085853,0.051059,1.028620,0.001169,  45.371
   312.0,0.085778,0.050965,1.028371,0.001102,  45.381
   312.2,0.085714,0.050879,1.027959,0.001022,  45.391
   312.4,0.085658,0.050810,1.027353,0.001006,  45.411
   312.6,0.085609,0.050740,1.026561,0.000912,  45.416
   312.8,0.085601,0.050687,1.025772,0.000818,  45.422
   313.0,0.085616,0.050628,1.024428,0.000802,  45.430
   313.2,0.085654,0.050575,1.022912,0.000762,  45.440
   313.4,0.085714,0.050532,1.021753,0.000685,  45.443
   313.6,0.085793,0.050476,1.020407,0.000658,  45.444
   313.8,0.085895,0.050422,1.018874,0.000631,  45.448
   314.0,0.085955,0.050371,1.016990,0.000591,  45.456
   314.2,0.086000,0.050424,1.014746,0.000578,  45.461
   314.4,0.086034,0.050545,1.011771,0.000551,  45.464
   314.6,0.086049,0.050713,1.008957,0.000524,  45.474
   314.8,0.086041,0.050807,1.006153,0.000564,  45.480
   315.0,0.086019,0.050898,1.002983,0.000631,  45.484
   315.2,0.086000,0.050979,0.999321,0.000725,  45.492
   315.4,0.085966,0.051038,0.995517,0.000805,  45.493
   315.6,0.085925,0.051086,0.991591,0.000872,  45.500
   315.8,0.085872,0.051121,0.988393,0.000966,  45.522
   316.0,0.085804,0.051148,0.985388,0.001019,  45.545
   316.2,0.085729,0.051166,0.982769,0.001022,  45.561
   316.4,0.085684,0.051169,0.980332,0.001100,  45.574
   316.6,0.085646,0.051164,0.976886,0.001113,  45.604
   316.8,0.085624,0.051150,0.973149,0.001089,  45.628
   317.0,0.085549,0.051121,0.969113,0.001102,  45.646
   317.2,0.085462,0.051113,0.967412,0.001116,  45.665
   317.4,0.085361,0.051110,0.966199,0.001078,  45.690
   317.6,0.085274,0.051107,0.965976,0.001065,  45.711
   317.8,0.085195,0.051081,0.965135,0.001062,  45.726
   318.0,0.085120,0.051043,0.964143,0.001049,  45.759
   318.2,0.085056,0.050995,0.963336,0.001009,  45.773
   318.4,0.084996,0.050936,0.962970,0.000968,  45.787
   318.6,0.084944,0.050877,0.962589,0.000955,  45.799
   318.8,0.084895,0.050813,0.962535,0.000928,  45.813
   319.0,0.084854,0.050746,0.962041,0.000901,  45.822
   319.2,0.084823,0.050698,0.961405,0.000861,  45.832
   319.4,0.084790,0.050650,0.960468,0.000757,  45.853
   319.6,0.084812,0.050607,0.959661,0.000690,  45.859
   319.8,0.084854,0.050578,0.958358,0.000650,  45.869
   320.0,0.084914,0.050546,0.957043,0.000572,  45.874
   320.2,0.084974,0.050516,0.956212,0.000570,  45.881
   320.4,0.085045,0.050514,0.955201,0.000529,  45.884
   320.6,0.085131,0.050524,0.954349,0.000479,  45.894
   320.8,0.085158,0.050549,0.952837,0.000489,  45.900
   321.0,0.085177,0.050604,0.950856,0.000463,  45.902
   321.2,0.085176,0.050703,0.948723,0.000412,  45.910
   321.4,0.085154,0.050828,0.946132,0.000436,  45.912
   321.6,0.085128,0.050892,0.943252,0.000476,  45.923
   321.8,0.085090,0.050957,0.939938,0.000556,  45.924
   322.0,0.085060,0.051010,0.936618,0.000714,  45.924
   322.2,0.085037,0.051045,0.932856,0.000794,  45.940
   322.4,0.085019,0.051067,0.928661,0.000875,  45.960
   322.6,0.084959,0.051078,0.925127,0.000955,  45.986
   322.8,0.084895,0.051091,0.921326,0.001022,  46.001
   323.0,0.084805,0.051110,0.917415,0.001062,  46.021
   323.2,0.084700,0.051121,0.914861,0.001089,  46.034
   323.4,0.084598,0.051113,0.913068,0.001129,  46.047
   323.6,0.084471,0.051086,0.911556,0.001105,  46.065
   323.8,0.084362,0.051046,0.910649,0.001169,  46.086
   324.0,0.084272,0.050998,0.909605,0.001156,  46.099
   324.2,0.084182,0.050931,0.908725,0.001118,  46.114
   324.4,0.084088,0.050851,0.908298,0.001156,  46.127
   324.6,0.084013,0.050797,0.907840,0.001156,  46.139
   324.8,0.083935,0.050738,0.907228,0.001129,  46.147
   325.0,0.083852,0.050698,0.906609,0.001075,  46.155
   325.2,0.083781,0.050655,0.906013,0.000982,  46.166
   325.4,0.083703,0.050596,0.905134,0.000928,  46.175
   325.6,0.083669,0.050543,0.903971,0.000875,  46.195
   325.8,0.083669,0.050479,0.902957,0.000808,  46.202
   326.0,0.083688,0.050425,0.901817,0.000754,  46.205
   326.2,0.083725,0.050369,0.900534,0.000701,  46.210
   326.4,0.083781,0.050329,0.899376,0.000647,  46.219
   326.6,0.083860,0.050278,0.898221,0.000620,  46.222
   326.8,0.083953,0.050219,0.896910,0.000594,  46.228
   327.0,0.083980,0.050163,0.895484,0.000554,  46.232
   327.2,0.084002,0.050220,0.893791,0.000540,  46.240
   327.4,0.084006,0.050324,0.891688,0.000513,  46.242
   327.6,0.083965,0.050479,0.889422,0.000487,  46.246
   327.8,0.083909,0.050556,0.886887,0.000527,  46.252
   328.0,0.083819,0.050634,0.884080,0.000594,  46.258
   328.2,0.083729,0.050687,0.881153,0.000687,  46.259
   328.4,0.083639,0.050705,0.877962,0.000768,  46.265
   328.6,0.083534,0.050700,0.874665,0.000835,  46.267
   328.8,0.083418,0.050676,0.871784,0.000915,  46.281
   329.0,0.083302,0.050647,0.868779,0.000968,  46.295
   329.2,0.083171,0.050601,0.866077,0.001009,  46.321
   329.4,0.083055,0.050548,0.863267,0.001009,  46.341
   329.6,0.082954,0.050495,0.860343,0.001022,  46.362
   329.8,0.082850,0.050436,0.857330,0.001009,  46.375
   330.0,0.082771,0.050367,0.855105,0.000968,  46.391
   330.2,0.082723,0.050300,0.853297,0.000955,  46.408
   330.4,0.082678,0.050222,0.851870,0.000917,  46.437
   330.6,0.082626,0.050142,0.850858,0.000928,  46.456
   330.8,0.082596,0.050081,0.849688,0.000915,  46.468
   331.0,0.082566,0.050035,0.848651,0.000837,  46.491
   331.2,0.082517,0.050000,0.847872,0.000821,  46.503
   331.4,0.082480,0.049965,0.847230,0.000754,  46.517
   331.6,0.082439,0.049936,0.846718,0.000714,  46.531
   331.8,0.082383,0.049921,0.846229,0.000674,  46.550
   332.0,0.082338,0.049897,0.845710,0.000634,  46.559
   332.2,0.082279,0.049878,0.845200,0.000607,  46.568
   332.4,0.082282,0.049859,0.844555,0.000529,  46.575
   332.6,0.082327,0.049848,0.843903,0.000503,  46.584
   332.8,0.082390,0.049827,0.843386,0.000489,  46.588
   333.0,0.082435,0.049803,0.842490,0.000425,  46.595
   333.2,0.082488,0.049774,0.841484,0.000449,  46.601
   333.4,0.082544,0.049763,0.840489,0.000436,  46.604
   333.6,0.082607,0.049768,0.839126,0.000423,  46.610
   333.8,0.082581,0.049779,0.837870,0.000433,  46.617
   334.0,0.082544,0.049835,0.836625,0.000420,  46.617
   334.2,0.082465,0.049934,0.835135,0.000407,  46.626
   334.4,0.082376,0.050067,0.833005,0.000393,  46.626
   334.6,0.082275,0.050112,0.830392,0.000460,  46.642
   334.8,0.082144,0.050125,0.827313,0.000540,  46.644
   335.0,0.082044,0.050123,0.823921,0.000661,  46.648
   335.2,0.081961,0.050107,0.819977,0.000741,  46.661
   335.4,0.081872,0.050064,0.815624,0.000821,  46.674
   335.6,0.081764,0.050011,0.812648,0.000888,  46.689
   335.8,0.081667,0.049976,0.809896,0.000955,  46.702
   336.0,0.081555,0.049936,0.807605,0.000995,  46.711
   336.2,0.081432,0.049902,0.805713,0.001022,  46.724
   336.4,0.081317,0.049854,0.803954,0.001049,  46.739
   336.6,0.081190,0.049809,0.802440,0.001062,  46.748
   336.8,0.081068,0.049753,0.801278,0.001075,  46.769
   337.0,0.080960,0.049689,0.800471,0.001089,  46.779
   337.2,0.080844,0.049619,0.799896,0.001051,  46.792
   337.4,0.080736,0.049544,0.799674,0.001089,  46.804
   337.6,0.080647,0.049464,0.798871,0.001075,  46.806
   337.8,0.080554,0.049379,0.798069,0.000998,  46.816
   338.0,0.080458,0.049285,0.797268,0.000982,  46.826
   338.2,0.080372,0.049208,0.796575,0.000915,  46.840
   338.4,0.080290,0.049141,0.795762,0.000875,  46.848
   338.6,0.080238,0.049083,0.794829,0.000821,  46.858
   338.8,0.080212,0.049032,0.793921,0.000741,  46.863
   339.0,0.080201,0.048976,0.792909,0.000687,  46.871
   339.2,0.080224,0.048936,0.791795,0.000647,  46.887
   339.4,0.080290,0.048897,0.790660,0.000580,  46.896
   339.6,0.080376,0.048830,0.789544,0.000554,  46.898
   339.8,0.080380,0.048763,0.788431,0.000527,  46.903
   340.0,0.080361,0.048686,0.787097,0.000500,  46.907
   340.2,0.080298,0.048718,0.785783,0.000524,  46.916
   340.4,0.080227,0.048803,0.784362,0.000511,  46.919
   340.6,0.080120,0.048945,0.782481,0.000471,  46.922
   340.8,0.080001,0.048982,0.780176,0.000511,  46.926
   341.0,0.079860,0.049001,0.777540,0.000578,  46.929
   341.2,0.079723,0.049006,0.775021,0.000620,  46.929
   341.4,0.079578,0.048977,0.772416,0.000650,  46.932
   341.6,0.079437,0.048923,0.769711,0.000717,  46.931
   341.8,0.079278,0.048843,0.767137,0.000808,  46.938
   342.0,0.079122,0.048771,0.764473,0.000848,  46.956
   342.2,0.078966,0.048691,0.761734,0.000848,  46.967
   342.4,0.078800,0.048601,0.759013,0.000848,  46.985
   342.6,0.078644,0.048516,0.756205,0.000848,  47.016
   342.8,0.078500,0.048439,0.753114,0.000848,  47.024
   343.0,0.078374,0.048362,0.750036,0.000821,  47.037
   343.2,0.078274,0.048263,0.746668,0.000821,  47.051
   343.4,0.078197,0.048167,0.743123,0.000808,  47.064
   343.6,0.078108,0.048061,0.741211,0.000808,  47.085
   343.8,0.078031,0.047975,0.739908,0.000808,  47.096
   344.0,0.077964,0.047898,0.739207,0.000770,  47.112
   344.2,0.077886,0.047835,0.739207,0.000808,  47.138
   344.4,0.077809,0.047774,0.738600,0.000808,  47.147
   344.6,0.077739,0.047707,0.737894,0.000757,  47.163
   344.8,0.077657,0.047651,0.737389,0.000741,  47.174
   345.0,0.077580,0.047595,0.736342,0.000687,  47.183
   345.2,0.077499,0.047545,0.735123,0.000661,  47.187
   345.4,0.077480,0.047497,0.733552,0.000607,  47.200
   345.6,0.077510,0.047455,0.732870,0.000554,  47.199
   345.8,0.077565,0.047423,0.732536,0.000527,  47.209
   346.0,0.077580,0.047386,0.732368,0.000500,  47.209
   346.2,0.077610,0.047362,0.731739,0.000460,  47.215
   346.4,0.077632,0.047343,0.731028,0.000460,  47.224
   346.6,0.077595,0.047341,0.730131,0.000396,  47.240
   346.8,0.077528,0.047333,0.729251,0.000382,  47.242
   347.0,0.077429,0.047376,0.728299,0.000382,  47.247
   347.2,0.077300,0.047447,0.727259,0.000332,  47.250
   347.4,0.077148,0.047537,0.725416,0.000342,  47.255
   347.6,0.076982,0.047543,0.723098,0.000396,  47.258
   347.8,0.076791,0.047516,0.720108,0.000452,  47.258
   348.0,0.076588,0.047455,0.717510,0.000583,  47.255
   348.2,0.076382,0.047391,0.714644,0.000650,  47.262
   348.4,0.076161,0.047306,0.711601,0.000679,  47.277
   348.6,0.075977,0.047200,0.708796,0.000770,  47.290
   348.8,0.075812,0.047097,0.705839,0.000824,  47.297
   349.0,0.075661,0.046990,0.702926,0.000813,  47.305
   349.2,0.075510,0.046876,0.700360,0.000891,  47.312
   349.4,0.075378,0.046770,0.697891,0.000931,  47.326
   349.6,0.075250,0.046672,0.695512,0.000907,  47.330
   349.8,0.075121,0.046577,0.693970,0.000944,  47.342
   350.0,0.075018,0.046484,0.693078,0.000958,  47.358
   350.2,0.074908,0.046384,0.692539,0.000934,  47.366
   350.4,0.074794,0.046283,0.691822,0.000944,  47.378
   350.6,0.074696,0.046193,0.691284,0.000917,  47.396
   350.8,0.074593,0.046108,0.690740,0.000891,  47.406
   351.0,0.074483,0.046018,0.690390,0.000813,  47.416
   351.2,0.074384,0.045939,0.689757,0.000784,  47.428
   351.4,0.074278,0.045862,0.689029,0.000706,  47.436
   351.6,0.074193,0.045801,0.688302,0.000639,  47.447
   351.8,0.074128,0.045727,0.687502,0.000596,  47.450
   352.0,0.074073,0.045645,0.686623,0.000556,  47.458
   352.2,0.074040,0.045574,0.685497,0.000492,  47.478
   352.4,0.074036,0.045505,0.684519,0.000489,  47.479
   352.6,0.074043,0.045441,0.683462,0.000463,  47.489
   352.8,0.073963,0.045381,0.682313,0.000412,  47.488
   353.0,0.073864,0.045323,0.681319,0.000423,  47.494
   353.2,0.073729,0.045328,0.680311,0.000409,  47.500
   353.4,0.073615,0.045365,0.679218,0.000345,  47.502
   353.6,0.073509,0.045431,0.677551,0.000356,  47.507
   353.8,0.073381,0.045423,0.675489,0.000396,  47.511
   354.0,0.073275,0.045386,0.673016,0.000398,  47.514
   354.2,0.073111,0.045331,0.670797,0.000503,  47.513
   354.4,0.072928,0.045273,0.668343,0.000556,  47.510
   354.6,0.072742,0.045196,0.665742,0.000545,  47.519
   354.8,0.072505,0.045106,0.663217,0.000623,  47.526
   355.0,0.072249,0.045019,0.660631,0.000650,  47.541
   355.2,0.071965,0.044927,0.657886,0.000599,  47.552
   355.4,0.071721,0.044824,0.654650,0.000623,  47.560
   355.6,0.071499,0.044705,0.651037,0.000636,  47.573
   355.8,0.071277,0.044576,0.647129,0.000599,  47.587
   356.0,0.071095,0.044433,0.643505,0.000636,  47.612
   356.2,0.070946,0.044286,0.639832,0.000677,  47.623
   356.4,0.070830,0.044120,0.636133,0.000679,  47.634
   356.6,0.070699,0.043952,0.633939,0.000757,  47.655
   356.8,0.070586,0.043822,0.632537,0.000784,  47.661
   357.0,0.070495,0.043712,0.631849,0.000733,  47.673
   357.2,0.070386,0.043619,0.630501,0.000744,  47.685
   357.4,0.070292,0.043527,0.629343,0.000717,  47.703
   357.6,0.070205,0.043445,0.627965,0.000703,  47.721
   357.8,0.070100,0.043377,0.626784,0.000612,  47.737
   358.0,0.070002,0.043312,0.626298,0.000610,  47.742
   358.2,0.069908,0.043244,0.626167,0.000545,  47.747
   358.4,0.069867,0.043178,0.626228,0.000492,  47.748
   358.6,0.069867,0.043115,0.625819,0.000476,  47.755
   358.8,0.069908,0.043052,0.625273,0.000449,  47.760
   359.0,0.069878,0.042984,0.624590,0.000372,  47.762
   359.2,0.069846,0.042952,0.624037,0.000382,  47.770
   359.4,0.069806,0.042936,0.623562,0.000356,  47.772
   359.6,0.069686,0.042939,0.623003,0.000329,  47.785
   359.8,0.069538,0.042957,0.622147,0.000353,  47.785
   360.0,0.069353,0.042970,0.621088,0.000340,  47.785
   360.2,0.069139,0.042988,0.619955,0.000313,  47.792
   360.4,0.068904,0.043014,0.618658,0.000300,  47.795
   360.6,0.068651,0.042977,0.617003,0.000353,  47.800
   360.8,0.068405,0.042919,0.615197,0.000420,  47.795
   361.0,0.068156,0.042841,0.612851,0.000500,  47.794
   361.2,0.067892,0.042738,0.610006,0.000567,  47.794
   361.4,0.067636,0.042615,0.606795,0.000647,  47.803
   361.6,0.067412,0.042471,0.603176,0.000701,  47.809
   361.8,0.067207,0.042290,0.599175,0.000754,  47.817
   362.0,0.067019,0.042088,0.594781,0.000781,  47.830
   362.2,0.066854,0.041855,0.591630,0.000808,  47.842
   362.4,0.066717,0.041697,0.588707,0.000848,  47.845
   362.6,0.066613,0.041556,0.586310,0.000861,  47.857
   362.8,0.066483,0.041444,0.584837,0.000875,  47.862
   363.0,0.066364,0.041339,0.583927,0.000888,  47.873
   363.2,0.066260,0.041245,0.583585,0.000888,  47.881
   363.4,0.066134,0.041156,0.582887,0.000875,  47.891
   363.6,0.066015,0.041069,0.582407,0.000835,  47.908
   363.8,0.065897,0.040983,0.581858,0.000781,  47.914
   364.0,0.065778,0.040902,0.581240,0.000714,  47.925
   364.2,0.065663,0.040816,0.580546,0.000661,  47.933
   364.4,0.065563,0.040732,0.579791,0.000607,  47.946
   364.6,0.065408,0.040646,0.579099,0.000554,  47.969
   364.8,0.065247,0.040557,0.578531,0.000513,  47.972
   365.0,0.065068,0.040482,0.577841,0.000449,  47.974
   365.2,0.064978,0.040403,0.577274,0.000460,  47.980
   365.4,0.064946,0.040348,0.576586,0.000433,  47.985
   365.6,0.064946,0.040314,0.575694,0.000369,  47.990
   365.8,0.064860,0.040288,0.574742,0.000380,  47.997
   366.0,0.064745,0.040243,0.573777,0.000353,  47.997
   366.2,0.064609,0.040199,0.572867,0.000340,  48.002
   366.4,0.064470,0.040154,0.571890,0.000340,  48.000
   366.6,0.064312,0.040107,0.570397,0.000353,  48.009
   366.8,0.064155,0.040057,0.568571,0.000366,  48.010
   367.0,0.063936,0.040008,0.566290,0.000366,  48.015
   367.2,0.063689,0.039956,0.564139,0.000366,  48.015
   367.4,0.063411,0.039883,0.561881,0.000393,  48.011
   367.6,0.063157,0.039805,0.559371,0.000420,  48.017
   367.8,0.062889,0.039711,0.556431,0.000433,  48.027
   368.0,0.062629,0.039591,0.553144,0.000447,  48.037
   368.2,0.062358,0.039458,0.549503,0.000460,  48.048
   368.4,0.062069,0.039307,0.545781,0.000473,  48.054
   368.6,0.061792,0.039119,0.541696,0.000513,  48.068
   368.8,0.061500,0.038911,0.537381,0.000567,  48.091
   369.0,0.061286,0.038688,0.533669,0.000620,  48.099
   369.2,0.061127,0.038482,0.530049,0.000674,  48.107
   369.4,0.060995,0.038279,0.526520,0.000727,  48.120
   369.6,0.060856,0.038084,0.524487,0.000741,  48.132
   369.8,0.060753,0.037926,0.523193,0.000741,  48.134
   370.0,0.060651,0.037796,0.522578,0.000741,  48.150
   370.2,0.060533,0.037698,0.521721,0.000701,  48.158
   370.4,0.060434,0.037596,0.521055,0.000674,  48.174
   370.6,0.060324,0.037510,0.520640,0.000620,  48.186
   370.8,0.060214,0.037446,0.520036,0.000554,  48.192
   371.0,0.060108,0.037365,0.519396,0.000527,  48.212
   371.2,0.060005,0.037292,0.518825,0.000473,  48.213
   371.4,0.059952,0.037227,0.518284,0.000420,  48.220
   371.6,0.059923,0.037154,0.517848,0.000393,  48.229
   371.8,0.059941,0.037079,0.517480,0.000342,  48.229
   372.0,0.059881,0.037017,0.517089,0.000353,  48.235
   372.2,0.059792,0.036991,0.516706,0.000340,  48.235
   372.4,0.059697,0.036981,0.516339,0.000289,  48.241
   372.6,0.059534,0.036994,0.515972,0.000300,  48.248
   372.8,0.059335,0.036983,0.515076,0.000259,  48.253
   373.0,0.059098,0.036965,0.513952,0.000246,  48.253
   373.2,0.058801,0.036947,0.512490,0.000233,  48.261
   373.4,0.058469,0.036906,0.510781,0.000206,  48.267
   373.6,0.058084,0.036841,0.508726,0.000259,  48.270
   373.8,0.057714,0.036769,0.506329,0.000326,  48.265
   374.0,0.057323,0.036676,0.503566,0.000433,  48.254
   374.2,0.056918,0.036526,0.500424,0.000513,  48.250
   374.4,0.056654,0.036342,0.496953,0.000529,  48.252
   374.6,0.056461,0.036123,0.492957,0.000570,  48.260
   374.8,0.056320,0.035887,0.488444,0.000610,  48.259
   375.0,0.056260,0.035634,0.483437,0.000636,  48.265
   375.2,0.056120,0.035363,0.480184,0.000674,  48.267
   375.4,0.055975,0.035174,0.477557,0.000701,  48.273
   375.6,0.055860,0.035027,0.475443,0.000727,  48.285
   375.8,0.055727,0.034919,0.474037,0.000741,  48.288
   376.0,0.055589,0.034800,0.473224,0.000754,  48.303
   376.2,0.055467,0.034705,0.473053,0.000768,  48.312
   376.4,0.055341,0.034628,0.472504,0.000741,  48.335
   376.6,0.055210,0.034529,0.472118,0.000714,  48.343
   376.8,0.055099,0.034442,0.471732,0.000674,  48.354
   377.0,0.055025,0.034355,0.471123,0.000607,  48.367
   377.2,0.054965,0.034262,0.470476,0.000554,  48.374
   377.4,0.054941,0.034175,0.469669,0.000513,  48.385
   377.6,0.054864,0.034082,0.468780,0.000473,  48.395
   377.8,0.054769,0.034027,0.467862,0.000420,  48.397
   378.0,0.054678,0.033994,0.466741,0.000380,  48.405
   378.2,0.054559,0.033978,0.466268,0.000353,  48.409
   378.4,0.054419,0.033970,0.465949,0.000340,  48.411
   378.6,0.054276,0.033983,0.465880,0.000275,  48.414
   378.8,0.054143,0.034014,0.465203,0.000326,  48.417
   379.0,0.053999,0.033936,0.464377,0.000326,  48.421
   379.2,0.053863,0.033826,0.463408,0.000316,  48.424
   379.4,0.053675,0.033677,0.462186,0.000393,  48.427
   379.6,0.053454,0.033576,0.460747,0.000447,  48.426
   379.8,0.053221,0.033486,0.459035,0.000447,  48.438
   380.0,0.052945,0.033406,0.457105,0.000393,  48.450
   380.2,0.052634,0.033313,0.455051,0.000326,  48.448
   380.4,0.052304,0.033228,0.452739,0.000326,  48.443
   380.6,0.051956,0.033138,0.450302,0.000326,  48.452
   380.8,0.051573,0.033054,0.447315,0.000340,  48.458
   381.0,0.051180,0.032903,0.444053,0.000393,  48.463
   381.2,0.050857,0.032726,0.440378,0.000433,  48.475
   381.4,0.050552,0.032521,0.436458,0.000487,  48.486
   381.6,0.050285,0.032308,0.432302,0.000564,  48.496
   381.8,0.050084,0.032085,0.427818,0.000604,  48.499
   382.0,0.049935,0.031842,0.424231,0.000631,  48.511
   382.2,0.049835,0.031624,0.420850,0.000695,  48.522
   382.4,0.049790,0.031417,0.417764,0.000709,  48.527
   382.6,0.049680,0.031223,0.415973,0.000698,  48.541
   382.8,0.049576,0.031070,0.414804,0.000674,  48.547
   383.0,0.049475,0.030939,0.414386,0.000647,  48.554
   383.2,0.049382,0.030848,0.413709,0.000607,  48.561
   383.4,0.049292,0.030756,0.413284,0.000529,  48.573
   383.6,0.049206,0.030671,0.413063,0.000489,  48.599
   383.8,0.049105,0.030614,0.412678,0.000473,  48.599
   384.0,0.049002,0.030545,0.412380,0.000420,  48.607
   384.2,0.048891,0.030486,0.412176,0.000380,  48.609
   384.4,0.048818,0.030428,0.411784,0.000353,  48.612
   384.6,0.048756,0.030356,0.411346,0.000326,  48.620
   384.8,0.048704,0.030297,0.410860,0.000300,  48.624
   385.0,0.048625,0.030228,0.410391,0.000259,  48.626
   385.2,0.048528,0.030181,0.409844,0.000246,  48.629
   385.4,0.048418,0.030151,0.409267,0.000233,  48.635
   385.6,0.048232,0.030133,0.408356,0.000206,  48.635
   385.8,0.047990,0.030106,0.407315,0.000193,  48.640
   386.0,0.047701,0.030073,0.406061,0.000142,  48.646
   386.2,0.047394,0.030045,0.404633,0.000166,  48.649
   386.4,0.047050,0.029953,0.402825,0.000153,  48.651
   386.6,0.046668,0.029831,0.400734,0.000169,  48.652
   386.8,0.046297,0.029680,0.398355,0.000259,  48.647
   387.0,0.045913,0.029509,0.395597,0.000340,  48.642
   387.2,0.045511,0.029313,0.392451,0.000444,  48.641
   387.4,0.045237,0.029094,0.388925,0.000497,  48.639
   387.6,0.045014,0.028903,0.385089,0.000538,  48.641
   387.8,0.044847,0.028718,0.380922,0.000591,  48.649
   388.0,0.044686,0.028525,0.376413,0.000631,  48.653
   388.2,0.044559,0.028345,0.373467,0.000607,  48.660
   388.4,0.044453,0.028183,0.371097,0.000583,  48.667
   388.6,0.044333,0.028030,0.369329,0.000596,  48.676
   388.8,0.044221,0.027891,0.368318,0.000634,  48.680
   389.0,0.044115,0.027776,0.367846,0.000634,  48.691
   389.2,0.044051,0.027684,0.367996,0.000634,  48.710
   389.4,0.044007,0.027616,0.367528,0.000620,  48.717
   389.6,0.043987,0.027525,0.366965,0.000594,  48.726
   389.8,0.043998,0.027442,0.366341,0.000567,  48.728
   390.0,0.043995,0.027365,0.365848,0.000513,  48.737
   390.2,0.043994,0.027317,0.365406,0.000473,  48.744
   390.4,0.044011,0.027280,0.364957,0.000447,  48.752
   390.6,0.043976,0.027273,0.364746,0.000407,  48.756
   390.8,0.043922,0.027275,0.364696,0.000380,  48.759
   391.0,0.043847,0.027283,0.364773,0.000353,  48.767
   391.2,0.043713,0.027316,0.364773,0.000326,  48.770
   391.4,0.043552,0.027336,0.364731,0.000340,  48.772
   391.6,0.043358,0.027356,0.364746,0.000366,  48.774
   391.8,0.043173,0.027382,0.364316,0.000407,  48.776
   392.0,0.042986,0.027298,0.363592,0.000447,  48.778
   392.2,0.042795,0.027171,0.362602,0.000500,  48.784
   392.4,0.042567,0.026986,0.360974,0.000527,  48.780
   392.6,0.042315,0.026860,0.358952,0.000500,  48.788
   392.8,0.042049,0.026735,0.356383,0.000447,  48.787
   393.0,0.041771,0.026617,0.354457,0.000353,  48.791
   393.2,0.041465,0.026480,0.352565,0.000326,  48.793
   393.4,0.041146,0.026335,0.350674,0.000302,  48.788
   393.6,0.040814,0.026188,0.348872,0.000353,  48.793
   393.8,0.040465,0.026019,0.345975,0.000393,  48.797
   394.0,0.040099,0.025835,0.342632,0.000382,  48.803
   394.2,0.039798,0.025641,0.338893,0.000447,  48.811
   394.4,0.039517,0.025436,0.335638,0.000487,  48.817
   394.6,0.039260,0.025222,0.332430,0.000513,  48.837
   394.8,0.039064,0.025007,0.329222,0.000540,  48.843
   395.0,0.038909,0.024833,0.326176,0.000554,  48.851
   395.2,0.038787,0.024671,0.323197,0.000567,  48.853
   395.4,0.038672,0.024538,0.320330,0.000580,  48.862
   395.6,0.038570,0.024422,0.318671,0.000594,  48.866
   395.8,0.038496,0.024296,0.317662,0.000594,  48.872
   396.0,0.038409,0.024188,0.317351,0.000567,  48.874
   396.2,0.038313,0.024082,0.316896,0.000540,  48.884
   396.4,0.038237,0.023991,0.316698,0.000513,  48.894
   396.6,0.038152,0.023926,0.316803,0.000436,  48.906
   396.8,0.038067,0.023870,0.316538,0.000332,  48.909
   397.0,0.037994,0.023802,0.316138,0.000291,  48.911
   397.2,0.037916,0.023747,0.315657,0.000251,  48.916
   397.4,0.037835,0.023697,0.315182,0.000198,  48.915
   397.6,0.037757,0.023629,0.314701,0.000171,  48.921
   397.8,0.037691,0.023566,0.314069,0.000144,  48.926
   398.0,0.037580,0.023500,0.313477,0.000155,  48.932
   398.2,0.037441,0.023449,0.312885,0.000142,  48.934
   398.4,0.037300,0.023410,0.312256,0.000128,  48.936
   398.6,0.037112,0.023372,0.311061,0.000139,  48.950
   398.8,0.036883,0.023311,0.309608,0.000126,  48.950
   399.0,0.036635,0.023257,0.307917,0.000113,  48.955
   399.2,0.036369,0.023189,0.305608,0.000086,  48.955
   399.4,0.036063,0.023086,0.302895,0.000126,  48.954
   399.6,0.035749,0.022965,0.299731,0.000179,  48.954
   399.8,0.035434,0.022830,0.297123,0.000259,  48.945
   400.0,0.035098,0.022677,0.294564,0.000313,  48.941
   400.2,0.034768,0.022502,0.292017,0.000366,  48.934
   400.4,0.034524,0.022314,0.289013,0.000393,  48.940
   400.6,0.034312,0.022116,0.285744,0.000457,  48.944
   400.8,0.034152,0.021911,0.282347,0.000484,  48.948
   401.0,0.034015,0.021688,0.278671,0.000497,  48.956
   401.2,0.033898,0.021529,0.276700,0.000524,  48.957
   401.4,0.033815,0.021396,0.275232,0.000500,  48.964
   401.6,0.033755,0.021283,0.274212,0.000551,  48.966
   401.8,0.033715,0.021180,0.273560,0.000551,  48.974
   402.0,0.033698,0.021106,0.273300,0.000527,  48.977
   402.2,0.033691,0.021047,0.273440,0.000527,  48.983
   402.4,0.033701,0.020997,0.273375,0.000513,  48.985
   402.6,0.033721,0.020962,0.273317,0.000449,  48.990
   402.8,0.033735,0.020937,0.273351,0.000409,  49.001
   403.0,0.033745,0.020940,0.273515,0.000393,  49.004
   403.2,0.033755,0.020942,0.273652,0.000366,  49.012
   403.4,0.033701,0.020957,0.273891,0.000326,  49.015
   403.6,0.033608,0.020982,0.274062,0.000300,  49.019
   403.8,0.033485,0.020997,0.274207,0.000300,  49.024
   404.0,0.033378,0.021027,0.274360,0.000313,  49.027
   404.2,0.033265,0.021057,0.274238,0.000340,  49.029
   404.4,0.033141,0.021044,0.274030,0.000380,  49.031
   404.6,0.033008,0.021024,0.273650,0.000407,  49.033
   404.8,0.032848,0.020985,0.273198,0.000433,  49.034
   405.0,0.032668,0.020884,0.272560,0.000473,  49.037
   405.2,0.032472,0.020754,0.271786,0.000513,  49.038
   405.4,0.032269,0.020590,0.270462,0.000527,  49.041
   405.6,0.032050,0.020465,0.268744,0.000487,  49.045
   405.8,0.031820,0.020350,0.266695,0.000407,  49.042
   406.0,0.031575,0.020243,0.264697,0.000273,  49.050
   406.2,0.031316,0.020118,0.262565,0.000259,  49.043
   406.4,0.031048,0.019991,0.260277,0.000273,  49.037
   406.6,0.030773,0.019864,0.257854,0.000326,  49.040
   406.8,0.030474,0.019714,0.255255,0.000353,  49.041
   407.0,0.030177,0.019563,0.252573,0.000366,  49.048
   407.2,0.029922,0.019402,0.249876,0.000393,  49.052
   407.4,0.029673,0.019227,0.247074,0.000420,  49.060
   407.6,0.029453,0.019051,0.244210,0.000433,  49.060
   407.8,0.029281,0.018862,0.241786,0.000447,  49.066
   408.0,0.029138,0.018688,0.239502,0.000460,  49.084
   408.2,0.029040,0.018520,0.237451,0.000423,  49.090
   408.4,0.028937,0.018359,0.235503,0.000473,  49.095
   408.6,0.028841,0.018235,0.234440,0.000447,  49.100
   408.8,0.028776,0.018129,0.233807,0.000396,  49.105
   409.0,0.028690,0.018051,0.233550,0.000420,  49.111
   409.2,0.028597,0.017969,0.233184,0.000431,  49.118
   409.4,0.028511,0.017911,0.232958,0.000441,  49.122
   409.6,0.028422,0.017854,0.232841,0.000401,  49.126
   409.8,0.028330,0.017802,0.232662,0.000310,  49.130
   410.0,0.028231,0.017757,0.232491,0.000284,  49.134
   410.2,0.028145,0.017720,0.232374,0.000244,  49.142
   410.4,0.028060,0.017690,0.232063,0.000217,  49.144
   410.6,0.027982,0.017635,0.231713,0.000166,  49.142
   410.8,0.027883,0.017578,0.231232,0.000139,  49.149
   411.0,0.027763,0.017516,0.230642,0.000126,  49.154
   411.2,0.027652,0.017466,0.229953,0.000075,  49.155
   411.4,0.027531,0.017428,0.229157,0.000048,  49.157
   411.6,0.027395,0.017394,0.228078,0.000059,  49.159
   411.8,0.027268,0.017337,0.226755,0.000046,  49.157
   412.0,0.027123,0.017277,0.225252,0.000019,  49.158
   412.2,0.026918,0.017212,0.223678,0.000006,  49.159
   412.4,0.026692,0.017128,0.221927,0.000032,  49.153
   412.6,0.026447,0.017024,0.220010,0.000086,  49.153
   412.8,0.026204,0.016916,0.217718,0.000139,  49.145
   413.0,0.025937,0.016795,0.215125,0.000179,  49.135
   413.2,0.025676,0.016662,0.212253,0.000233,  49.135
   413.4,0.025476,0.016517,0.209780,0.000273,  49.130
   413.6,0.025292,0.016364,0.207291,0.000300,  49.137
   413.8,0.025153,0.016199,0.204859,0.000326,  49.138
   414.0,0.025058,0.016025,0.202920,0.000353,  49.143
   414.2,0.024998,0.015891,0.201193,0.000366,  49.150
   414.4,0.024982,0.015775,0.199739,0.000393,  49.155
   414.6,0.024965,0.015688,0.198667,0.000407,  49.157
   414.8,0.024968,0.015616,0.197922,0.000420,  49.164
   415.0,0.024982,0.015564,0.197488,0.000433,  49.166
   415.2,0.024991,0.015546,0.197473,0.000407,  49.171
   415.4,0.025008,0.015536,0.197872,0.000393,  49.175
   415.6,0.025027,0.015540,0.198667,0.000353,  49.180
   415.8,0.025011,0.015575,0.198997,0.000300,  49.185
   416.0,0.024978,0.015592,0.199278,0.000286,  49.188
   416.2,0.024937,0.015614,0.199493,0.000249,  49.195
   416.4,0.024848,0.015638,0.199666,0.000286,  49.201
   416.6,0.024720,0.015648,0.199932,0.000313,  49.221
   416.8,0.024571,0.015643,0.200176,0.000302,  49.219
   417.0,0.024446,0.015636,0.200413,0.000353,  49.225
   417.2,0.024315,0.015579,0.200376,0.000366,  49.225
   417.4,0.024184,0.015493,0.200166,0.000393,  49.222
   417.6,0.024051,0.015388,0.199790,0.000433,  49.227
   417.8,0.023917,0.015307,0.199321,0.000473,  49.234
   418.0,0.023777,0.015217,0.198687,0.000473,  49.229
   418.2,0.023620,0.015138,0.197873,0.000447,  49.229
   418.4,0.023451,0.015056,0.196710,0.000420,  49.237
   418.6,0.023268,0.014980,0.195291,0.000366,  49.235
   418.8,0.023109,0.014899,0.193621,0.000235,  49.240
   419.0,0.022959,0.014819,0.191945,0.000102,  49.238
   419.2,0.022809,0.014725,0.190134,0.000088,  49.233
   419.4,0.022669,0.014627,0.188241,0.000102,  49.227
   419.6,0.022464,0.014526,0.186333,0.000179,  49.230
   419.8,0.022243,0.014416,0.184302,0.000206,  49.235
   420.0,0.022000,0.014291,0.182190,0.000233,  49.238
   420.2,0.021792,0.014166,0.180068,0.000273,  49.238
   420.4,0.021587,0.014033,0.177870,0.000300,  49.244
   420.6,0.021400,0.013900,0.175574,0.000326,  49.247
   420.8,0.021258,0.013759,0.173577,0.000340,  49.245
   421.0,0.021137,0.013619,0.171698,0.000366,  49.247
   421.2,0.021057,0.013484,0.169873,0.000366,  49.250
   421.4,0.020969,0.013347,0.168770,0.000366,  49.254
   421.6,0.020884,0.013246,0.168018,0.000404,  49.255
   421.8,0.020820,0.013162,0.167639,0.000404,  49.260
   422.0,0.020749,0.013093,0.167256,0.000377,  49.263
   422.2,0.020673,0.013029,0.167080,0.000350,  49.268
   422.4,0.020616,0.012975,0.167091,0.000310,  49.273
   422.6,0.020542,0.012926,0.166842,0.000219,  49.281
   422.8,0.020457,0.012874,0.166609,0.000193,  49.285
   423.0,0.020383,0.012824,0.166365,0.000153,  49.290
   423.2,0.020315,0.012772,0.166125,0.000150,  49.296
   423.4,0.020246,0.012717,0.165903,0.000123,  49.297
   423.6,0.020195,0.012669,0.165628,0.000072,  49.301
   423.8,0.020118,0.012608,0.165399,0.000046,  49.305
   424.0,0.020026,0.012573,0.164294,0.000046,  49.307
   424.2,0.019943,0.012555,0.162867,-0.000005,  49.307
   424.4,0.019830,0.012546,0.161071,0.000019,  49.309
   424.6,0.019693,0.012516,0.160219,-0.000021,  49.299
   424.8,0.019556,0.012484,0.159676,-0.000021,  49.304
   425.0,0.019407,0.012451,0.159396,-0.000048,  49.301
   425.2,0.019235,0.012418,0.158333,-0.000061,  49.300
   425.4,0.019062,0.012356,0.157016,-0.000021,  49.300
   425.6,0.018881,0.012288,0.155491,0.000019,  49.299
   425.8,0.018680,0.012208,0.154099,0.000072,  49.295
   426.0,0.018481,0.012118,0.152643,0.000126,  49.286
   426.2,0.018337,0.012020,0.151123,0.000166,  49.280
   426.4,0.018207,0.011920,0.149007,0.000206,  49.284
   426.6,0.018114,0.011810,0.146532,0.000246,  49.280
   426.8,0.018040,0.011690,0.143728,0.000259,  49.286
   427.0,0.017988,0.011573,0.142176,0.000273,  49.286
   427.2,0.017969,0.011470,0.141087,0.000300,  49.286
   427.4,0.017979,0.011359,0.140431,0.000313,  49.287
   427.6,0.017989,0.011261,0.139727,0.000326,  49.284
   427.8,0.018001,0.011215,0.139238,0.000340,  49.294
   428.0,0.018044,0.011201,0.138924,0.000340,  49.294
   428.2,0.018044,0.011219,0.138984,0.000340,  49.294
   428.4,0.018026,0.011235,0.139380,0.000340,  49.296
   428.6,0.018011,0.011254,0.140004,0.000300,  49.297
   428.8,0.017953,0.011286,0.140425,0.000246,  49.302
   429.0,0.017870,0.011308,0.140873,0.000259,  49.308
   429.2,0.017768,0.011319,0.141338,0.000273,  49.314
   429.4,0.017671,0.011323,0.141568,0.000300,  49.320
   429.6,0.017565,0.011286,0.141661,0.000326,  49.323
   429.8,0.017456,0.011230,0.141653,0.000353,  49.331
   430.0,0.017369,0.011152,0.141577,0.000393,  49.346
   430.2,0.017286,0.011074,0.141426,0.000407,  49.344
   430.4,0.017212,0.010989,0.141181,0.000369,  49.351
   430.6,0.017128,0.010891,0.140851,0.000407,  49.350
   430.8,0.017038,0.010813,0.140491,0.000366,  49.351
   431.0,0.016945,0.010745,0.140030,0.000289,  49.354
   431.2,0.016847,0.010677,0.139494,0.000273,  49.353
   431.4,0.016731,0.010624,0.138608,0.000193,  49.355
   431.6,0.016603,0.010578,0.137465,0.000126,  49.358
   431.8,0.016479,0.010534,0.136109,0.000059,  49.356
   432.0,0.016338,0.010488,0.134831,-0.000021,  49.358
   432.2,0.016180,0.010444,0.133481,-0.000008,  49.347
   432.4,0.016023,0.010395,0.132012,0.000019,  49.336
   432.6,0.015853,0.010351,0.130632,0.000086,  49.333
   432.8,0.015677,0.010275,0.129265,0.000139,  49.334
   433.0,0.015543,0.010200,0.127836,0.000166,  49.336
   433.2,0.015414,0.010107,0.126027,0.000193,  49.335
   433.4,0.015308,0.010015,0.123974,0.000233,  49.337
   433.6,0.015223,0.009917,0.121697,0.000222,  49.339
   433.8,0.015123,0.009810,0.120173,0.000222,  49.338
   434.0,0.015033,0.009710,0.118869,0.000249,  49.346
   434.2,0.014953,0.009606,0.117770,0.000238,  49.346
   434.4,0.014876,0.009501,0.117126,0.000275,  49.347
   434.6,0.014812,0.009426,0.116776,0.000289,  49.348
   434.8,0.014762,0.009356,0.116737,0.000251,  49.353
   435.0,0.014701,0.009303,0.116602,0.000275,  49.359
   435.2,0.014640,0.009249,0.116539,0.000262,  49.366
   435.4,0.014583,0.009196,0.116571,0.000171,  49.371
   435.6,0.014522,0.009156,0.116468,0.000142,  49.383
   435.8,0.014458,0.009107,0.116333,0.000115,  49.390
   436.0,0.014391,0.009058,0.116206,0.000062,  49.396
   436.2,0.014343,0.009024,0.116024,0.000059,  49.406
   436.4,0.014305,0.008983,0.115850,0.000032,  49.415
   436.6,0.014270,0.008936,0.115635,0.000006,  49.413
   436.8,0.014230,0.008905,0.115303,-0.000008,  49.415
   437.0,0.014172,0.008883,0.114890,-0.000021,  49.413
   437.2,0.014108,0.008860,0.114360,-0.000048,  49.410
   437.4,0.014039,0.008851,0.113696,-0.000061,  49.406
   437.6,0.013953,0.008829,0.112899,-0.000074,  49.404
   437.8,0.013847,0.008802,0.112002,-0.000125,  49.403
   438.0,0.013745,0.008771,0.110973,-0.000101,  49.400
   438.2,0.013634,0.008734,0.110096,-0.000128,  49.403
   438.4,0.013512,0.008690,0.109173,-0.000139,  49.404
   438.6,0.013378,0.008642,0.108214,-0.000061,  49.401
   438.8,0.013241,0.008584,0.107085,0.000006,  49.394
   439.0,0.013094,0.008516,0.105843,0.000059,  49.381
   439.2,0.012969,0.008443,0.104481,0.000113,  49.380
   439.4,0.012858,0.008380,0.103162,0.000139,  49.380
   439.6,0.012757,0.008312,0.101793,0.000166,  49.382
   439.8,0.012722,0.008257,0.100329,0.000206,  49.381
   440.0,0.012722,0.008196,0.099099,0.000233,  49.382
   440.2,0.012757,0.008118,0.097971,0.000246,  49.383
   440.4,0.012765,0.008029,0.096900,0.000235,  49.388
   440.6,0.012760,0.007934,0.096437,0.000249,  49.390
   440.8,0.012768,0.007905,0.096338,0.000262,  49.391
   441.0,0.012765,0.007904,0.096565,0.000262,  49.397
   441.2,0.012713,0.007941,0.096769,0.000259,  49.395
   441.4,0.012649,0.007961,0.097088,0.000246,  49.402
   441.6,0.012563,0.007984,0.097566,0.000246,  49.403
   441.8,0.012483,0.008018,0.097779,0.000219,  49.410
   442.0,0.012403,0.008002,0.097923,0.000246,  49.413
   442.2,0.012322,0.007964,0.097961,0.000259,  49.420
   442.4,0.012249,0.007897,0.097794,0.000300,  49.426
   442.6,0.012173,0.007839,0.097513,0.000326,  49.434
   442.8,0.012097,0.007763,0.097043,0.000313,  49.439
   443.0,0.012049,0.007677,0.096853,0.000300,  49.443
   443.2,0.012011,0.007611,0.096739,0.000273,  49.443
   443.4,0.011989,0.007548,0.096677,0.000206,  49.441
   443.6,0.011951,0.007493,0.096456,0.000126,  49.445
   443.8,0.011906,0.007449,0.096153,0.000072,  49.459
   444.0,0.011859,0.007413,0.095827,0.000019,  49.460
   444.2,0.011798,0.007389,0.095319,-0.000034,  49.463
   444.4,0.011728,0.007365,0.094737,-0.000088,  49.467
   444.6,0.011646,0.007348,0.094035,-0.000152,  49.464
   444.8,0.011560,0.007344,0.093244,-0.000141,  49.466
   445.0,0.011459,0.007317,0.092342,-0.000168,  49.467
   445.2,0.011354,0.007281,0.091359,-0.000165,  49.454
   445.4,0.011247,0.007242,0.090280,-0.000074,  49.444
   445.6,0.011126,0.007196,0.089205,0.000006,  49.434
   445.8,0.011000,0.007140,0.088087,0.000059,  49.431
   446.0,0.010892,0.007082,0.086883,0.000113,  49.432
   446.2,0.010791,0.007028,0.085742,0.000139,  49.435
   446.4,0.010689,0.006974,0.084603,0.000166,  49.437
   446.6,0.010613,0.006923,0.083437,0.000206,  49.434
   446.8,0.010550,0.006877,0.082459,0.000233,  49.436
   447.0,0.010500,0.006811,0.081586,0.000246,  49.440
   447.2,0.010446,0.006739,0.080780,0.000259,  49.437
   447.4,0.010398,0.006654,0.080386,0.000273,  49.447
   447.6,0.010354,0.006595,0.080218,0.000310,  49.460
   447.8,0.010310,0.006551,0.080307,0.000297,  49.466
   448.0,0.010262,0.006523,0.080183,0.000270,  49.466
   448.2,0.010216,0.006477,0.080074,0.000281,  49.472
   448.4,0.010162,0.006434,0.079950,0.000254,  49.483
   448.6,0.010119,0.006397,0.079898,0.000177,  49.492
   448.8,0.010069,0.006358,0.079869,0.000150,  49.496
   449.0,0.010004,0.006320,0.079845,0.000123,  49.502
   449.2,0.009976,0.006286,0.079684,0.000070,  49.507
   449.4,0.009954,0.006250,0.079465,0.000043,  49.502
   449.6,0.009944,0.006208,0.079196,0.000016,  49.505
   449.8,0.009922,0.006167,0.078948,-0.000010,  49.506
   450.0,0.009894,0.006142,0.078678,-0.000024,  49.504
   450.2,0.009865,0.006133,0.078430,-0.000050,  49.506
   450.4,0.009824,0.006130,0.077942,-0.000077,  49.502
   450.6,0.009777,0.006115,0.077310,-0.000128,  49.505
   450.8,0.009720,0.006113,0.076570,-0.000141,  49.503
   451.0,0.009657,0.006108,0.075918,-0.000168,  49.502
   451.2,0.009581,0.006089,0.075297,-0.000155,  49.509
   451.4,0.009493,0.006065,0.074633,-0.000152,  49.507
   451.6,0.009408,0.006037,0.073957,-0.000088,  49.506
   451.8,0.009313,0.005997,0.073072,-0.000034,  49.496
   452.0,0.009212,0.005959,0.072097,-0.000032,  49.479
   452.2,0.009130,0.005911,0.071030,0.000059,  49.474
   452.4,0.009051,0.005859,0.070207,0.000113,  49.473
   452.6,0.008979,0.005812,0.069392,0.000153,  49.473
   452.8,0.008947,0.005756,0.068663,0.000179,  49.475
   453.0,0.008932,0.005706,0.067938,0.000206,  49.473
   453.2,0.008938,0.005655,0.067179,0.000233,  49.473
   453.4,0.008897,0.005604,0.066459,0.000233,  49.471
   453.6,0.008840,0.005554,0.066231,0.000219,  49.478
   453.8,0.008765,0.005544,0.066279,0.000219,  49.481
   454.0,0.008711,0.005554,0.066582,0.000206,  49.480
   454.2,0.008660,0.005576,0.066574,0.000166,  49.485
   454.4,0.008609,0.005554,0.066532,0.000166,  49.488
   454.6,0.008573,0.005513,0.066497,0.000166,  49.494
   454.8,0.008522,0.005465,0.066454,0.000153,  49.501
   455.0,0.008466,0.005415,0.066391,0.000153,  49.510
   455.2,0.008412,0.005359,0.066284,0.000153,  49.521
   455.4,0.008365,0.005300,0.066165,0.000153,  49.527
   455.6,0.008314,0.005251,0.066016,0.000126,  49.529
   455.8,0.008275,0.005208,0.065825,0.000086,  49.532
   456.0,0.008252,0.005168,0.065608,0.000032,  49.534
   456.2,0.008252,0.005124,0.065361,-0.000008,  49.539
   456.4,0.008268,0.005091,0.065101,-0.000048,  49.537
   456.6,0.008255,0.005056,0.064916,-0.000088,  49.542
   456.8,0.008248,0.005031,0.064753,-0.000115,  49.540
   457.0,0.008233,0.005033,0.064610,-0.000155,  49.541
   457.2,0.008204,0.005038,0.064111,-0.000181,  49.539
   457.4,0.008170,0.005040,0.063437,-0.000208,  49.542
   457.6,0.008119,0.005048,0.062549,-0.000248,  49.543
   457.8,0.008059,0.005059,0.061947,-0.000288,  49.543
   458.0,0.007996,0.005054,0.061388,-0.000275,  49.547
   458.2,0.007923,0.005039,0.060889,-0.000272,  49.529
   458.4,0.007850,0.005022,0.060428,-0.000168,  49.512
   458.6,0.007781,0.005000,0.059717,-0.000074,  49.514
   458.8,0.007716,0.004963,0.058894,-0.000045,  49.512
   459.0,0.007650,0.004933,0.058032,0.000032,  49.515
   459.2,0.007581,0.004899,0.057233,0.000072,  49.512
   459.4,0.007508,0.004855,0.056436,0.000113,  49.520
   459.6,0.007443,0.004817,0.055640,0.000153,  49.522
   459.8,0.007383,0.004781,0.055094,0.000166,  49.527
   460.0,0.007320,0.004737,0.054659,0.000193,  49.531
   460.2,0.007264,0.004707,0.054349,0.000206,  49.529
   460.4,0.007213,0.004668,0.053738,0.000206,  49.541
   460.6,0.007166,0.004627,0.053052,0.000219,  49.543
   460.8,0.007122,0.004584,0.052274,0.000193,  49.541
   461.0,0.007085,0.004541,0.052274,0.000179,  49.544
   461.2,0.007053,0.004501,0.052589,0.000166,  49.553
   461.4,0.007022,0.004465,0.053242,0.000126,  49.559
   461.6,0.006984,0.004436,0.053334,0.000086,  49.567
   461.8,0.006948,0.004395,0.053319,0.000059,  49.570
   462.0,0.006907,0.004355,0.053182,0.000019,  49.575
   462.2,0.006899,0.004315,0.053092,-0.000008,  49.576
   462.4,0.006893,0.004282,0.053010,-0.000034,  49.578
   462.6,0.006899,0.004249,0.052886,-0.000074,  49.577
   462.8,0.006888,0.004221,0.052593,-0.000115,  49.579
   463.0,0.006885,0.004210,0.052180,-0.000128,  49.595
   463.2,0.006889,0.004200,0.051631,-0.000155,  49.597
   463.4,0.006866,0.004196,0.051246,-0.000181,  49.598
   463.6,0.006838,0.004192,0.050903,-0.000157,  49.597
   463.8,0.006805,0.004202,0.050557,-0.000170,  49.597
   464.0,0.006756,0.004212,0.050084,-0.000170,  49.595
   464.2,0.006703,0.004209,0.049577,-0.000106,  49.601
   464.4,0.006648,0.004200,0.048990,-0.000053,  49.600
   464.6,0.006581,0.004192,0.048526,-0.000037,  49.598
   464.8,0.006521,0.004170,0.048144,0.000003,  49.589
   465.0,0.006452,0.004138,0.047750,0.000006,  49.568
   465.2,0.006384,0.004115,0.047416,0.000032,  49.551
   465.4,0.006311,0.004078,0.046995,0.000059,  49.551
   465.6,0.006233,0.004042,0.046553,0.000062,  49.550
   465.8,0.006174,0.004006,0.046111,0.000126,  49.551
   466.0,0.006114,0.003955,0.045617,0.000139,  49.560
   466.2,0.006068,0.003902,0.045139,0.000153,  49.559
   466.4,0.006014,0.003842,0.044617,0.000153,  49.560
   466.6,0.005967,0.003802,0.044334,0.000126,  49.564
   466.8,0.005926,0.003765,0.044133,0.000113,  49.565
   467.0,0.005889,0.003738,0.044052,0.000099,  49.569
   467.2,0.005848,0.003717,0.043931,0.000072,  49.570
   467.4,0.005814,0.003678,0.043818,0.000046,  49.575
   467.6,0.005786,0.003646,0.043725,0.000019,  49.586
   467.8,0.005751,0.003609,0.043672,-0.000021,  49.606
   468.0,0.005723,0.003573,0.043591,-0.000034,  49.615
   468.2,0.005692,0.003546,0.043511,-0.000074,  49.623
   468.4,0.005671,0.003521,0.043503,-0.000115,  49.637
   468.6,0.005647,0.003495,0.043500,-0.000128,  49.642
   468.8,0.005641,0.003469,0.043501,-0.000141,  49.645
   469.0,0.005640,0.003450,0.043348,-0.000168,  49.648
   469.2,0.005669,0.003426,0.043130,-0.000181,  49.650
   469.4,0.005693,0.003399,0.042834,-0.000195,  49.653
   469.6,0.005705,0.003385,0.042568,-0.000208,  49.654
   469.8,0.005727,0.003383,0.042278,-0.000221,  49.651
   470.0,0.005742,0.003380,0.041928,-0.000235,  49.653
   470.2,0.005735,0.003397,0.041643,-0.000248,  49.652
   470.4,0.005722,0.003417,0.041379,-0.000275,  49.659
   470.6,0.005697,0.003444,0.041092,-0.000301,  49.663
   470.8,0.005665,0.003483,0.040709,-0.000328,  49.654
   471.0,0.005637,0.003498,0.040285,-0.000275,  49.660
   471.2,0.005599,0.003497,0.039790,-0.000208,  49.646
   471.4,0.005557,0.003500,0.039219,-0.000115,  49.634
   471.6,0.005520,0.003497,0.038584,-0.000061,  49.637
   471.8,0.005486,0.003480,0.037859,0.000006,  49.637
   472.0,0.005432,0.003460,0.037370,0.000046,  49.644
   472.2,0.005373,0.003446,0.036961,0.000086,  49.647
   472.4,0.005315,0.003429,0.036636,0.000075,  49.651
   472.6,0.005257,0.003408,0.036398,0.000139,  49.660
   472.8,0.005204,0.003374,0.036160,0.000139,  49.663
   473.0,0.005161,0.003336,0.035934,0.000128,  49.665
   473.2,0.005104,0.003294,0.035768,0.000179,  49.667
   473.4,0.005051,0.003263,0.035713,0.000206,  49.671
   473.6,0.005005,0.003223,0.035737,0.000206,  49.672
   473.8,0.004957,0.003194,0.035856,0.000179,  49.675
   474.0,0.004917,0.003157,0.035868,0.000153,  49.673
   474.2,0.004890,0.003126,0.035848,0.000126,  49.672
   474.4,0.004851,0.003087,0.035816,0.000086,  49.680
   474.6,0.004817,0.003057,0.035769,0.000032,  49.683
   474.8,0.004790,0.003023,0.035729,0.000006,  49.691
   475.0,0.004774,0.002990,0.035658,-0.000034,  49.698
   475.2,0.004764,0.002962,0.035412,-0.000061,  49.699
   475.4,0.004777,0.002935,0.035091,-0.000088,  49.701
   475.6,0.004790,0.002904,0.034663,-0.000152,  49.705
   475.8,0.004796,0.002880,0.034545,-0.000179,  49.709
   476.0,0.004806,0.002868,0.034514,-0.000192,  49.709
   476.2,0.004815,0.002857,0.034593,-0.000243,  49.710
   476.4,0.004798,0.002865,0.034412,-0.000232,  49.715
   476.6,0.004779,0.002874,0.034136,-0.000232,  49.726
   476.8,0.004762,0.002888,0.033758,-0.000283,  49.727
   477.0,0.004726,0.002911,0.033357,-0.000272,  49.732
   477.2,0.004692,0.002915,0.032904,-0.000246,  49.730
   477.4,0.004653,0.002918,0.032358,-0.000230,  49.736
   477.6,0.004605,0.002916,0.032016,-0.000125,  49.733
   477.8,0.004567,0.002899,0.031718,-0.000085,  49.725
   478.0,0.004523,0.002878,0.031480,-0.000045,  49.715
   478.2,0.004483,0.002853,0.031107,0.000019,  49.718
   478.4,0.004439,0.002825,0.030638,0.000032,  49.723
   478.6,0.004396,0.002805,0.030129,0.000022,  49.726
   478.8,0.004341,0.002778,0.029817,0.000008,  49.729
   479.0,0.004288,0.002749,0.029583,0.000008,  49.732
   479.2,0.004232,0.002730,0.029399,-0.000029,  49.734
   479.4,0.004181,0.002704,0.029310,-0.000005,  49.738
   479.6,0.004138,0.002665,0.029048,-0.000019,  49.746
   479.8,0.004108,0.002629,0.028776,-0.000019,  49.749
   480.0,0.004081,0.002580,0.028472,-0.000056,  49.754
   480.2,0.004050,0.002539,0.028347,-0.000019,  49.755
   480.4,0.004018,0.002511,0.028281,-0.000056,  49.755
   480.6,0.003998,0.002478,0.028281,-0.000069,  49.764
   480.8,0.003970,0.002450,0.028203,-0.000059,  49.766
   481.0,0.003937,0.002429,0.028122,-0.000072,  49.770
   481.2,0.003912,0.002413,0.028036,-0.000136,  49.778
   481.4,0.003891,0.002402,0.027935,-0.000139,  49.783
   481.6,0.003866,0.002381,0.027834,-0.000152,  49.786
   481.8,0.003863,0.002359,0.027725,-0.000203,  49.788
   482.0,0.003868,0.002340,0.027830,-0.000192,  49.789
   482.2,0.003897,0.002323,0.028040,-0.000205,  49.793
   482.4,0.003935,0.002303,0.028332,-0.000232,  49.794
   482.6,0.003960,0.002289,0.028328,-0.000221,  49.797
   482.8,0.003985,0.002294,0.028192,-0.000235,  49.795
   483.0,0.004010,0.002298,0.027931,-0.000235,  49.792
   483.2,0.004015,0.002312,0.027628,-0.000261,  49.800
   483.4,0.004015,0.002336,0.027255,-0.000275,  49.800
   483.6,0.004016,0.002365,0.026766,-0.000301,  49.799
   483.8,0.004006,0.002401,0.026216,-0.000328,  49.804
   484.0,0.003993,0.002415,0.025624,-0.000288,  49.802
   484.2,0.003981,0.002434,0.024937,-0.000221,  49.800
   484.4,0.003962,0.002441,0.024532,-0.000128,  49.796
   484.6,0.003937,0.002442,0.024273,-0.000074,  49.792
   484.8,0.003909,0.002445,0.024107,-0.000021,  49.798
   485.0,0.003872,0.002440,0.023830,0.000032,  49.801
   485.2,0.003825,0.002430,0.023541,0.000086,  49.801
   485.4,0.003772,0.002426,0.023210,0.000113,  49.808
   485.6,0.003726,0.002417,0.023010,0.000126,  49.809
   485.8,0.003679,0.002390,0.022860,0.000139,  49.811
   486.0,0.003629,0.002355,0.022756,0.000166,  49.812
   486.2,0.003586,0.002315,0.022668,0.000166,  49.812
   486.4,0.003542,0.002279,0.022649,0.000166,  49.814
   486.6,0.003505,0.002237,0.022615,0.000128,  49.816
   486.8,0.003470,0.002204,0.022650,0.000153,  49.814
   487.0,0.003436,0.002171,0.022699,0.000139,  49.814
   487.2,0.003402,0.002134,0.022749,0.000075,  49.822
   487.4,0.003374,0.002106,0.022818,0.000072,  49.824
   487.6,0.003340,0.002075,0.022891,0.000032,  49.831
   487.8,0.003309,0.002047,0.022952,-0.000008,  49.831
   488.0,0.003302,0.002027,0.023017,-0.000034,  49.833
   488.2,0.003299,0.002003,0.023052,-0.000074,  49.839
   488.4,0.003309,0.001978,0.023025,-0.000101,  49.838
   488.6,0.003315,0.001964,0.022978,-0.000115,  49.844
   488.8,0.003321,0.001950,0.022921,-0.000141,  49.855
   489.0,0.003338,0.001933,0.022813,-0.000155,  49.857
   489.2,0.003335,0.001921,0.022683,-0.000168,  49.860
   489.4,0.003321,0.001913,0.022330,-0.000195,  49.865
   489.6,0.003316,0.001929,0.021820,-0.000208,  49.867
   489.8,0.003297,0.001948,0.021174,-0.000221,  49.867
   490.0,0.003279,0.001975,0.020880,-0.000248,  49.869
   490.2,0.003257,0.001986,0.020684,-0.000235,  49.873
   490.4,0.003232,0.001986,0.020588,-0.000195,  49.863
   490.6,0.003218,0.001973,0.020351,-0.000128,  49.863
   490.8,0.003212,0.001966,0.020083,-0.000088,  49.861
   491.0,0.003220,0.001954,0.019821,-0.000074,  49.849
   491.2,0.003200,0.001943,0.019622,-0.000061,  49.849
   491.4,0.003181,0.001932,0.019416,-0.000034,  49.852
   491.6,0.003164,0.001935,0.019267,-0.000048,  49.850
   491.8,0.003119,0.001946,0.018981,-0.000061,  49.850
   492.0,0.003075,0.001941,0.018600,-0.000048,  49.852
   492.2,0.003027,0.001941,0.018163,-0.000061,  49.860
   492.4,0.002979,0.001939,0.017867,-0.000061,  49.859
   492.6,0.002952,0.001914,0.017598,-0.000034,  49.859
   492.8,0.002925,0.001885,0.017363,0.000006,  49.860
   493.0,0.002884,0.001845,0.016759,0.000046,  49.864
   493.2,0.002860,0.001807,0.015994,0.000046,  49.868
   493.4,0.002832,0.001778,0.015077,0.000008,  49.874
   493.6,0.002797,0.001746,0.013964,0.000032,  49.876
   493.8,0.002779,0.001717,0.014129,-0.000008,  49.882
   494.0,0.002758,0.001691,0.014676,-0.000059,  49.888
   494.2,0.002725,0.001670,0.015614,-0.000048,  49.893
   494.4,0.002708,0.001646,0.015997,-0.000088,  49.900
   494.6,0.002677,0.001624,0.016291,-0.000101,  49.901
   494.8,0.002679,0.001606,0.016468,-0.000128,  49.905
   495.0,0.002710,0.001587,0.016656,-0.000155,  49.910
   495.2,0.002753,0.001565,0.016814,-0.000168,  49.909
   495.4,0.002777,0.001553,0.016894,-0.000195,  49.910
   495.6,0.002819,0.001541,0.016938,-0.000208,  49.912
   495.8,0.002857,0.001546,0.016961,-0.000221,  49.917
   496.0,0.002875,0.001559,0.016915,-0.000272,  49.913
   496.2,0.002898,0.001573,0.016732,-0.000286,  49.917
   496.4,0.002907,0.001602,0.016489,-0.000312,  49.918
   496.6,0.002913,0.001635,0.016133,-0.000376,  49.921
   496.8,0.002920,0.001678,0.015887,-0.000366,  49.921
   497.0,0.002922,0.001707,0.015638,-0.000326,  49.920
   497.2,0.002924,0.001729,0.015378,-0.000296,  49.914
   497.4,0.002904,0.001748,0.015200,-0.000165,  49.903
   497.6,0.002881,0.001763,0.015034,-0.000112,  49.900
   497.8,0.002858,0.001767,0.014916,-0.000109,  49.899
   498.0,0.002820,0.001771,0.014731,-0.000032,  49.904
   498.2,0.002779,0.001773,0.014497,0.000008,  49.903
   498.4,0.002737,0.001768,0.014252,0.000011,  49.907
   498.6,0.002692,0.001770,0.014052,0.000075,  49.910
   498.8,0.002652,0.001748,0.013861,0.000088,  49.911
   499.0,0.002619,0.001714,0.013696,0.000078,  49.908
   499.2,0.002574,0.001673,0.013629,0.000128,  49.900
   499.4,0.002540,0.001642,0.013636,0.000142,  49.904
   499.6,0.002514,0.001611,0.013727,0.000104,  49.904
   499.8,0.002472,0.001586,0.013765,0.000102,  49.904
   500.0,0.002438,0.001560,0.013791,0.000075,  49.906
   500.2,0.002411,0.001522,0.013837,0.000048,  49.915
   500.4,0.002382,0.001485,0.013856,0.000019,  49.918
   500.6,0.002363,0.001453,0.013904,-0.000021,  49.926
   500.8,0.002358,0.001417,0.013923,-0.000034,  49.938
   501.0,0.002338,0.001399,0.013953,-0.000061,  49.942
   501.2,0.002326,0.001375,0.013975,-0.000088,  49.946
   501.4,0.002321,0.001354,0.014005,-0.000139,  49.944
   501.6,0.002314,0.001339,0.014027,-0.000165,  49.950
   501.8,0.002314,0.001321,0.013727,-0.000192,  49.948
   502.0,0.002317,0.001297,0.013297,-0.000205,  49.950
   502.2,0.002312,0.001271,0.012738,-0.000270,  49.952
   502.4,0.002317,0.001260,0.012588,-0.000246,  49.956
   502.6,0.002317,0.001262,0.012557,-0.000246,  49.955
   502.8,0.002319,0.001273,0.012656,-0.000283,  49.950
   503.0,0.002338,0.001292,0.012304,-0.000246,  49.958
   503.2,0.002365,0.001293,0.011796,-0.000232,  49.956
   503.4,0.002374,0.001300,0.011096,-0.000256,  49.962
   503.6,0.002389,0.001311,0.011006,-0.000192,  49.953
   503.8,0.002396,0.001320,0.011101,-0.000165,  49.941
   504.0,0.002405,0.001336,0.011424,-0.000203,  49.931
   504.2,0.002402,0.001353,0.011355,-0.000190,  49.928
   504.4,0.002386,0.001369,0.011156,-0.000176,  49.929
   504.6,0.002368,0.001391,0.010849,-0.000176,  49.933
   504.8,0.002326,0.001410,0.010647,-0.000152,  49.939
   505.0,0.002286,0.001417,0.010426,-0.000125,  49.936
   505.2,0.002237,0.001422,0.010183,-0.000123,  49.938
   505.4,0.002193,0.001422,0.010063,-0.000032,  49.944
   505.6,0.002158,0.001399,0.009970,-0.000005,  49.945
   505.8,0.002132,0.001371,0.009914,-0.000003,  49.946
   506.0,0.002096,0.001333,0.009954,0.000062,  49.945
   506.2,0.002065,0.001297,0.010051,0.000062,  49.946
   506.4,0.002045,0.001274,0.010203,0.000011,  49.952
   506.6,0.002010,0.001248,0.010244,0.000008,  49.958
   506.8,0.001979,0.001220,0.010281,-0.000005,  49.961
   507.0,0.001955,0.001200,0.010307,-0.000083,  49.973
   507.2,0.001926,0.001183,0.010315,-0.000099,  49.983
   507.4,0.001904,0.001159,0.010296,-0.000125,  50.006
   507.6,0.001893,0.001138,0.010293,-0.000139,  50.010
   507.8,0.001904,0.001108,0.010226,-0.000203,  50.011
   508.0,0.001944,0.001085,0.010160,-0.000179,  50.011
   508.2,0.002000,0.001072,0.010101,-0.000230,  50.015
   508.4,0.002027,0.001056,0.010004,-0.000256,  50.019
   508.6,0.002072,0.001056,0.009959,-0.000246,  50.017
   508.8,0.002103,0.001068,0.009906,-0.000259,  50.020
   509.0,0.002120,0.001079,0.009883,-0.000310,  50.018
   509.2,0.002140,0.001112,0.009774,-0.000299,  50.020
   509.4,0.002149,0.001138,0.009609,-0.000299,  50.030
   509.6,0.002151,0.001170,0.009415,-0.000363,  50.034
   509.8,0.002155,0.001210,0.009058,-0.000339,  50.039
   510.0,0.002157,0.001231,0.008584,-0.000286,  50.043
   510.2,0.002154,0.001253,0.008026,-0.000270,  50.039
   510.4,0.002147,0.001270,0.007792,-0.000152,  50.012
   510.6,0.002138,0.001285,0.007647,-0.000099,  49.998
   510.8,0.002129,0.001290,0.007613,-0.000083,  49.993
   511.0,0.002104,0.001292,0.007217,-0.000019,  49.999
   511.2,0.002064,0.001300,0.006698,0.000008,  49.995
   511.4,0.002017,0.001298,0.006036,-0.000003,  49.991
   511.6,0.001976,0.001285,0.005907,0.000048,  49.982
   511.8,0.001938,0.001263,0.005968,0.000075,  49.982
   512.0,0.001909,0.001239,0.006254,0.000051,  49.980
   512.2,0.001867,0.001206,0.006442,0.000115,  49.984
   512.4,0.001830,0.001179,0.006603,0.000128,  49.986
   512.6,0.001797,0.001153,0.006828,0.000078,  49.987
   512.8,0.001765,0.001130,0.007006,0.000088,  49.989
   513.0,0.001740,0.001109,0.007120,0.000062,  49.990
   513.2,0.001726,0.001083,0.007223,-0.000003,  49.999
   513.4,0.001734,0.001044,0.007290,-0.000005,  50.010
   513.6,0.001771,0.001018,0.007319,-0.000045,  50.017
   513.8,0.001831,0.000994,0.007316,-0.000085,  50.027
   514.0,0.001802,0.000968,0.006971,-0.000088,  50.035
   514.2,0.001752,0.000975,0.006445,-0.000115,  50.040
   514.4,0.001679,0.000999,0.005757,-0.000128,  50.041
   514.6,0.001647,0.001037,0.004872,-0.000141,  50.045
   514.8,0.001628,0.001049,0.005147,-0.000155,  50.044
   515.0,0.001626,0.001054,0.005788,-0.000192,  50.048
   515.2,0.001625,0.001049,0.006757,-0.000168,  50.047
   515.4,0.001641,0.001027,0.007009,-0.000168,  50.051
   515.6,0.001673,0.000992,0.007074,-0.000128,  50.050
   515.8,0.001687,0.000939,0.006950,-0.000088,  50.052
   516.0,0.001715,0.000920,0.006919,-0.000048,  50.054
   516.2,0.001750,0.000913,0.006832,-0.000048,  50.056
   516.4,0.001762,0.000913,0.006706,-0.000088,  50.061
   516.6,0.001777,0.000930,0.006340,-0.000155,  50.047
   516.8,0.001793,0.000941,0.005825,-0.000155,  50.026
   517.0,0.001788,0.000960,0.005157,-0.000181,  50.026
   517.2,0.001783,0.000988,0.004917,-0.000181,  50.028
   517.4,0.001765,0.001001,0.004831,-0.000155,  50.030
   517.6,0.001746,0.001012,0.004876,-0.000115,  50.030
   517.8,0.001721,0.001035,0.004399,-0.000074,  50.036
   518.0,0.001680,0.001045,0.003733,-0.000034,  50.037
   518.2,0.001650,0.001047,0.002895,0.000006,  50.037
   518.4,0.001622,0.001049,0.002840,0.000019,  50.039
   518.6,0.001591,0.001028,0.003032,0.000046,  50.042
   518.8,0.001565,0.001002,0.003505,0.000072,  50.043
   519.0,0.001526,0.000957,0.003702,0.000086,  50.042
   519.2,0.001495,0.000934,0.003889,0.000086,  50.044
   519.4,0.001468,0.000914,0.004047,0.000059,  50.054
   519.6,0.001436,0.000895,0.004218,0.000032,  50.057
   519.8,0.001411,0.000874,0.004397,0.000006,  50.062
   520.0,0.001390,0.000855,0.004584,-0.000021,  50.073
   520.2,0.001367,0.000828,0.004737,-0.000074,  50.085
   520.4,0.001359,0.000804,0.004861,-0.000101,  50.093
   520.6,0.001343,0.000782,0.004967,-0.000115,  50.092
   520.8,0.001354,0.000755,0.005025,-0.000141,  50.094
   521.0,0.001396,0.000736,0.005080,-0.000155,  50.097
   521.2,0.001442,0.000719,0.005088,-0.000181,  50.101
   521.4,0.001472,0.000707,0.005033,-0.000221,  50.097
   521.6,0.001520,0.000709,0.004949,-0.000248,  50.105
   521.8,0.001554,0.000723,0.004790,-0.000286,  50.103
   522.0,0.001571,0.000752,0.004593,-0.000261,  50.110
   522.2,0.001600,0.000783,0.004132,-0.000275,  50.117
   522.4,0.001617,0.000817,0.003540,-0.000326,  50.139
   522.6,0.001622,0.000857,0.002818,-0.000301,  50.143
   522.8,0.001631,0.000888,0.002682,-0.000328,  50.148
   523.0,0.001642,0.000909,0.002745,-0.000288,  50.148
   523.2,0.001635,0.000930,0.003016,-0.000221,  50.140
   523.4,0.001631,0.000944,0.003011,-0.000141,  50.116
   523.6,0.001633,0.000956,0.002940,-0.000088,  50.104
   523.8,0.001604,0.000960,0.002812,-0.000085,  50.089
   524.0,0.001569,0.000968,0.002741,-0.000045,  50.080
   524.2,0.001526,0.000978,0.002660,-0.000005,  50.074
   524.4,0.001498,0.000978,0.002534,-0.000016,  50.078
   524.6,0.001473,0.000976,0.002348,0.000035,  50.075
   524.8,0.001452,0.000959,0.002141,0.000062,  50.081
   525.0,0.001437,0.000927,0.001840,0.000075,  50.080
   525.2,0.001410,0.000897,0.001876,0.000099,  50.083
   525.4,0.001379,0.000876,0.002070,0.000113,  50.084
   525.6,0.001348,0.000849,0.002369,0.000113,  50.090
   525.8,0.001350,0.000835,0.002547,0.000099,  50.085
   526.0,0.001374,0.000814,0.002715,0.000099,  50.088
   526.2,0.001425,0.000784,0.002883,0.000072,  50.094
   526.4,0.001461,0.000766,0.003051,0.000019,  50.102
   526.6,0.001514,0.000766,0.003219,-0.000008,  50.108
   526.8,0.001583,0.000773,0.003350,-0.000021,  50.116
   527.0,0.001557,0.000798,0.003497,-0.000074,  50.130
   527.2,0.001507,0.000833,0.003634,-0.000088,  50.140
   527.4,0.001428,0.000878,0.003759,-0.000101,  50.139
   527.6,0.001381,0.000942,0.003965,-0.000115,  50.140
   527.8,0.001343,0.000985,0.004196,-0.000101,  50.142
   528.0,0.001311,0.001010,0.004464,-0.000074,  50.145
   528.2,0.001300,0.001041,0.004475,-0.000048,  50.146
   528.4,0.001315,0.000998,0.004372,-0.000008,  50.147
   528.6,0.001351,0.000915,0.004144,0.000032,  50.151
   528.8,0.001359,0.000797,0.003810,0.000086,  50.150
   529.0,0.001382,0.000767,0.003571,0.000072,  50.149
   529.2,0.001402,0.000759,0.003258,0.000022,  50.146
   529.4,0.001403,0.000779,0.002928,-0.000008,  50.150
   529.6,0.001420,0.000787,0.002653,-0.000074,  50.143
   529.8,0.001423,0.000792,0.002377,-0.000099,  50.126
   530.0,0.001410,0.000804,0.002103,-0.000061,  50.119
   530.2,0.001405,0.000808,0.001883,-0.000048,  50.116
   530.4,0.001389,0.000815,0.001671,-0.000021,  50.124
   530.6,0.001357,0.000819,0.001477,0.000006,  50.122
   530.8,0.001324,0.000821,0.001041,0.000019,  50.123
   531.0,0.001278,0.000818,0.000509,0.000046,  50.126
   531.2,0.001250,0.000821,-0.000146,0.000035,  50.121
   531.4,0.001221,0.000821,-0.000226,0.000035,  50.129
   531.6,0.001189,0.000802,-0.000093,0.000048,  50.126
   531.8,0.001173,0.000768,0.000271,0.000024,  50.128
   532.0,0.001151,0.000730,0.000383,0.000037,  50.133
   532.2,0.001124,0.000707,0.000477,0.000024,  50.133
   532.4,0.001103,0.000686,0.000584,-0.000003,  50.131
   532.6,0.001077,0.000669,0.000668,-0.000005,  50.137
   532.8,0.001055,0.000644,0.000759,-0.000032,  50.144
   533.0,0.001047,0.000627,0.000814,-0.000096,  50.150
   533.2,0.001025,0.000598,0.000785,-0.000112,  50.159
   533.4,0.001006,0.000571,0.000707,-0.000139,  50.168
   533.6,0.000998,0.000555,0.000519,-0.000165,  50.169
   533.8,0.001006,0.000540,0.000613,-0.000168,  50.166
   534.0,0.001034,0.000524,0.000801,-0.000181,  50.173
   534.2,0.001077,0.000512,0.001057,-0.000208,  50.175
   534.4,0.001104,0.000502,0.001020,-0.000235,  50.182
   534.6,0.001145,0.000508,0.000882,-0.000248,  50.183
   534.8,0.001176,0.000520,0.000639,-0.000261,  50.190
   535.0,0.001193,0.000535,0.000211,-0.000275,  50.193
   535.2,0.001219,0.000554,-0.000338,-0.000301,  50.196
   535.4,0.001242,0.000594,-0.001027,-0.000352,  50.199
   535.6,0.001250,0.000632,-0.001880,-0.000291,  50.201
   535.8,0.001260,0.000653,-0.002098,-0.000317,  50.202
   536.0,0.001273,0.000677,-0.002150,-0.000315,  50.200
   536.2,0.001272,0.000698,-0.002043,-0.000248,  50.185
   536.4,0.001272,0.000709,-0.001963,-0.000130,  50.167
   536.6,0.001273,0.000720,-0.001810,-0.000115,  50.155
   536.8,0.001247,0.000726,-0.001593,-0.000074,  50.152
   537.0,0.001216,0.000733,-0.001541,-0.000034,  50.147
   537.2,0.001177,0.000737,-0.001546,-0.000032,  50.149
   537.4,0.001145,0.000740,-0.001580,-0.000005,  50.151
   537.6,0.001120,0.000744,-0.001520,0.000046,  50.149
   537.8,0.001103,0.000721,-0.001445,0.000072,  50.150
   538.0,0.001100,0.000698,-0.001369,0.000062,  50.149
   538.2,0.001109,0.000672,-0.001221,0.000062,  50.147
   538.4,0.001132,0.000652,-0.001040,0.000062,  50.150
   538.6,0.001163,0.000635,-0.000832,0.000048,  50.149
   538.8,0.001196,0.000620,-0.000655,0.000046,  50.150
   539.0,0.001242,0.000617,-0.000452,0.000032,  50.153
   539.2,0.001298,0.000632,-0.000249,0.000006,  50.153
   539.4,0.001340,0.000652,-0.000046,-0.000048,  50.161
   539.6,0.001384,0.000689,0.000155,-0.000061,  50.167
   539.8,0.001437,0.000732,0.000345,-0.000088,  50.170
   540.0,0.001387,0.000784,0.000538,-0.000115,  50.172
   540.2,0.001288,0.000832,0.000754,-0.000101,  50.179
   540.4,0.001153,0.000878,0.000945,-0.000061,  50.182
   540.6,0.001096,0.000915,0.001167,-0.000021,  50.181
   540.8,0.001065,0.000912,0.001407,0.000019,  50.180
   541.0,0.001063,0.000882,0.001666,0.000059,  50.181
   541.2,0.001052,0.000836,0.001548,0.000099,  50.186
   541.4,0.001062,0.000776,0.001256,0.000153,  50.185
   541.6,0.001088,0.000707,0.000778,0.000179,  50.187
   541.8,0.001089,0.000633,0.000324,0.000193,  50.187
   542.0,0.001105,0.000607,-0.000213,0.000179,  50.189
   542.2,0.001122,0.000597,-0.000834,0.000088,  50.189
   542.4,0.001124,0.000616,-0.001567,0.000059,  50.192
   542.6,0.001133,0.000621,-0.001746,-0.000048,  50.180
   542.8,0.001143,0.000617,-0.001756,-0.000099,  50.168
   543.0,0.001130,0.000632,-0.001616,-0.000085,  50.166
   543.2,0.001120,0.000640,-0.001683,-0.000059,  50.167
   543.4,0.001106,0.000639,-0.001790,-0.000032,  50.159
   543.6,0.001071,0.000649,-0.001909,-0.000056,  50.162
   543.8,0.001034,0.000651,-0.001997,-0.000005,  50.164
   544.0,0.000995,0.000643,-0.002067,0.000022,  50.162
   544.2,0.000960,0.000648,-0.002140,0.000035,  50.160
   544.4,0.000932,0.000638,-0.002137,0.000072,  50.162
   544.6,0.000914,0.000622,-0.002098,0.000086,  50.160
   544.8,0.000896,0.000589,-0.002005,0.000099,  50.162
   545.0,0.000880,0.000549,-0.001904,0.000099,  50.160
   545.2,0.000868,0.000525,-0.001795,0.000099,  50.163
   545.4,0.000856,0.000498,-0.001660,0.000035,  50.163
   545.6,0.000837,0.000482,-0.001626,-0.000005,  50.168
   545.8,0.000818,0.000465,-0.001657,-0.000032,  50.168
   546.0,0.000800,0.000446,-0.001753,-0.000109,  50.176
   546.2,0.000780,0.000427,-0.001699,-0.000125,  50.184
   546.4,0.000765,0.000412,-0.001587,-0.000152,  50.191
   546.6,0.000757,0.000403,-0.001455,-0.000216,  50.187
   546.8,0.000762,0.000389,-0.001380,-0.000205,  50.193
   547.0,0.000786,0.000377,-0.001297,-0.000219,  50.201
   547.2,0.000831,0.000367,-0.001240,-0.000270,  50.202
   547.4,0.000851,0.000358,-0.001312,-0.000259,  50.207
   547.6,0.000890,0.000358,-0.001460,-0.000272,  50.208
   547.8,0.000931,0.000365,-0.001673,-0.000310,  50.216
   548.0,0.000951,0.000377,-0.001790,-0.000299,  50.217
   548.2,0.000984,0.000406,-0.001914,-0.000312,  50.212
   548.4,0.001005,0.000435,-0.002047,-0.000363,  50.216
   548.6,0.001013,0.000472,-0.002145,-0.000352,  50.211
   548.8,0.001033,0.000504,-0.002244,-0.000326,  50.211
   549.0,0.001039,0.000525,-0.002334,-0.000286,  50.205
   549.2,0.001041,0.000539,-0.002425,-0.000283,  50.196
   549.4,0.001052,0.000552,-0.002523,-0.000179,  50.181
   549.6,0.001049,0.000566,-0.002640,-0.000163,  50.167
   549.8,0.001023,0.000578,-0.002730,-0.000136,  50.169
   550.0,0.000999,0.000587,-0.002839,-0.000072,  50.164
   550.2,0.000959,0.000586,-0.002976,-0.000032,  50.166
   550.4,0.000951,0.000593,-0.003124,-0.000056,  50.164
   550.6,0.000974,0.000580,-0.003206,-0.000005,  50.165
   550.8,0.001002,0.000568,-0.003292,0.000022,  50.165
   551.0,0.001029,0.000547,-0.003366,-0.000003,  50.162
   551.2,0.001069,0.000524,-0.003369,0.000048,  50.160
   551.4,0.001119,0.000524,-0.003346,0.000062,  50.167
   551.6,0.001154,0.000530,-0.003260,0.000011,  50.158
   551.8,0.001198,0.000546,-0.002922,0.000035,  50.160
   552.0,0.001245,0.000577,-0.002469,0.000022,  50.160
   552.2,0.001264,0.000618,-0.001868,-0.000005,  50.166
   552.4,0.001267,0.000662,-0.001585,-0.000021,  50.161
   552.6,0.001261,0.000702,-0.001395,-0.000008,  50.170
   552.8,0.001239,0.000748,-0.001346,0.000006,  50.171
   553.0,0.001153,0.000790,-0.001164,0.000032,  50.175
   553.2,0.001035,0.000814,-0.000938,0.000072,  50.175
   553.4,0.000880,0.000832,-0.000728,0.000099,  50.183
   553.6,0.000830,0.000840,-0.001159,0.000126,  50.183
   553.8,0.000814,0.000790,-0.001862,0.000153,  50.183
   554.0,0.000846,0.000717,-0.002887,0.000193,  50.189
   554.2,0.000845,0.000603,-0.003151,0.000219,  50.182
   554.4,0.000857,0.000542,-0.003197,0.000219,  50.182
   554.6,0.000883,0.000500,-0.003037,0.000193,  50.183
   554.8,0.000891,0.000469,-0.003113,0.000153,  50.182
   555.0,0.000904,0.000454,-0.003195,0.000113,  50.187
   555.2,0.000921,0.000458,-0.003299,0.000059,  50.188
   555.4,0.000922,0.000475,-0.003384,-0.000021,  50.181
   555.6,0.000932,0.000477,-0.003444,-0.000021,  50.171
   555.8,0.000942,0.000487,-0.003532,-0.000021,  50.158
   556.0,0.000932,0.000500,-0.003648,0.000006,  50.153
   556.2,0.000922,0.000501,-0.003782,0.000019,  50.147
   556.4,0.000917,0.000507,-0.003904,-0.000005,  50.152
   556.6,0.000885,0.000518,-0.004061,0.000032,  50.145
   556.8,0.000859,0.000515,-0.004141,0.000046,  50.147
   557.0,0.000820,0.000515,-0.004211,0.000022,  50.152
   557.2,0.000784,0.000516,-0.004262,0.000072,  50.146
   557.4,0.000767,0.000500,-0.004280,0.000072,  50.141
   557.6,0.000749,0.000470,-0.004298,0.000086,  50.142
   557.8,0.000723,0.000437,-0.004298,0.000099,  50.141
   558.0,0.000708,0.000412,-0.004244,0.000099,  50.141
   558.2,0.000690,0.000398,-0.004193,0.000099,  50.138
   558.4,0.000667,0.000384,-0.004123,0.000072,  50.133
   558.6,0.000659,0.000380,-0.004107,0.000032,  50.135
   558.8,0.000640,0.000366,-0.004130,0.000006,  50.139
   559.0,0.000621,0.000350,-0.004200,-0.000021,  50.148
   559.2,0.000613,0.000336,-0.004099,-0.000074,  50.153
   559.4,0.000594,0.000324,-0.003942,-0.000101,  50.169
   559.6,0.000594,0.000317,-0.003746,-0.000115,  50.179
   559.8,0.000602,0.000302,-0.003803,-0.000141,  50.179
   560.0,0.000625,0.000282,-0.003988,-0.000155,  50.185
   560.2,0.000653,0.000260,-0.004295,-0.000181,  50.192
   560.4,0.000673,0.000244,-0.004303,-0.000208,  50.197
   560.6,0.000715,0.000242,-0.004264,-0.000221,  50.197
   560.8,0.000755,0.000239,-0.004159,-0.000235,  50.195
   561.0,0.000772,0.000243,-0.004275,-0.000248,  50.197
   561.2,0.000801,0.000270,-0.004465,-0.000275,  50.191
   561.4,0.000820,0.000297,-0.004767,-0.000301,  50.187
   561.6,0.000831,0.000343,-0.004901,-0.000341,  50.182
   561.8,0.000854,0.000369,-0.004970,-0.000301,  50.180
   562.0,0.000863,0.000388,-0.005022,-0.000235,  50.176
   562.2,0.000865,0.000411,-0.005112,-0.000168,  50.169
   562.4,0.000879,0.000428,-0.005238,-0.000115,  50.144
   562.6,0.000879,0.000443,-0.005364,-0.000074,  50.131
   562.8,0.000862,0.000457,-0.005454,-0.000048,  50.129
   563.0,0.000851,0.000466,-0.005580,-0.000008,  50.127
   563.2,0.000817,0.000481,-0.005680,0.000019,  50.122
   563.4,0.000825,0.000491,-0.005734,0.000032,  50.119
   563.6,0.000862,0.000478,-0.005752,0.000046,  50.112
   563.8,0.000911,0.000456,-0.005770,0.000035,  50.114
   564.0,0.000947,0.000427,-0.005752,0.000072,  50.111
   564.2,0.001001,0.000441,-0.005588,0.000086,  50.110
   564.4,0.001058,0.000479,-0.005344,0.000062,  50.115
   564.6,0.001078,0.000531,-0.005017,0.000086,  50.108
   564.8,0.001098,0.000570,-0.004744,0.000086,  50.096
   565.0,0.001098,0.000610,-0.004453,0.000099,  50.092
   565.2,0.001051,0.000656,-0.004136,0.000072,  50.096
   565.4,0.000990,0.000685,-0.003855,0.000059,  50.097
   565.6,0.000894,0.000713,-0.003602,0.000072,  50.104
   565.8,0.000800,0.000728,-0.003330,0.000086,  50.114
   566.0,0.000708,0.000742,-0.003232,0.000113,  50.132
   566.2,0.000603,0.000710,-0.003245,0.000139,  50.134
   566.4,0.000566,0.000657,-0.003351,0.000142,  50.139
   566.6,0.000553,0.000582,-0.003314,0.000195,  50.140
   566.8,0.000582,0.000508,-0.003266,0.000209,  50.144
   567.0,0.000634,0.000424,-0.003250,0.000144,  50.140
   567.2,0.000648,0.000342,-0.003467,0.000104,  50.143
   567.4,0.000681,0.000307,-0.003785,0.000064,  50.139
   567.6,0.000708,0.000285,-0.004239,-0.000003,  50.140
   567.8,0.000726,0.000291,-0.004528,-0.000096,  50.142
   568.0,0.000752,0.000298,-0.004798,-0.000123,  50.143
   568.2,0.000770,0.000312,-0.005017,-0.000163,  50.144
   568.4,0.000781,0.000335,-0.005187,-0.000152,  50.143
   568.6,0.000801,0.000349,-0.005329,-0.000139,  50.122
   568.8,0.000814,0.000361,-0.005434,-0.000125,  50.104
   569.0,0.000809,0.000387,-0.005542,-0.000061,  50.082
   569.2,0.000817,0.000401,-0.005686,-0.000034,  50.083
   569.4,0.000807,0.000418,-0.005794,-0.000021,  50.078
   569.6,0.000778,0.000427,-0.006040,0.000006,  50.080
   569.8,0.000752,0.000436,-0.006379,0.000032,  50.079
