Run Name,Run 4
Run Date,10:24:54 AM   04-03-15
Method Name,50% CRL group 10 march 17
Export Format Version, 1.00
Method ID, 2251
Points/Second, 5.00
Number of Records,   2280
Offset from Run Start Time,00:00:00
Run End Time,00:07:35
Time,Second
QuadTec 1, (280.0 nm), AU
QuadTec 2, (260.0 nm), AU
Gradient Pump,<Not Selected>
QuadTec 3, (214.0 nm), AU
QuadTec 4, (405.0 nm), AU
Conductivity,mS/cm
Trace 6,<Not Available>
GP Pressure,<Not Selected>
Volume,<Not Selected>
Fraction,<Not Available>
Time,QuadTec 1,QuadTec 2,QuadTec 3,QuadTec 4,Conductivity
     0.0,0.004839,0.003129,-0.023831,0.002749,  61.081
     0.2,0.004835,0.003129,-0.023738,0.002739,  61.079
     0.4,0.004839,0.003126,-0.023655,0.002739,  61.069
     0.6,0.004844,0.003134,-0.023605,0.002725,  61.075
     0.8,0.004839,0.003134,-0.023513,0.002725,  61.081
     1.0,0.004847,0.003136,-0.023421,0.002688,  61.085
     1.2,0.004841,0.003141,-0.023337,0.002725,  61.101
     1.4,0.004497,0.003145,-0.023270,0.002725,  61.105
     1.6,0.004053,0.003145,-0.023236,0.002688,  61.105
     1.8,0.004108,0.003147,-0.023194,0.002725,  61.114
     2.0,0.000000,0.003147,-0.023194,0.002725,  61.108
     2.2,0.000000,0.003147,-0.023228,0.002701,  61.105
     2.4,0.000000,0.000000,-0.023320,0.002739,  61.116
     2.6,0.000000,0.000000,-0.023422,0.002763,  61.120
     2.8,0.000000,0.000000,-0.023447,0.002787,  61.129
     3.0,0.000000,0.000000,-0.023463,0.002835,  61.137
     3.2,0.000000,0.000000,-0.023472,-0.001592,  61.155
     3.4,0.000000,0.000000,-0.022845,0.000000,  61.160
     3.6,0.000000,0.000000,-0.021881,0.000000,  61.169
     3.8,0.000000,0.000000,-0.024044,0.000000,  61.175
     4.0,0.000000,0.000000,-0.024044,0.000000,  61.182
     4.2,0.000000,0.000000,-0.024044,0.000000,  61.169
     4.4,0.000000,0.000000,-0.024044,0.000000,  61.152
     4.6,0.000000,0.000000,0.000000,0.000000,  61.134
     4.8,0.000000,0.000000,0.000000,0.000000,  61.118
     5.0,0.000000,0.000000,0.000000,0.000000,  61.101
     5.2,0.000000,0.000000,0.000000,0.000000,  61.078
     5.4,0.000000,0.000000,0.000000,0.000000,  61.061
     5.6,0.000000,0.000000,0.000000,0.000000,  61.043
     5.8,0.000000,0.000000,0.000000,0.000000,  61.018
     6.0,0.000405,0.000000,0.000000,0.000000,  61.011
     6.2,0.000464,0.000000,0.000000,0.000000,  61.005
     6.4,0.000495,0.000000,0.000000,0.000000,  61.000
     6.6,0.000502,0.000000,0.000000,0.000000,  60.998
     6.8,0.000478,0.000000,0.000000,0.000000,  60.999
     7.0,0.000418,0.000331,0.000000,0.000000,  60.993
     7.2,0.000348,0.000368,0.000000,0.000000,  60.992
     7.4,0.000277,0.000396,0.000000,0.000000,  60.984
     7.6,0.000183,0.000414,0.000000,0.000000,  60.987
     7.8,0.000098,0.000425,0.000000,0.000000,  60.985
     8.0,0.000083,0.000422,0.000000,0.000132,  60.985
     8.2,0.000098,0.000418,0.000000,0.000225,  60.982
     8.4,0.000152,0.000382,0.000433,0.000341,  60.978
     8.6,0.000180,0.000322,0.000598,0.000370,  60.976
     8.8,0.000214,0.000249,0.000762,0.000396,  60.972
     9.0,0.000255,0.000154,0.000885,0.000421,  60.972
     9.2,0.000286,0.000124,0.001024,0.000344,  60.979
     9.4,0.000307,0.000112,0.001106,0.000264,  60.986
     9.6,0.000337,0.000119,0.001178,0.000145,  60.996
     9.8,0.000366,0.000138,0.000896,0.000092,  61.014
    10.0,0.000381,0.000172,0.000407,0.000066,  61.023
    10.2,0.000390,0.000215,-0.000279,0.000040,  61.023
    10.4,0.000400,0.000241,-0.000434,0.000015,  61.023
    10.6,0.000409,0.000261,-0.000432,0.000068,  61.024
    10.8,0.000415,0.000283,-0.000255,0.000121,  61.027
    11.0,0.000421,0.000304,-0.000353,0.000110,  61.040
    11.2,0.000430,0.000315,-0.000500,0.000137,  61.059
    11.4,0.000447,0.000332,-0.000699,0.000187,  61.093
    11.6,0.000460,0.000346,-0.001069,0.000251,  61.103
    11.8,0.000458,0.000356,-0.001514,0.000264,  61.114
    12.0,0.000469,0.000360,-0.002099,0.000277,  61.123
    12.2,0.000473,0.000375,-0.002147,0.000341,  61.130
    12.4,0.000447,0.000383,-0.001973,0.000354,  61.143
    12.6,0.000424,0.000398,-0.001601,0.000317,  61.143
    12.8,0.000388,0.000407,-0.001476,0.000293,  61.121
    13.0,0.000353,0.000409,-0.001401,0.000293,  61.096
    13.2,0.000325,0.000413,-0.001343,0.000306,  61.074
    13.4,0.000302,0.000404,-0.001301,0.000282,  61.061
    13.6,0.000282,0.000388,-0.001284,0.000282,  61.052
    13.8,0.000279,0.000366,-0.001301,0.000319,  61.030
    14.0,0.000289,0.000341,-0.001292,0.000333,  60.987
    14.2,0.000313,0.000317,-0.001316,0.000319,  60.975
    14.4,0.000360,0.000292,-0.001308,0.000293,  60.964
    14.6,0.000430,0.000272,-0.001301,0.000280,  60.973
    14.8,0.000475,0.000255,-0.001309,0.000267,  60.964
    15.0,0.000534,0.000244,-0.001326,0.000216,  60.963
    15.2,0.000590,0.000265,-0.001310,0.000214,  60.961
    15.4,0.000559,0.000306,-0.001253,0.000187,  60.965
    15.6,0.000488,0.000366,-0.001212,0.000161,  60.963
    15.8,0.000378,0.000414,-0.001196,0.000134,  60.960
    16.0,0.000312,0.000459,-0.001155,0.000148,  60.958
    16.2,0.000263,0.000512,-0.001123,0.000148,  60.959
    16.4,0.000217,0.000506,-0.001033,0.000161,  60.958
    16.6,0.000206,0.000466,-0.000885,0.000200,  60.958
    16.8,0.000232,0.000394,-0.000720,0.000240,  60.954
    17.0,0.000272,0.000355,-0.000514,0.000293,  60.954
    17.2,0.000300,0.000310,-0.000366,0.000346,  60.953
    17.4,0.000325,0.000271,-0.000253,0.000372,  60.952
    17.6,0.000357,0.000232,-0.000147,0.000399,  60.955
    17.8,0.000382,0.000217,0.000000,0.000372,  60.962
    18.0,0.000400,0.000216,0.000156,0.000293,  60.968
    18.2,0.000423,0.000226,0.000279,0.000187,  60.987
    18.4,0.000445,0.000237,0.000264,0.000161,  60.998
    18.6,0.000457,0.000267,0.000174,0.000134,  61.002
    18.8,0.000472,0.000293,0.000018,0.000121,  61.009
    19.0,0.000485,0.000306,-0.000104,0.000134,  61.009
    19.2,0.000494,0.000328,-0.000259,0.000174,  61.015
    19.4,0.000497,0.000347,-0.000391,0.000214,  61.024
    19.6,0.000500,0.000358,-0.000523,0.000240,  61.035
    19.8,0.000514,0.000375,-0.000678,0.000267,  61.048
    20.0,0.000506,0.000391,-0.000825,0.000293,  61.065
    20.2,0.000517,0.000405,-0.000923,0.000333,  61.095
    20.4,0.000512,0.000413,-0.001022,0.000346,  61.105
    20.6,0.000509,0.000423,-0.001103,0.000346,  61.117
    20.8,0.000517,0.000424,-0.001194,0.000359,  61.119
    21.0,0.000501,0.000427,-0.001284,0.000348,  61.121
    21.2,0.000466,0.000435,-0.001367,0.000348,  61.099
    21.4,0.000434,0.000434,-0.001416,0.000361,  61.083
    21.6,0.000419,0.000441,-0.001425,0.000324,  61.063
    21.8,0.000392,0.000454,-0.001441,0.000361,  61.056
    22.0,0.000371,0.000439,-0.001424,0.000375,  61.027
    22.2,0.000379,0.000424,-0.001399,0.000337,  61.015
    22.4,0.000394,0.000412,-0.001381,0.000375,  60.999
    22.6,0.000408,0.000393,-0.001414,0.000375,  60.985
    22.8,0.000439,0.000371,-0.001455,0.000337,  60.975
    23.0,0.000479,0.000357,-0.001514,0.000348,  60.977
    23.2,0.000526,0.000352,-0.001530,0.000335,  60.973
    23.4,0.000569,0.000347,-0.001506,0.000271,  60.968
    23.6,0.000609,0.000355,-0.001457,0.000269,  60.971
    23.8,0.000649,0.000373,-0.001358,0.000256,  60.971
    24.0,0.000609,0.000406,-0.001243,0.000242,  60.967
    24.2,0.000526,0.000451,-0.001095,0.000216,  60.966
    24.4,0.000407,0.000492,-0.001037,0.000203,  60.962
    24.6,0.000344,0.000540,-0.001021,0.000229,  60.962
    24.8,0.000304,0.000591,-0.001014,0.000242,  60.966
    25.0,0.000286,0.000562,-0.001072,0.000269,  60.966
    25.2,0.000279,0.000492,-0.001172,0.000309,  60.970
    25.4,0.000305,0.000393,-0.001322,0.000284,  60.966
    25.6,0.000352,0.000340,-0.001513,0.000361,  60.965
    25.8,0.000373,0.000303,-0.001251,0.000388,  60.961
    26.0,0.000408,0.000276,-0.000888,0.000337,  60.965
    26.2,0.000443,0.000262,-0.000352,0.000361,  60.968
    26.4,0.000460,0.000259,-0.000195,0.000335,  60.976
    26.6,0.000479,0.000279,-0.000130,0.000232,  60.986
    26.8,0.000499,0.000304,-0.000165,0.000190,  60.995
    27.0,0.000510,0.000320,-0.000139,0.000163,  61.003
    27.2,0.000530,0.000347,-0.000129,0.000126,  61.013
    27.4,0.000543,0.000373,-0.000127,0.000163,  61.009
    27.6,0.000556,0.000395,-0.000176,0.000190,  61.017
    27.8,0.000568,0.000415,-0.000274,0.000179,  61.021
    28.0,0.000579,0.000433,-0.000414,0.000256,  61.034
    28.2,0.000585,0.000450,-0.000545,0.000295,  61.048
    28.4,0.000591,0.000469,-0.000710,0.000284,  61.056
    28.6,0.000609,0.000478,-0.000899,0.000322,  61.067
    28.8,0.000609,0.000487,-0.000972,0.000348,  61.097
    29.0,0.000612,0.000496,-0.001029,0.000337,  61.106
    29.2,0.000609,0.000506,-0.001037,0.000388,  61.115
    29.4,0.000606,0.000505,-0.001061,0.000401,  61.114
    29.6,0.000587,0.000515,-0.001086,0.000364,  61.101
    29.8,0.000560,0.000524,-0.001102,0.000414,  61.081
    30.0,0.000523,0.000523,-0.001085,0.000428,  61.071
    30.2,0.000504,0.000528,-0.001027,0.000403,  61.055
    30.4,0.000482,0.000538,-0.000977,0.000454,  61.034
    30.6,0.000471,0.000523,-0.001019,0.000467,  61.026
    30.8,0.000488,0.000509,-0.001085,0.000443,  61.014
    31.0,0.000504,0.000488,-0.001202,0.000467,  61.002
    31.2,0.000542,0.000460,-0.001202,0.000467,  60.987
    31.4,0.000576,0.000441,-0.001152,0.000430,  60.978
    31.6,0.000610,0.000419,-0.001077,0.000441,  60.978
    31.8,0.000653,0.000421,-0.001077,0.000428,  60.977
    32.0,0.000664,0.000431,-0.001094,0.000364,  60.974
    32.2,0.000667,0.000455,-0.001152,0.000361,  60.976
    32.4,0.000668,0.000484,-0.001120,0.000348,  60.973
    32.6,0.000615,0.000513,-0.001078,0.000284,  60.976
    32.8,0.000554,0.000549,-0.000997,0.000309,  60.978
    33.0,0.000463,0.000580,-0.000906,0.000309,  60.979
    33.2,0.000412,0.000618,-0.000808,0.000322,  60.977
    33.4,0.000389,0.000657,-0.000693,0.000348,  60.981
    33.6,0.000371,0.000620,-0.000686,0.000375,  60.980
    33.8,0.000369,0.000549,-0.000771,0.000401,  60.977
    34.0,0.000401,0.000446,-0.000913,0.000441,  60.980
    34.2,0.000445,0.000396,-0.001047,0.000480,  60.977
    34.4,0.000465,0.000365,-0.001213,0.000480,  60.977
    34.6,0.000497,0.000348,-0.001404,0.000403,  60.979
    34.8,0.000532,0.000346,-0.001620,0.000375,  60.983
    35.0,0.000546,0.000356,-0.001678,0.000348,  60.991
    35.2,0.000562,0.000384,-0.001687,0.000271,  60.997
    35.4,0.000579,0.000398,-0.001644,0.000256,  61.007
    35.6,0.000586,0.000417,-0.001527,0.000256,  61.015
    35.8,0.000596,0.000430,-0.001320,0.000218,  61.024
    36.0,0.000612,0.000453,-0.001055,0.000256,  61.022
    36.2,0.000614,0.000472,-0.000962,0.000295,  61.030
    36.4,0.000628,0.000485,-0.000912,0.000284,  61.032
    36.6,0.000642,0.000499,-0.000887,0.000324,  61.045
    36.8,0.000648,0.000505,-0.000861,0.000364,  61.055
    37.0,0.000654,0.000517,-0.000842,0.000377,  61.072
    37.2,0.000665,0.000530,-0.000833,0.000390,  61.079
    37.4,0.000665,0.000543,-0.000824,0.000403,  61.103
    37.6,0.000661,0.000553,-0.000881,0.000430,  61.111
    37.8,0.000667,0.000563,-0.000947,0.000430,  61.114
    38.0,0.000662,0.000570,-0.000964,0.000443,  61.102
    38.2,0.000636,0.000575,-0.000988,0.000456,  61.084
    38.4,0.000618,0.000577,-0.001013,0.000456,  61.075
    38.6,0.000590,0.000575,-0.000988,0.000470,  61.065
    38.8,0.000564,0.000575,-0.000971,0.000470,  61.043
    39.0,0.000553,0.000583,-0.000921,0.000470,  61.034
    39.2,0.000545,0.000568,-0.000921,0.000483,  61.035
    39.4,0.000568,0.000549,-0.000962,0.000483,  61.022
    39.6,0.000596,0.000531,-0.001028,0.000496,  61.016
    39.8,0.000639,0.000511,-0.001011,0.000496,  60.995
    40.0,0.000687,0.000497,-0.000977,0.000470,  60.999
    40.2,0.000727,0.000480,-0.000920,0.000480,  60.997
    40.4,0.000759,0.000491,-0.000887,0.000467,  61.001
    40.6,0.000747,0.000517,-0.000903,0.000428,  60.999
    40.8,0.000707,0.000552,-0.000913,0.000412,  60.999
    41.0,0.000643,0.000577,-0.000872,0.000412,  60.999
    41.2,0.000586,0.000613,-0.000822,0.000375,  61.004
    41.4,0.000528,0.000648,-0.000748,0.000375,  61.006
    41.6,0.000477,0.000652,-0.000683,0.000401,  61.006
    41.8,0.000442,0.000652,-0.000642,0.000390,  61.008
    42.0,0.000420,0.000639,-0.000570,0.000417,  61.005
    42.2,0.000421,0.000594,-0.000430,0.000456,  61.011
    42.4,0.000426,0.000541,-0.000258,0.000445,  61.013
    42.6,0.000458,0.000461,-0.000060,0.000509,  61.012
    42.8,0.000503,0.000422,0.000063,0.000536,  61.005
    43.0,0.000523,0.000397,0.000127,0.000472,  61.006
    43.2,0.000555,0.000382,0.000166,0.000419,  61.007
    43.4,0.000577,0.000387,0.000149,0.000364,  61.015
    43.6,0.000591,0.000406,0.000058,0.000337,  61.019
    43.8,0.000617,0.000433,-0.000050,0.000298,  61.021
    44.0,0.000640,0.000451,-0.000239,0.000271,  61.034
    44.2,0.000645,0.000475,-0.000238,0.000271,  61.035
    44.4,0.000657,0.000500,-0.000220,0.000284,  61.042
    44.6,0.000671,0.000517,-0.000151,0.000284,  61.042
    44.8,0.000669,0.000531,-0.000183,0.000298,  61.052
    45.0,0.000679,0.000540,-0.000249,0.000337,  61.061
    45.2,0.000689,0.000544,-0.000380,0.000377,  61.074
    45.4,0.000688,0.000550,-0.000412,0.000403,  61.075
    45.6,0.000702,0.000559,-0.000419,0.000417,  61.105
    45.8,0.000712,0.000569,-0.000442,0.000443,  61.114
    46.0,0.000715,0.000578,-0.000490,0.000470,  61.114
    46.2,0.000712,0.000583,-0.000523,0.000445,  61.119
    46.4,0.000710,0.000594,-0.000581,0.000459,  61.110
    46.6,0.000692,0.000593,-0.000605,0.000472,  61.096
    46.8,0.000667,0.000601,-0.000613,0.000448,  61.086
    47.0,0.000638,0.000614,-0.000604,0.000498,  61.079
    47.2,0.000622,0.000611,-0.000603,0.000512,  61.076
    47.4,0.000613,0.000613,-0.000578,0.000487,  61.070
    47.6,0.000599,0.000621,-0.000553,0.000512,  61.055
    47.8,0.000610,0.000609,-0.000636,0.000525,  61.049
    48.0,0.000624,0.000592,-0.000777,0.000487,  61.043
    48.2,0.000659,0.000568,-0.000993,0.000525,  61.034
    48.4,0.000704,0.000552,-0.001051,0.000525,  61.027
    48.6,0.000741,0.000540,-0.001067,0.000474,  61.026
    48.8,0.000784,0.000532,-0.001051,0.000498,  61.027
    49.0,0.000841,0.000536,-0.000984,0.000485,  61.019
    49.2,0.000810,0.000560,-0.000893,0.000408,  61.022
    49.4,0.000742,0.000598,-0.000736,0.000406,  61.024
    49.6,0.000637,0.000628,-0.000695,0.000406,  61.024
    49.8,0.000595,0.000669,-0.000713,0.000368,  61.019
    50.0,0.000552,0.000714,-0.000780,0.000419,  61.026
    50.2,0.000520,0.000702,-0.000682,0.000445,  61.025
    50.4,0.000498,0.000662,-0.000526,0.000434,  61.022
    50.6,0.000483,0.000601,-0.000328,0.000485,  61.020
    50.8,0.000473,0.000559,-0.000139,0.000512,  61.027
    51.0,0.000481,0.000510,0.000034,0.000514,  61.024
    51.2,0.000520,0.000467,0.000207,0.000564,  61.024
    51.4,0.000564,0.000437,0.000313,0.000551,  61.022
    51.6,0.000586,0.000415,0.000370,0.000487,  61.026
    51.8,0.000618,0.000403,0.000360,0.000472,  61.023
    52.0,0.000648,0.000405,0.000378,0.000392,  61.027
    52.2,0.000662,0.000429,0.000354,0.000315,  61.032
    52.4,0.000681,0.000464,0.000322,0.000326,  61.035
    52.6,0.000699,0.000483,0.000307,0.000300,  61.037
    52.8,0.000707,0.000506,0.000283,0.000300,  61.041
    53.0,0.000720,0.000530,0.000251,0.000263,  61.046
    53.2,0.000732,0.000546,0.000218,0.000300,  61.051
    53.4,0.000734,0.000560,0.000111,0.000340,  61.057
    53.6,0.000743,0.000580,-0.000054,0.000329,  61.062
    53.8,0.000757,0.000592,-0.000261,0.000406,  61.072
    54.0,0.000761,0.000599,-0.000400,0.000445,  61.077
    54.2,0.000771,0.000604,-0.000524,0.000421,  61.105
    54.4,0.000787,0.000609,-0.000614,0.000472,  61.102
    54.6,0.000783,0.000619,-0.000696,0.000485,  61.110
    54.8,0.000791,0.000628,-0.000754,0.000474,  61.099
    55.0,0.000795,0.000632,-0.000795,0.000512,  61.089
    55.2,0.000783,0.000639,-0.000785,0.000525,  61.074
    55.4,0.000761,0.000645,-0.000744,0.000501,  61.047
    55.6,0.000741,0.000662,-0.000685,0.000551,  61.039
    55.8,0.000741,0.000672,-0.000684,0.000564,  61.039
    56.0,0.000736,0.000676,-0.000709,0.000551,  61.034
    56.2,0.000756,0.000686,-0.000767,0.000589,  61.033
    56.4,0.000772,0.000685,-0.000800,0.000615,  61.028
    56.6,0.000793,0.000676,-0.000825,0.000578,  61.018
    56.8,0.000813,0.000665,-0.000875,0.000591,  61.007
    57.0,0.000849,0.000659,-0.000850,0.000591,  61.000
    57.2,0.000883,0.000653,-0.000800,0.000540,  60.986
    57.4,0.000917,0.000649,-0.000717,0.000551,  60.991
    57.6,0.000961,0.000662,-0.000750,0.000501,  60.984
    57.8,0.000921,0.000693,-0.000859,0.000474,  60.983
    58.0,0.000844,0.000738,-0.001002,0.000448,  60.984
    58.2,0.000734,0.000776,-0.000985,0.000424,  60.981
    58.4,0.000679,0.000817,-0.000902,0.000487,  60.979
    58.6,0.000628,0.000863,-0.000754,0.000501,  60.976
    58.8,0.000605,0.000834,-0.000631,0.000490,  60.970
    59.0,0.000583,0.000762,-0.000467,0.000554,  60.976
    59.2,0.000563,0.000668,-0.000287,0.000580,  60.969
    59.4,0.000564,0.000616,-0.000139,0.000556,  60.974
    59.6,0.000580,0.000573,0.000000,0.000593,  60.968
    59.8,0.000600,0.000542,0.000114,0.000580,  60.963
    60.0,0.000651,0.000518,0.000246,0.000503,  60.963
    60.2,0.000679,0.000498,0.000371,0.000487,  60.963
    60.4,0.000703,0.000496,0.000528,0.000408,  60.958
    60.6,0.000732,0.000506,0.000255,0.000368,  60.961
    60.8,0.000754,0.000524,-0.000217,0.000368,  60.966
    61.0,0.000772,0.000551,-0.000895,0.000305,  60.971
    61.2,0.000782,0.000573,-0.001002,0.000342,  60.983
    61.4,0.000802,0.000599,-0.000960,0.000305,  60.989
    61.6,0.000811,0.000624,-0.000761,0.000342,  60.995
    61.8,0.000811,0.000637,-0.000727,0.000392,  61.006
    62.0,0.000824,0.000658,-0.000710,0.000419,  61.013
    62.2,0.000841,0.000675,-0.000725,0.000421,  61.026
    62.4,0.000844,0.000686,-0.000716,0.000498,  61.034
    62.6,0.000846,0.000697,-0.000715,0.000525,  61.040
    62.8,0.000860,0.000712,-0.000747,0.000514,  61.048
    63.0,0.000869,0.000722,-0.000755,0.000564,  61.051
    63.2,0.000865,0.000723,-0.000763,0.000591,  61.049
    63.4,0.000866,0.000731,-0.000812,0.000554,  61.039
    63.6,0.000854,0.000731,-0.000877,0.000591,  61.022
    63.8,0.000831,0.000734,-0.000927,0.000567,  61.010
    64.0,0.000813,0.000745,-0.000968,0.000580,  61.003
    64.2,0.000779,0.000758,-0.001018,0.000567,  60.994
    64.4,0.000775,0.000755,-0.001001,0.000529,  60.992
    64.6,0.000798,0.000760,-0.000933,0.000593,  60.987
    64.8,0.000826,0.000756,-0.000800,0.000593,  60.986
    65.0,0.000843,0.000741,-0.000800,0.000569,  60.986
    65.2,0.000881,0.000720,-0.000851,0.000607,  60.970
    65.4,0.000920,0.000697,-0.000958,0.000607,  60.950
    65.6,0.000935,0.000703,-0.000917,0.000569,  60.946
    65.8,0.000952,0.000712,-0.000859,0.000593,  60.944
    66.0,0.000951,0.000723,-0.000784,0.000580,  60.943
    66.2,0.000952,0.000742,-0.000718,0.000529,  60.945
    66.4,0.000895,0.000771,-0.000635,0.000540,  60.957
    66.6,0.000821,0.000798,-0.000552,0.000514,  60.963
    66.8,0.000733,0.000821,-0.000503,0.000490,  60.971
    67.0,0.000679,0.000860,-0.000462,0.000540,  60.973
    67.2,0.000649,0.000901,-0.000422,0.000567,  60.968
    67.4,0.000628,0.000865,-0.000365,0.000556,  60.973
    67.6,0.000612,0.000791,-0.000334,0.000633,  60.971
    67.8,0.000600,0.000688,-0.000295,0.000659,  60.967
    68.0,0.000608,0.000638,-0.000114,0.000609,  60.969
    68.2,0.000623,0.000606,0.000133,0.000607,  60.968
    68.4,0.000648,0.000579,0.000447,0.000554,  60.969
    68.6,0.000689,0.000553,0.000505,0.000490,  60.969
    68.8,0.000701,0.000536,0.000480,0.000487,  60.969
    69.0,0.000708,0.000532,0.000372,0.000434,  60.972
    69.2,0.000712,0.000539,0.000322,0.000371,  60.975
    69.4,0.000706,0.000553,0.000241,0.000395,  60.985
    69.6,0.000680,0.000592,0.000143,0.000382,  60.997
    69.8,0.000666,0.000605,0.000069,0.000382,  61.006
    70.0,0.000653,0.000617,-0.000039,0.000382,  61.019
    70.2,0.000644,0.000629,-0.000163,0.000371,  61.030
    70.4,0.000642,0.000626,-0.000236,0.000408,  61.033
    70.6,0.000630,0.000619,-0.000277,0.000410,  61.040
    70.8,0.000618,0.000599,-0.000301,0.000437,  61.042
    71.0,0.000609,0.000592,-0.000309,0.000501,  61.052
    71.2,0.000613,0.000588,-0.000308,0.000477,  61.046
    71.4,0.000607,0.000583,-0.000307,0.000514,  61.054
    71.6,0.000601,0.000573,-0.000281,0.000474,  61.034
    71.8,0.000617,0.000566,-0.000380,0.000437,  61.018
    72.0,0.000633,0.000556,-0.000514,0.000461,  60.997
    72.2,0.000651,0.000551,-0.000690,0.000434,  60.979
    72.4,0.000681,0.000547,-0.000723,0.000384,  60.973
    72.6,0.000727,0.000546,-0.000731,0.000421,  60.972
    72.8,0.000793,0.000538,-0.000690,0.000408,  60.972
    73.0,0.000832,0.000540,-0.000639,0.000371,  60.972
    73.2,0.000875,0.000544,-0.000557,0.000395,  60.967
    73.4,0.000920,0.000550,-0.000441,0.000395,  60.967
    73.6,0.000957,0.000573,-0.000399,0.000371,  60.964
    73.8,0.000986,0.000615,-0.000374,0.000395,  60.943
    74.0,0.001025,0.000674,-0.000358,0.000382,  60.931
    74.2,0.001063,0.000709,-0.000367,0.000371,  60.921
    74.4,0.001010,0.000750,-0.000392,0.000434,  60.922
    74.6,0.000918,0.000783,-0.000433,0.000461,  60.930
    74.8,0.000791,0.000826,-0.000293,0.000463,  60.939
    75.0,0.000722,0.000871,-0.000120,0.000540,  60.947
    75.2,0.000680,0.000922,0.000128,0.000567,  60.957
    75.4,0.000643,0.000893,0.000252,0.000569,  60.956
    75.6,0.000608,0.000819,0.000333,0.000646,  60.958
    75.8,0.000600,0.000715,0.000397,0.000673,  60.957
    76.0,0.000588,0.000656,0.000503,0.000649,  60.957
    76.2,0.000574,0.000607,0.000609,0.000675,  60.959
    76.4,0.000588,0.000570,0.000724,0.000675,  60.955
    76.6,0.000601,0.000542,0.000798,0.000598,  60.957
    76.8,0.000616,0.000521,0.000864,0.000532,  60.962
    77.0,0.000646,0.000517,0.000922,0.000463,  60.959
    77.2,0.000694,0.000508,0.000906,0.000386,  60.961
    77.4,0.000699,0.000503,0.000850,0.000360,  60.960
    77.6,0.000693,0.000497,0.000761,0.000384,  60.966
    77.8,0.000688,0.000518,0.000679,0.000371,  60.969
    78.0,0.000675,0.000549,0.000564,0.000357,  60.970
    78.2,0.000672,0.000587,0.000407,0.000344,  60.993
    78.4,0.000667,0.000598,0.000343,0.000344,  61.003
    78.6,0.000657,0.000610,0.000319,0.000371,  61.013
    78.8,0.000651,0.000610,0.000311,0.000384,  61.021
    79.0,0.000648,0.000601,0.000270,0.000397,  61.027
    79.2,0.000642,0.000591,0.000230,0.000386,  61.037
    79.4,0.000633,0.000583,0.000189,0.000413,  61.040
    79.6,0.000623,0.000570,0.000156,0.000463,  61.045
    79.8,0.000623,0.000568,0.000107,0.000426,  61.041
    80.0,0.000617,0.000565,0.000025,0.000426,  61.034
    80.2,0.000614,0.000557,-0.000033,0.000437,  61.001
    80.4,0.000630,0.000547,-0.000091,0.000399,  60.989
    80.6,0.000651,0.000548,-0.000141,0.000399,  60.981
    80.8,0.000679,0.000535,-0.000183,0.000410,  60.971
    81.0,0.000722,0.000525,-0.000200,0.000360,  60.969
    81.2,0.000764,0.000523,-0.000200,0.000360,  60.966
    81.4,0.000823,0.000523,-0.000200,0.000384,  60.970
    81.6,0.000872,0.000523,-0.000183,0.000333,  60.963
    81.8,0.000914,0.000530,-0.000141,0.000333,  60.964
    82.0,0.000965,0.000542,-0.000083,0.000371,  60.961
    82.2,0.001000,0.000574,-0.000116,0.000347,  60.951
    82.4,0.001015,0.000625,-0.000191,0.000333,  60.940
    82.6,0.001026,0.000684,-0.000291,0.000357,  60.927
    82.8,0.000995,0.000726,-0.000291,0.000360,  60.922
    83.0,0.000939,0.000774,-0.000275,0.000386,  60.926
    83.2,0.000873,0.000820,-0.000217,0.000463,  60.935
    83.4,0.000775,0.000858,-0.000127,0.000479,  60.945
    83.6,0.000729,0.000898,-0.000003,0.000519,  60.950
    83.8,0.000685,0.000942,0.000161,0.000582,  60.952
    84.0,0.000661,0.000899,0.000343,0.000598,  60.945
    84.2,0.000632,0.000813,0.000541,0.000638,  60.950
    84.4,0.000620,0.000694,0.000780,0.000715,  60.948
    84.6,0.000614,0.000634,0.000936,0.000677,  60.949
    84.8,0.000606,0.000586,0.001085,0.000638,  60.948
    85.0,0.000612,0.000558,0.001190,0.000609,  60.951
    85.2,0.000628,0.000532,0.001206,0.000532,  60.951
    85.4,0.000649,0.000519,0.001141,0.000479,  60.951
    85.6,0.000671,0.000520,0.001017,0.000437,  60.942
    85.8,0.000706,0.000519,0.000976,0.000386,  60.948
    86.0,0.000705,0.000516,0.000887,0.000373,  60.951
    86.2,0.000706,0.000519,0.000798,0.000397,  60.952
    86.4,0.000703,0.000535,0.000674,0.000347,  60.960
    86.6,0.000689,0.000558,0.000500,0.000347,  60.969
    86.8,0.000680,0.000591,0.000301,0.000371,  60.984
    87.0,0.000675,0.000599,0.000261,0.000384,  60.992
    87.2,0.000661,0.000599,0.000245,0.000410,  61.003
    87.4,0.000663,0.000601,0.000304,0.000424,  61.015
    87.6,0.000664,0.000602,0.000272,0.000450,  61.025
    87.8,0.000653,0.000592,0.000232,0.000477,  61.030
    88.0,0.000655,0.000576,0.000166,0.000490,  61.036
    88.2,0.000652,0.000572,-0.000066,0.000490,  61.037
    88.4,0.000644,0.000568,-0.000373,0.000466,  61.028
    88.6,0.000646,0.000564,-0.000762,0.000452,  61.007
    88.8,0.000639,0.000553,-0.000895,0.000477,  60.985
    89.0,0.000655,0.000552,-0.000977,0.000439,  60.974
    89.2,0.000676,0.000552,-0.000912,0.000426,  60.961
    89.4,0.000715,0.000545,-0.000813,0.000437,  60.954
    89.6,0.000758,0.000541,-0.001202,0.000399,  60.953
    89.8,0.000810,0.000544,-0.001730,0.000399,  60.950
    90.0,0.000879,0.000546,-0.002414,0.000424,  60.952
    90.2,0.000932,0.000551,-0.002356,0.000386,  60.948
    90.4,0.000981,0.000558,-0.002027,0.000386,  60.946
    90.6,0.001028,0.000571,-0.001424,0.000424,  60.945
    90.8,0.001024,0.000603,-0.001184,0.000386,  60.935
    91.0,0.000990,0.000655,-0.001019,0.000386,  60.918
    91.2,0.000932,0.000720,-0.000903,0.000424,  60.899
    91.4,0.000876,0.000764,-0.000779,0.000413,  60.889
    91.6,0.000812,0.000815,-0.000713,0.000439,  60.891
    91.8,0.000735,0.000863,-0.000639,0.000516,  60.888
    92.0,0.000697,0.000879,-0.000433,0.000519,  60.889
    92.2,0.000670,0.000886,-0.000185,0.000571,  60.889
    92.4,0.000661,0.000882,0.000104,0.000649,  60.885
    92.6,0.000668,0.000834,0.000319,0.000651,  60.888
    92.8,0.000656,0.000765,0.000508,0.000704,  60.888
    93.0,0.000654,0.000670,0.000656,0.000781,  60.884
    93.2,0.000648,0.000619,0.000804,0.000717,  60.886
    93.4,0.000661,0.000591,0.000910,0.000664,  60.885
    93.6,0.000674,0.000572,0.001016,0.000609,  60.882
    93.8,0.000695,0.000545,0.001024,0.000532,  60.880
    94.0,0.000731,0.000540,0.000984,0.000492,  60.882
    94.2,0.000764,0.000536,0.000903,0.000490,  60.881
    94.4,0.000797,0.000528,0.000796,0.000439,  60.884
    94.6,0.000828,0.000533,0.000672,0.000426,  60.880
    94.8,0.000856,0.000538,0.000523,0.000437,  60.887
    95.0,0.000882,0.000562,0.000433,0.000399,  60.895
    95.2,0.000896,0.000593,0.000334,0.000413,  60.913
    95.4,0.000917,0.000639,0.000236,0.000437,  60.923
    95.6,0.000940,0.000670,0.000203,0.000426,  60.943
    95.8,0.000948,0.000693,0.000187,0.000466,  60.956
    96.0,0.000960,0.000722,0.000205,0.000492,  60.972
    96.2,0.000980,0.000741,0.000097,0.000519,  60.984
    96.4,0.000985,0.000761,-0.000068,0.000558,  60.992
    96.6,0.000991,0.000779,-0.000251,0.000534,  61.000
    96.8,0.001005,0.000794,-0.000283,0.000598,  61.007
    97.0,0.001007,0.000806,-0.000281,0.000587,  61.004
    97.2,0.001020,0.000819,-0.000188,0.000614,  60.987
    97.4,0.001028,0.000825,-0.000337,0.000664,  60.968
    97.6,0.001017,0.000837,-0.000610,0.000640,  60.960
    97.8,0.001016,0.000843,-0.000974,0.000691,  60.950
    98.0,0.000997,0.000850,-0.001048,0.000704,  60.944
    98.2,0.000990,0.000858,-0.001007,0.000680,  60.943
    98.4,0.001003,0.000869,-0.000890,0.000730,  60.944
    98.6,0.001020,0.000875,-0.000658,0.000730,  60.937
    98.8,0.001031,0.000875,-0.001179,0.000706,  60.944
    99.0,0.001063,0.000876,-0.001914,0.000770,  60.944
    99.2,0.001098,0.000871,-0.002886,0.000757,  60.943
    99.4,0.001100,0.000870,-0.002902,0.000733,  60.931
    99.6,0.001111,0.000870,-0.002549,0.000770,  60.922
    99.8,0.001098,0.000864,-0.001840,0.000770,  60.911
   100.0,0.001055,0.000872,-0.001576,0.000719,  60.901
   100.2,0.000994,0.000891,-0.001369,0.000730,  60.897
   100.4,0.000912,0.000923,-0.001196,0.000704,  60.896
   100.6,0.000868,0.000946,-0.000982,0.000666,  60.897
   100.8,0.000838,0.000975,-0.000767,0.000717,  60.895
   101.0,0.000828,0.001008,-0.000552,0.000730,  60.897
   101.2,0.000809,0.000977,-0.000296,0.000719,  60.896
   101.4,0.000791,0.000915,-0.000057,0.000796,  60.899
   101.6,0.000785,0.000822,0.000199,0.000810,  60.898
   101.8,0.000786,0.000780,0.000379,0.000759,  60.893
   102.0,0.000785,0.000745,0.000510,0.000744,  60.898
   102.2,0.000798,0.000719,0.000590,0.000677,  60.895
   102.4,0.000814,0.000693,0.000690,0.000614,  60.897
   102.6,0.000841,0.000679,0.000765,0.000598,  60.895
   102.8,0.000869,0.000667,0.000824,0.000558,  60.899
   103.0,0.000903,0.000655,0.000858,0.000508,  60.896
   103.2,0.000928,0.000658,0.000818,0.000519,  60.897
   103.4,0.000953,0.000658,0.000761,0.000505,  60.899
   103.6,0.000968,0.000664,0.000696,0.000468,  60.907
   103.8,0.000986,0.000691,0.000596,0.000505,  60.920
   104.0,0.001002,0.000723,0.000463,0.000492,  60.935
   104.2,0.001014,0.000744,0.000372,0.000468,  60.945
   104.4,0.001027,0.000771,0.000289,0.000545,  60.959
   104.6,0.001039,0.000799,0.000180,0.000571,  60.975
   104.8,0.001048,0.000815,0.000115,0.000574,  60.985
   105.0,0.001057,0.000832,0.000082,0.000638,  60.992
   105.2,0.001067,0.000841,0.000017,0.000664,  61.001
   105.4,0.001073,0.000856,-0.000156,0.000666,  61.006
   105.6,0.001087,0.000867,-0.000347,0.000730,  60.990
   105.8,0.001093,0.000879,-0.000636,0.000730,  60.974
   106.0,0.001096,0.000886,-0.000709,0.000744,  60.954
   106.2,0.001097,0.000891,-0.000668,0.000770,  60.950
   106.4,0.001079,0.000902,-0.000560,0.000733,  60.946
   106.6,0.001049,0.000909,-0.000510,0.000770,  60.943
   106.8,0.001049,0.000908,-0.000459,0.000746,  60.943
   107.0,0.001059,0.000923,-0.000377,0.000759,  60.945
   107.2,0.001071,0.000925,-0.000393,0.000796,  60.945
   107.4,0.001096,0.000915,-0.000443,0.000772,  60.943
   107.6,0.001127,0.000911,-0.000518,0.000810,  60.939
   107.8,0.001174,0.000917,-0.000643,0.000810,  60.942
   108.0,0.001154,0.000909,-0.000594,0.000799,  60.933
   108.2,0.001117,0.000917,-0.000544,0.000836,  60.918
   108.4,0.001063,0.000917,-0.000453,0.000836,  60.911
   108.6,0.001009,0.000933,-0.000436,0.000799,  60.911
   108.8,0.000968,0.000960,-0.000453,0.000810,  60.910
   109.0,0.000923,0.000986,-0.000486,0.000770,  60.906
   109.2,0.000881,0.000996,-0.000396,0.000733,  60.912
   109.4,0.000867,0.000991,-0.000247,0.000733,  60.914
   109.6,0.000852,0.000980,-0.000090,0.000759,  60.908
   109.8,0.000832,0.000944,0.000059,0.000761,  60.909
   110.0,0.000827,0.000898,0.000215,0.000788,  60.918
   110.2,0.000822,0.000826,0.000387,0.000865,  60.913
   110.4,0.000818,0.000785,0.000594,0.000814,  60.916
   110.6,0.000838,0.000767,0.000833,0.000761,  60.913
   110.8,0.000860,0.000745,0.001097,0.000706,  60.911
   111.0,0.000876,0.000723,0.001114,0.000629,  60.911
   111.2,0.000901,0.000714,0.000997,0.000603,  60.913
   111.4,0.000919,0.000707,0.000765,0.000600,  60.911
   111.6,0.000954,0.000701,0.000683,0.000550,  60.908
   111.8,0.000976,0.000701,0.000609,0.000536,  60.914
   112.0,0.001001,0.000711,0.000543,0.000561,  60.917
   112.2,0.001025,0.000720,0.000511,0.000510,  60.923
   112.4,0.001044,0.000742,0.000487,0.000510,  60.935
   112.6,0.001059,0.000769,0.000512,0.000547,  60.945
   112.8,0.001076,0.000785,0.000513,0.000523,  60.962
   113.0,0.001091,0.000810,0.000472,0.000574,  60.971
   113.2,0.001101,0.000839,0.000456,0.000651,  60.977
   113.4,0.001114,0.000856,0.000415,0.000653,  60.985
   113.6,0.001123,0.000871,0.000357,0.000717,  60.991
   113.8,0.001127,0.000889,0.000259,0.000744,  60.996
   114.0,0.001137,0.000895,0.000202,0.000733,  60.988
   114.2,0.001143,0.000909,0.000169,0.000759,  60.968
   114.4,0.001146,0.000916,0.000112,0.000772,  60.961
   114.6,0.001149,0.000922,0.000046,0.000799,  60.952
   114.8,0.001137,0.000934,-0.000021,0.000812,  60.951
   115.0,0.001116,0.000943,-0.000087,0.000825,  60.950
   115.2,0.001088,0.000948,-0.000078,0.000812,  60.949
   115.4,0.001091,0.000951,-0.000045,0.000788,  60.944
   115.6,0.001103,0.000955,0.000031,0.000825,  60.949
   115.8,0.001128,0.000948,-0.000020,0.000839,  60.951
   116.0,0.001169,0.000937,-0.000136,0.000801,  60.945
   116.2,0.001209,0.000930,-0.000311,0.000814,  60.947
   116.4,0.001262,0.000929,-0.000394,0.000839,  60.944
   116.6,0.001245,0.000937,-0.000452,0.000814,  60.943
   116.8,0.001183,0.000955,-0.000477,0.000814,  60.938
   117.0,0.001077,0.000980,-0.000493,0.000814,  60.934
   117.2,0.001030,0.001010,-0.000452,0.000814,  60.929
   117.4,0.000987,0.001057,-0.000410,0.000788,  60.930
   117.6,0.000950,0.001060,-0.000351,0.000761,  60.930
   117.8,0.000926,0.001038,-0.000243,0.000761,  60.932
   118.0,0.000907,0.001011,-0.000104,0.000788,  60.937
   118.2,0.000902,0.000956,0.000078,0.000801,  60.936
   118.4,0.000882,0.000918,0.000177,0.000814,  60.933
   118.6,0.000881,0.000881,0.000249,0.000841,  60.941
   118.8,0.000882,0.000833,0.000296,0.000892,  60.940
   119.0,0.000881,0.000807,0.000436,0.000828,  60.939
   119.2,0.000904,0.000788,0.000610,0.000775,  60.938
   119.4,0.000936,0.000776,0.000784,0.000719,  60.934
   119.6,0.000954,0.000770,0.000825,0.000656,  60.943
   119.8,0.000971,0.000756,0.000801,0.000629,  60.937
   120.0,0.001000,0.000744,0.000710,0.000640,  60.941
   120.2,0.001025,0.000746,0.000652,0.000589,  60.942
   120.4,0.001039,0.000748,0.000578,0.000576,  60.941
   120.6,0.001061,0.000759,0.000462,0.000600,  60.945
   120.8,0.001087,0.000778,0.000353,0.000563,  60.952
   121.0,0.001098,0.000797,0.000229,0.000563,  60.956
   121.2,0.001113,0.000837,0.000071,0.000587,  60.967
   121.4,0.001130,0.000861,0.000064,0.000563,  60.975
   121.6,0.001135,0.000880,0.000123,0.000589,  60.982
   121.8,0.001149,0.000899,0.000215,0.000653,  60.988
   122.0,0.001162,0.000912,0.000191,0.000656,  60.992
   122.2,0.001164,0.000927,0.000109,0.000682,  60.989
   122.4,0.001178,0.000944,-0.000007,0.000746,  60.986
   122.6,0.001181,0.000950,-0.000196,0.000748,  60.978
   122.8,0.001179,0.000960,-0.000411,0.000775,  60.969
   123.0,0.001193,0.000973,-0.000676,0.000812,  60.969
   123.2,0.001196,0.000971,-0.000708,0.000801,  60.964
   123.4,0.001187,0.000978,-0.000600,0.000828,  60.964
   123.6,0.001173,0.000985,-0.000393,0.000828,  60.964
   123.8,0.001149,0.000993,-0.000359,0.000790,  60.963
   124.0,0.001159,0.000997,-0.000351,0.000804,  60.964
   124.2,0.001177,0.001003,-0.000426,0.000804,  60.963
   124.4,0.001208,0.001001,-0.000442,0.000841,  60.964
   124.6,0.001236,0.000987,-0.000451,0.000854,  60.964
   124.8,0.001264,0.000962,-0.000485,0.000867,  60.963
   125.0,0.001297,0.000965,-0.000485,0.000867,  60.967
   125.2,0.001264,0.000977,-0.000476,0.000867,  60.959
   125.4,0.001199,0.001005,-0.000434,0.000867,  60.956
   125.6,0.001103,0.001024,-0.000393,0.000854,  60.953
   125.8,0.001060,0.001050,-0.000351,0.000867,  60.951
   126.0,0.001026,0.001081,-0.000302,0.000854,  60.947
   126.2,0.001006,0.001117,-0.000261,0.000828,  60.950
   126.4,0.000984,0.001083,-0.000170,0.000854,  60.952
   126.6,0.000961,0.001030,-0.000047,0.000867,  60.950
   126.8,0.000953,0.000949,0.000077,0.000881,  60.955
   127.0,0.000944,0.000903,0.000275,0.000881,  60.953
   127.2,0.000930,0.000867,0.000490,0.000867,  60.956
   127.4,0.000935,0.000842,0.000745,0.000841,  60.953
   127.6,0.000944,0.000817,0.000894,0.000814,  60.954
   127.8,0.000959,0.000801,0.001001,0.000761,  60.956
   128.0,0.000989,0.000791,0.001051,0.000709,  60.956
   128.2,0.001007,0.000782,0.001018,0.000695,  60.958
   128.4,0.001021,0.000775,0.000894,0.000669,  60.957
   128.6,0.001050,0.000775,0.000711,0.000642,  60.963
   128.8,0.001075,0.000772,0.000670,0.000629,  60.960
   129.0,0.001100,0.000780,0.000671,0.000629,  60.962
   129.2,0.001126,0.000799,0.000689,0.000616,  60.964
   129.4,0.001150,0.000818,0.000706,0.000616,  60.968
   129.6,0.001179,0.000839,0.000749,0.000616,  60.975
   129.8,0.001195,0.000874,0.000790,0.000616,  60.981
   130.0,0.001207,0.000898,0.000866,0.000656,  60.983
   130.2,0.001215,0.000922,0.000966,0.000682,  60.992
   130.4,0.001232,0.000941,0.001058,0.000709,  60.992
   130.6,0.001253,0.000960,0.000975,0.000748,  60.995
   130.8,0.001261,0.000981,0.000809,0.000775,  60.985
   131.0,0.001270,0.000998,0.000559,0.000788,  60.978
   131.2,0.001290,0.001015,0.000452,0.000814,  60.976
   131.4,0.001292,0.001024,0.000361,0.000841,  60.973
   131.6,0.001298,0.001039,0.000320,0.000854,  60.975
   131.8,0.001305,0.001051,0.000287,0.000881,  60.977
   132.0,0.001292,0.001053,0.000270,0.000881,  60.972
   132.2,0.001282,0.001063,0.000278,0.000881,  60.979
   132.4,0.001271,0.001072,0.000336,0.000894,  60.972
   132.6,0.001276,0.001074,0.000403,0.000870,  60.976
   132.8,0.001301,0.001081,0.000469,0.000907,  60.975
   133.0,0.001342,0.001079,0.000536,0.000907,  60.974
   133.2,0.001341,0.001064,0.000594,0.000907,  60.974
   133.4,0.001349,0.001045,0.000636,0.000907,  60.978
   133.6,0.001347,0.001058,0.000636,0.000920,  60.975
   133.8,0.001308,0.001078,0.000594,0.000920,  60.973
   134.0,0.001260,0.001110,0.000543,0.000934,  60.973
   134.2,0.001186,0.001132,0.000518,0.000920,  60.972
   134.4,0.001145,0.001158,0.000509,0.000920,  60.973
   134.6,0.001125,0.001189,0.000508,0.000920,  60.973
   134.8,0.001103,0.001154,0.000523,0.000907,  60.973
   135.0,0.001080,0.001102,0.000157,0.000920,  60.975
   135.2,0.001078,0.001028,-0.000374,0.000947,  60.973
   135.4,0.001075,0.000995,-0.001030,0.000973,  60.973
   135.6,0.001069,0.000964,-0.000874,0.000960,  60.972
   135.8,0.001069,0.000953,-0.000387,0.000920,  60.979
   136.0,0.001077,0.000942,0.000457,0.000854,  60.973
   136.2,0.001092,0.000924,0.000781,0.000828,  60.974
   136.4,0.001106,0.000912,0.001022,0.000788,  60.975
   136.6,0.001144,0.000902,0.001164,0.000748,  60.973
   136.8,0.001175,0.000892,0.001272,0.000735,  60.973
   137.0,0.001206,0.000889,0.001305,0.000722,  60.974
   137.2,0.001248,0.000892,0.001255,0.000709,  60.975
   137.4,0.001272,0.000900,0.001314,0.000722,  60.977
   137.6,0.001294,0.000906,0.001414,0.000709,  60.973
   137.8,0.001302,0.000918,0.001530,0.000695,  60.979
   138.0,0.001322,0.000942,0.001564,0.000695,  60.979
   138.2,0.001336,0.000962,0.001590,0.000695,  60.982
   138.4,0.001354,0.001001,0.001597,0.000682,  60.985
   138.6,0.001380,0.001030,0.001648,0.000709,  60.988
   138.8,0.001396,0.001047,0.001689,0.000761,  60.992
   139.0,0.001405,0.001067,0.001748,0.000801,  60.988
   139.2,0.001414,0.001091,0.001715,0.000828,  60.986
   139.4,0.001427,0.001106,0.001639,0.000854,  60.981
   139.6,0.001433,0.001120,0.001505,0.000867,  60.978
   139.8,0.001449,0.001129,0.001463,0.000894,  60.973
   140.0,0.001456,0.001140,0.001471,0.000907,  60.978
   140.2,0.001448,0.001158,0.001495,0.000934,  60.980
   140.4,0.001456,0.001162,0.001554,0.000960,  60.980
   140.6,0.001456,0.001172,0.001629,0.000973,  60.977
   140.8,0.001445,0.001180,0.001762,0.000973,  60.982
   141.0,0.001446,0.001179,0.001837,0.000987,  60.972
   141.2,0.001465,0.001190,0.001903,0.000987,  60.973
   141.4,0.001485,0.001192,0.001960,0.000987,  60.976
   141.6,0.001524,0.001184,0.002018,0.000987,  60.974
   141.8,0.001508,0.001182,0.002068,0.000963,  60.977
   142.0,0.001464,0.001171,0.002101,0.000963,  60.974
   142.2,0.001409,0.001179,0.002125,0.000976,  60.975
   142.4,0.001372,0.001209,0.002133,0.000976,  60.969
   142.6,0.001335,0.001240,0.002123,0.000963,  60.971
   142.8,0.001303,0.001239,0.002189,0.000936,  60.969
   143.0,0.001289,0.001232,0.002280,0.000936,  60.966
   143.2,0.001276,0.001211,0.002405,0.000936,  60.968
   143.4,0.001267,0.001177,0.002539,0.000936,  60.967
   143.6,0.001268,0.001134,0.002654,0.000963,  60.969
   143.8,0.001262,0.001079,0.002761,0.000989,  60.968
   144.0,0.001259,0.001051,0.002867,0.001002,  60.965
   144.2,0.001252,0.001033,0.003058,0.000989,  60.963
   144.4,0.001258,0.001029,0.003283,0.000936,  60.967
   144.6,0.001268,0.001029,0.003541,0.000843,  60.964
   144.8,0.001285,0.001021,0.003599,0.000841,  60.963
   145.0,0.001319,0.001014,0.003583,0.000814,  60.964
   145.2,0.001370,0.001012,0.003490,0.000788,  60.960
   145.4,0.001403,0.001012,0.003548,0.000812,  60.964
   145.6,0.001450,0.001014,0.003599,0.000799,  60.961
   145.8,0.001501,0.001014,0.003716,0.000761,  60.961
   146.0,0.001534,0.001025,0.003791,0.000748,  60.962
   146.2,0.001578,0.001047,0.003857,0.000748,  60.960
   146.4,0.001615,0.001072,0.003916,0.000748,  60.961
   146.6,0.001652,0.001098,0.003991,0.000735,  60.965
   146.8,0.001686,0.001130,0.004083,0.000735,  60.977
   147.0,0.001728,0.001170,0.004182,0.000748,  60.980
   147.2,0.001766,0.001201,0.004223,0.000775,  60.984
   147.4,0.001801,0.001226,0.004206,0.000814,  60.982
   147.6,0.001835,0.001265,0.004153,0.000867,  60.980
   147.8,0.001861,0.001296,0.004209,0.000907,  60.973
   148.0,0.001889,0.001316,0.004291,0.000934,  60.977
   148.2,0.001906,0.001350,0.004364,0.000960,  60.970
   148.4,0.001931,0.001377,0.004588,0.001000,  60.972
   148.6,0.001955,0.001393,0.004921,0.001013,  60.962
   148.8,0.001966,0.001415,0.005322,0.001013,  60.965
   149.0,0.001979,0.001438,0.005663,0.001026,  60.965
   149.2,0.002000,0.001453,0.006002,0.001040,  60.967
   149.4,0.002016,0.001465,0.006374,0.001026,  60.964
   149.6,0.002031,0.001477,0.006824,0.001002,  60.964
   149.8,0.002065,0.001489,0.007268,0.001002,  60.963
   150.0,0.002102,0.001493,0.007755,0.001016,  60.959
   150.2,0.002149,0.001495,0.008074,0.000991,  60.960
   150.4,0.002133,0.001499,0.008309,0.000991,  60.959
   150.6,0.002084,0.001505,0.008469,0.001029,  60.960
   150.8,0.002010,0.001523,0.008712,0.001016,  60.956
   151.0,0.001985,0.001559,0.008973,0.001016,  60.951
   151.2,0.001966,0.001605,0.009257,0.000989,  60.946
   151.4,0.001968,0.001587,0.009575,0.000976,  60.947
   151.6,0.001968,0.001557,0.009911,0.000938,  60.942
   151.8,0.001969,0.001506,0.010296,0.000976,  60.935
   152.0,0.001992,0.001471,0.010599,0.000952,  60.941
   152.2,0.002011,0.001449,0.010878,0.000965,  60.944
   152.4,0.002026,0.001427,0.011149,0.000928,  60.940
   152.6,0.002052,0.001415,0.011369,0.000978,  60.935
   152.8,0.002077,0.001415,0.011588,0.000952,  60.938
   153.0,0.002102,0.001425,0.011807,0.000861,  60.936
   153.2,0.002127,0.001430,0.012016,0.000832,  60.932
   153.4,0.002182,0.001436,0.012073,0.000806,  60.933
   153.6,0.002250,0.001444,0.012044,0.000755,  60.930
   153.8,0.002328,0.001455,0.011947,0.000779,  60.931
   154.0,0.002408,0.001469,0.012174,0.000779,  60.932
   154.2,0.002495,0.001481,0.012527,0.000716,  60.927
   154.4,0.002584,0.001495,0.012993,0.000740,  60.928
   154.6,0.002683,0.001520,0.013331,0.000753,  60.932
   154.8,0.002782,0.001560,0.013702,0.000702,  60.939
   155.0,0.002888,0.001606,0.014074,0.000740,  60.940
   155.2,0.002984,0.001648,0.014542,0.000753,  60.953
   155.4,0.003080,0.001706,0.015098,0.000702,  60.953
   155.6,0.003169,0.001763,0.015715,0.000740,  60.961
   155.8,0.003264,0.001814,0.016202,0.000766,  60.968
   156.0,0.003334,0.001879,0.016653,0.000769,  60.966
   156.2,0.003402,0.001944,0.017059,0.000846,  60.962
   156.4,0.003468,0.002015,0.017796,0.000885,  60.960
   156.6,0.003540,0.002096,0.018655,0.000875,  60.950
   156.8,0.003608,0.002187,0.019688,0.000925,  60.947
   157.0,0.003676,0.002242,0.020764,0.000952,  60.947
   157.2,0.003741,0.002283,0.021895,0.000928,  60.943
   157.4,0.003800,0.002320,0.023113,0.000978,  60.942
   157.6,0.003866,0.002361,0.024692,0.000991,  60.939
   157.8,0.003921,0.002399,0.026461,0.000967,  60.941
   158.0,0.003983,0.002440,0.028445,0.001018,  60.940
   158.2,0.004050,0.002478,0.029787,0.001031,  60.935
   158.4,0.004101,0.002514,0.030887,0.001031,  60.938
   158.6,0.004151,0.002555,0.031732,0.001069,  60.943
   158.8,0.004208,0.002591,0.032624,0.001082,  60.939
   159.0,0.004210,0.002619,0.033403,0.001082,  60.941
   159.2,0.004191,0.002650,0.034034,0.001082,  60.936
   159.4,0.004158,0.002690,0.034979,0.001082,  60.930
   159.6,0.004174,0.002736,0.036014,0.001069,  60.920
   159.8,0.004209,0.002781,0.037135,0.001042,  60.920
   160.0,0.004278,0.002776,0.037974,0.001016,  60.908
   160.2,0.004324,0.002753,0.038727,0.000991,  60.912
   160.4,0.004389,0.002704,0.039372,0.001042,  60.910
   160.6,0.004467,0.002702,0.040084,0.001031,  60.912
   160.8,0.004527,0.002706,0.040799,0.001031,  60.911
   161.0,0.004603,0.002722,0.041493,0.000967,  60.909
   161.2,0.004672,0.002745,0.042064,0.000978,  60.906
   161.4,0.004745,0.002777,0.042563,0.000965,  60.904
   161.6,0.004836,0.002816,0.042961,0.000888,  60.898
   161.8,0.004920,0.002848,0.043321,0.000872,  60.902
   162.0,0.005040,0.002871,0.044022,0.000859,  60.908
   162.2,0.005200,0.002903,0.044822,0.000808,  60.905
   162.4,0.005372,0.002930,0.045723,0.000832,  60.910
   162.6,0.005535,0.002970,0.046748,0.000832,  60.908
   162.8,0.005721,0.003018,0.047876,0.000782,  60.912
   163.0,0.005911,0.003073,0.049161,0.000806,  60.907
   163.2,0.006131,0.003139,0.050361,0.000806,  60.917
   163.4,0.006380,0.003223,0.051527,0.000769,  60.920
   163.6,0.006652,0.003326,0.052749,0.000806,  60.928
   163.8,0.006894,0.003421,0.054004,0.000806,  60.937
   164.0,0.007155,0.003526,0.055271,0.000769,  60.945
   164.2,0.007410,0.003636,0.056559,0.000806,  60.951
   164.4,0.007582,0.003765,0.057994,0.000832,  60.953
   164.6,0.007709,0.003902,0.059498,0.000848,  60.948
   164.8,0.007813,0.004053,0.061076,0.000938,  60.936
   165.0,0.007870,0.004201,0.063049,0.000965,  60.934
   165.2,0.008016,0.004364,0.065261,0.000967,  60.934
   165.4,0.008182,0.004543,0.067715,0.001018,  60.929
   165.6,0.008365,0.004655,0.070530,0.001044,  60.927
   165.8,0.008518,0.004746,0.073683,0.001034,  60.929
   166.0,0.008663,0.004821,0.077162,0.001047,  60.927
   166.2,0.008808,0.004909,0.081051,0.001073,  60.924
   166.4,0.008937,0.005000,0.085324,0.001100,  60.927
   166.6,0.009052,0.005089,0.090009,0.001113,  60.929
   166.8,0.009166,0.005172,0.092957,0.001113,  60.927
   167.0,0.009273,0.005266,0.095188,0.001113,  60.924
   167.2,0.009370,0.005350,0.096719,0.001113,  60.922
   167.4,0.009469,0.005422,0.098776,0.001113,  60.926
   167.6,0.009535,0.005496,0.100759,0.001113,  60.924
   167.8,0.009582,0.005556,0.102606,0.001113,  60.923
   168.0,0.009607,0.005618,0.104830,0.001100,  60.918
   168.2,0.009708,0.005681,0.107199,0.001087,  60.906
   168.4,0.009837,0.005735,0.109686,0.001047,  60.904
   168.6,0.009988,0.005753,0.111805,0.001047,  60.904
   168.8,0.010133,0.005771,0.113786,0.001060,  60.900
   169.0,0.010287,0.005761,0.115611,0.001073,  60.905
   169.2,0.010448,0.005799,0.117012,0.001087,  60.902
   169.4,0.010612,0.005861,0.118138,0.001073,  60.904
   169.6,0.010775,0.005941,0.118993,0.001034,  60.899
   169.8,0.010939,0.006012,0.120024,0.000981,  60.904
   170.0,0.011116,0.006099,0.121007,0.000967,  60.901
   170.2,0.011299,0.006200,0.121897,0.000941,  60.897
   170.4,0.011482,0.006286,0.122770,0.000914,  60.899
   170.6,0.011722,0.006378,0.124558,0.000914,  60.896
   170.8,0.011994,0.006469,0.126648,0.000901,  60.897
   171.0,0.012305,0.006551,0.129095,0.000888,  60.899
   171.2,0.012622,0.006630,0.131467,0.000888,  60.902
   171.4,0.012957,0.006708,0.133979,0.000888,  60.905
   171.6,0.013326,0.006783,0.136641,0.000888,  60.906
   171.8,0.013754,0.006917,0.139093,0.000875,  60.911
   172.0,0.014221,0.007066,0.141528,0.000875,  60.918
   172.2,0.014730,0.007240,0.143946,0.000912,  60.928
   172.4,0.015161,0.007413,0.146708,0.000912,  60.927
   172.6,0.015556,0.007614,0.149580,0.000888,  60.940
   172.8,0.015933,0.007819,0.152635,0.000914,  60.947
   173.0,0.016230,0.008058,0.155774,0.000954,  60.943
   173.2,0.016468,0.008319,0.158968,0.000994,  60.931
   173.4,0.016668,0.008608,0.162296,0.001034,  60.927
   173.6,0.016811,0.008871,0.166316,0.001060,  60.927
   173.8,0.017085,0.009125,0.170745,0.001087,  60.923
   174.0,0.017393,0.009389,0.175581,0.001100,  60.922
   174.2,0.017717,0.009588,0.181260,0.001140,  60.923
   174.4,0.017985,0.009753,0.187587,0.001153,  60.917
   174.6,0.018248,0.009889,0.194643,0.001179,  60.924
   174.8,0.018502,0.010059,0.201384,0.001219,  60.920
   175.0,0.018713,0.010229,0.208326,0.001232,  60.922
   175.2,0.018917,0.010397,0.215475,0.001246,  60.915
   175.4,0.019097,0.010557,0.220655,0.001259,  60.920
   175.6,0.019260,0.010710,0.224890,0.001272,  60.915
   175.8,0.019422,0.010858,0.228115,0.001272,  60.916
   176.0,0.019560,0.010989,0.232213,0.001272,  60.920
   176.2,0.019704,0.011101,0.236188,0.001272,  60.914
   176.4,0.019856,0.011209,0.240114,0.001259,  60.917
   176.6,0.020002,0.011312,0.244358,0.001246,  60.910
   176.8,0.020214,0.011399,0.248717,0.001232,  60.900
   177.0,0.020465,0.011480,0.253217,0.001206,  60.894
   177.2,0.020760,0.011554,0.256725,0.001206,  60.891
   177.4,0.021020,0.011615,0.259799,0.001168,  60.892
   177.6,0.021285,0.011656,0.262406,0.001195,  60.890
   177.8,0.021567,0.011757,0.264893,0.001182,  60.888
   178.0,0.021850,0.011891,0.267022,0.001155,  60.893
   178.2,0.022152,0.012045,0.268818,0.001091,  60.890
   178.4,0.022464,0.012188,0.271072,0.001076,  60.889
   178.6,0.022758,0.012341,0.273385,0.001062,  60.885
   178.8,0.023070,0.012510,0.275772,0.001049,  60.890
   179.0,0.023375,0.012676,0.278298,0.001036,  60.882
   179.2,0.023754,0.012837,0.280932,0.001049,  60.890
   179.4,0.024187,0.013011,0.283628,0.001012,  60.888
   179.6,0.024655,0.013189,0.286477,0.001036,  60.888
   179.8,0.025150,0.013367,0.290337,0.001049,  60.890
   180.0,0.025685,0.013550,0.294652,0.001012,  60.897
   180.2,0.026257,0.013726,0.299427,0.001036,  60.904
   180.4,0.026891,0.013898,0.303745,0.001049,  60.909
   180.6,0.027571,0.014078,0.308073,0.001012,  60.913
   180.8,0.028313,0.014253,0.312328,0.001049,  60.921
   181.0,0.028905,0.014512,0.316609,0.001076,  60.930
   181.2,0.029443,0.014816,0.320868,0.001038,  60.933
   181.4,0.029941,0.015155,0.325093,0.001089,  60.938
   181.6,0.030416,0.015515,0.330337,0.001115,  60.927
   181.8,0.030861,0.015916,0.336033,0.001118,  60.920
   182.0,0.031275,0.016344,0.342273,0.001195,  60.916
   182.2,0.031652,0.016703,0.349296,0.001222,  60.912
   182.4,0.031999,0.017049,0.356958,0.001211,  60.915
   182.6,0.032310,0.017376,0.365377,0.001288,  60.908
   182.8,0.032592,0.017657,0.374554,0.001328,  60.912
   183.0,0.032947,0.017917,0.384582,0.001304,  60.912
   183.2,0.033309,0.018134,0.395474,0.001354,  60.911
   183.4,0.033684,0.018378,0.404975,0.001381,  60.912
   183.6,0.033993,0.018631,0.414133,0.001370,  60.912
   183.8,0.034272,0.018884,0.423041,0.001420,  60.914
   184.0,0.034533,0.019106,0.430491,0.001447,  60.908
   184.2,0.034766,0.019322,0.436931,0.001410,  60.910
   184.4,0.034969,0.019528,0.442323,0.001447,  60.914
   184.6,0.035157,0.019706,0.448545,0.001447,  60.911
   184.8,0.035403,0.019865,0.454584,0.001396,  60.913
   185.0,0.035664,0.020006,0.460431,0.001407,  60.908
   185.2,0.035944,0.020132,0.466583,0.001394,  60.904
   185.4,0.036282,0.020249,0.472718,0.001330,  60.894
   185.6,0.036653,0.020349,0.478843,0.001354,  60.891
   185.8,0.037064,0.020466,0.483695,0.001341,  60.887
   186.0,0.037446,0.020593,0.487809,0.001290,  60.880
   186.2,0.037829,0.020723,0.491242,0.001314,  60.882
   186.4,0.038215,0.020896,0.495018,0.001288,  60.882
   186.6,0.038629,0.021108,0.498635,0.001224,  60.879
   186.8,0.039042,0.021345,0.501985,0.001235,  60.879
   187.0,0.039463,0.021556,0.505345,0.001222,  60.882
   187.2,0.039885,0.021784,0.508678,0.001208,  60.881
   187.4,0.040296,0.022011,0.511839,0.001184,  60.882
   187.6,0.040694,0.022242,0.516616,0.001222,  60.879
   187.8,0.041214,0.022482,0.522038,0.001235,  60.883
   188.0,0.041789,0.022729,0.528304,0.001235,  60.879
   188.2,0.042416,0.022968,0.533106,0.001222,  60.884
   188.4,0.043087,0.023213,0.537565,0.001235,  60.889
   188.6,0.043808,0.023466,0.541677,0.001211,  60.889
   188.8,0.044585,0.023749,0.545382,0.001261,  60.897
   189.0,0.045362,0.024061,0.550944,0.001275,  60.906
   189.2,0.046175,0.024396,0.557104,0.001237,  60.910
   189.4,0.047018,0.024699,0.563766,0.001288,  60.916
   189.6,0.047706,0.025003,0.570121,0.001314,  60.921
   189.8,0.048349,0.025314,0.576524,0.001290,  60.920
   190.0,0.048931,0.025621,0.582974,0.001341,  60.915
   190.2,0.049519,0.026053,0.589897,0.001381,  60.909
   190.4,0.050099,0.026547,0.597126,0.001396,  60.907
   190.6,0.050662,0.027089,0.604493,0.001460,  60.903
   190.8,0.051190,0.027518,0.613562,0.001487,  60.906
   191.0,0.051710,0.027909,0.623569,0.001489,  60.910
   191.2,0.052213,0.028276,0.634661,0.001540,  60.905
   191.4,0.052609,0.028623,0.646054,0.001580,  60.907
   191.6,0.052952,0.028945,0.658202,0.001556,  60.907
   191.8,0.053219,0.029239,0.671094,0.001620,  60.906
   192.0,0.053446,0.029553,0.682091,0.001646,  60.904
   192.2,0.053796,0.029868,0.692329,0.001622,  60.902
   192.4,0.054187,0.030174,0.701746,0.001673,  60.904
   192.6,0.054595,0.030443,0.710520,0.001686,  60.904
   192.8,0.054866,0.030685,0.718527,0.001649,  60.904
   193.0,0.055097,0.030901,0.725652,0.001686,  60.909
   193.2,0.055265,0.031116,0.733300,0.001649,  60.908
   193.4,0.055568,0.031309,0.740806,0.001635,  60.907
   193.6,0.055932,0.031480,0.748154,0.001609,  60.902
   193.8,0.056331,0.031625,0.755178,0.001558,  60.901
   194.0,0.056748,0.031757,0.761945,0.001569,  60.887
   194.2,0.057189,0.031867,0.768346,0.001556,  60.888
   194.4,0.057663,0.032038,0.773566,0.001505,  60.884
   194.6,0.058102,0.032227,0.778174,0.001516,  60.882
   194.8,0.058527,0.032436,0.781745,0.001489,  60.883
   195.0,0.058964,0.032671,0.786031,0.001439,  60.883
   195.2,0.059433,0.032932,0.790268,0.001449,  60.878
   195.4,0.059920,0.033219,0.794341,0.001436,  60.880
   195.6,0.060429,0.033475,0.798762,0.001436,  60.880
   195.8,0.060902,0.033734,0.803349,0.001386,  60.879
   196.0,0.061366,0.034004,0.808098,0.001436,  60.874
   196.2,0.061823,0.034278,0.813846,0.001436,  60.884
   196.4,0.062416,0.034566,0.820228,0.001436,  60.883
   196.6,0.063066,0.034866,0.827367,0.001449,  60.881
   196.8,0.063785,0.035146,0.832824,0.001463,  60.881
   197.0,0.064533,0.035421,0.837793,0.001439,  60.890
   197.2,0.065329,0.035694,0.842247,0.001489,  60.896
   197.4,0.066177,0.036023,0.846055,0.001503,  60.895
   197.6,0.066980,0.036378,0.852656,0.001478,  60.900
   197.8,0.067770,0.036759,0.859716,0.001516,  60.904
   198.0,0.068561,0.037115,0.867732,0.001516,  60.909
   198.2,0.069271,0.037467,0.874575,0.001492,  60.915
   198.4,0.069921,0.037813,0.881286,0.001542,  60.910
   198.6,0.070513,0.038166,0.887744,0.001556,  60.904
   198.8,0.071154,0.038622,0.895290,0.001558,  60.907
   199.0,0.071784,0.039109,0.903341,0.001649,  60.899
   199.2,0.072412,0.039636,0.911679,0.001688,  60.903
   199.4,0.072950,0.040056,0.921542,0.001691,  60.899
   199.6,0.073445,0.040454,0.932337,0.001768,  60.899
   199.8,0.073900,0.040829,0.944131,0.001795,  60.903
   200.0,0.074279,0.041199,0.955686,0.001784,  60.899
   200.2,0.074597,0.041559,0.967123,0.001848,  60.903
   200.4,0.074856,0.041906,0.978892,0.001874,  60.904
   200.6,0.075068,0.042222,0.989495,0.001850,  60.904
   200.8,0.075390,0.042536,0.999214,0.001901,  60.901
   201.0,0.075726,0.042819,1.008303,0.001914,  60.899
   201.2,0.076085,0.043064,1.016313,0.001890,  60.897
   201.4,0.076396,0.043295,1.022777,0.001927,  60.897
   201.6,0.076701,0.043494,1.028336,0.001914,  60.901
   201.8,0.077002,0.043709,1.035455,0.001863,  60.903
   202.0,0.077369,0.043934,1.042283,0.001888,  60.902
   202.2,0.077784,0.044149,1.049387,0.001861,  60.896
   202.4,0.078233,0.044320,1.056205,0.001810,  60.892
   202.6,0.078646,0.044470,1.062541,0.001821,  60.886
   202.8,0.079077,0.044599,1.068758,0.001795,  60.883
   203.0,0.079509,0.044799,1.074122,0.001744,  60.876
   203.2,0.079937,0.045019,1.079162,0.001768,  60.881
   203.4,0.080381,0.045267,1.083273,0.001741,  60.877
   203.6,0.080821,0.045511,1.087479,0.001704,  60.878
   203.8,0.081266,0.045761,1.091343,0.001728,  60.879
   204.0,0.081733,0.046022,1.094660,0.001728,  60.871
   204.2,0.082193,0.046275,1.099779,0.001728,  60.872
   204.4,0.082628,0.046523,1.105363,0.001691,  60.872
   204.6,0.083064,0.046774,1.111633,0.001728,  60.873
   204.8,0.083492,0.047040,1.117805,0.001728,  60.863
   205.0,0.084040,0.047310,1.123856,0.001741,  60.867
   205.2,0.084660,0.047593,1.130001,0.001741,  60.871
   205.4,0.085340,0.047860,1.135336,0.001755,  60.873
   205.6,0.086021,0.048117,1.140050,0.001731,  60.878
   205.8,0.086753,0.048377,1.144372,0.001781,  60.877
   206.0,0.087508,0.048695,1.148045,0.001781,  60.877
   206.2,0.088204,0.049034,1.154086,0.001757,  60.879
   206.4,0.088886,0.049408,1.160227,0.001808,  60.878
   206.6,0.089558,0.049820,1.166930,0.001781,  60.883
   206.8,0.090186,0.050262,1.172768,0.001757,  60.880
   207.0,0.090792,0.050747,1.178677,0.001784,  60.879
   207.2,0.091376,0.051123,1.184423,0.001810,  60.874
   207.4,0.091930,0.051456,1.190780,0.001813,  60.875
   207.6,0.092466,0.051758,1.196728,0.001853,  60.871
   207.8,0.092987,0.052028,1.202773,0.001943,  60.874
   208.0,0.093437,0.052381,1.211237,0.001959,  60.875
   208.2,0.093853,0.052750,1.220407,0.001999,  60.872
   208.4,0.094234,0.053133,1.230876,0.002063,  60.869
   208.6,0.094578,0.053471,1.240167,0.002065,  60.872
   208.8,0.094903,0.053798,1.249378,0.002092,  60.869
   209.0,0.095194,0.054126,1.258186,0.002129,  60.868
   209.2,0.095450,0.054408,1.266322,0.002118,  60.868
   209.4,0.095680,0.054652,1.273400,0.002145,  60.868
   209.6,0.095891,0.054889,1.279686,0.002196,  60.867
   209.8,0.096140,0.055096,1.286938,0.002158,  60.866
   210.0,0.096404,0.055276,1.293966,0.002145,  60.860
   210.2,0.096662,0.055437,1.300447,0.002169,  60.866
   210.4,0.096946,0.055596,1.307041,0.002132,  60.864
   210.6,0.097284,0.055742,1.312380,0.002105,  60.862
   210.8,0.097646,0.055879,1.317460,0.002103,  60.858
   211.0,0.098039,0.056052,1.321941,0.002052,  60.851
   211.2,0.098393,0.056240,1.325108,0.002052,  60.822
   211.4,0.098733,0.056448,1.327273,0.002063,  60.816
   211.6,0.099076,0.056653,1.331143,0.002012,  60.811
   211.8,0.099423,0.056872,1.334685,0.001999,  60.812
   212.0,0.099764,0.057107,1.338255,0.002010,  60.801
   212.2,0.100116,0.057313,1.342185,0.001972,  60.801
   212.4,0.100464,0.057521,1.346492,0.001972,  60.798
   212.6,0.100817,0.057721,1.350468,0.001996,  60.790
   212.8,0.101170,0.057924,1.354876,0.001959,  60.783
   213.0,0.101500,0.058136,1.359330,0.001983,  60.788
   213.2,0.101818,0.058342,1.363839,0.002007,  60.780
   213.4,0.102121,0.058551,1.368043,0.001970,  60.773
   213.6,0.102549,0.058759,1.371537,0.002020,  60.777
   213.8,0.103032,0.058974,1.374312,0.002020,  60.777
   214.0,0.103566,0.059180,1.378595,0.002020,  60.774
   214.2,0.104086,0.059376,1.382501,0.002010,  60.780
   214.4,0.104621,0.059583,1.386420,0.002034,  60.781
   214.6,0.105169,0.059833,1.390802,0.002047,  60.772
   214.8,0.105713,0.060105,1.394838,0.002060,  60.777
   215.0,0.106247,0.060404,1.398919,0.002047,  60.775
   215.2,0.106773,0.060720,1.402625,0.002023,  60.764
   215.4,0.107260,0.061067,1.405115,0.002012,  60.759
   215.6,0.107709,0.061432,1.408461,0.002025,  60.760
   215.8,0.108131,0.061768,1.410156,0.002089,  60.763
   216.0,0.108534,0.062102,1.414401,0.002092,  60.762
   216.2,0.108917,0.062435,1.418273,0.002145,  60.757
   216.4,0.109284,0.062704,1.423049,0.002222,  60.759
   216.6,0.109600,0.062942,1.428303,0.002225,  60.757
   216.8,0.109897,0.063148,1.434506,0.002265,  60.757
   217.0,0.110162,0.063320,1.440361,0.002329,  60.754
   217.2,0.110404,0.063559,1.445402,0.002318,  60.751
   217.4,0.110630,0.063798,1.450062,0.002344,  60.750
   217.6,0.110840,0.064042,1.454327,0.002395,  60.743
   217.8,0.111055,0.064240,1.459973,0.002384,  60.747
   218.0,0.111265,0.064416,1.464704,0.002398,  60.742
   218.2,0.111479,0.064575,1.470442,0.002448,  60.731
   218.4,0.111726,0.064721,1.474878,0.002411,  60.736
   218.6,0.111996,0.064847,1.477914,0.002398,  60.730
   218.8,0.112286,0.064952,1.480016,0.002395,  60.733
   219.0,0.112501,0.065076,1.483993,0.002344,  60.732
   219.2,0.112688,0.065186,1.487967,0.002331,  60.720
   219.4,0.112844,0.065296,1.491416,0.002342,  60.716
   219.6,0.112975,0.065442,1.494451,0.002291,  60.704
   219.8,0.113171,0.065608,1.497007,0.002278,  60.693
   220.0,0.113366,0.065801,1.498557,0.002289,  60.684
   220.2,0.113577,0.065952,1.500602,0.002251,  60.676
   220.4,0.113769,0.066096,1.502141,0.002238,  60.668
   220.6,0.113965,0.066245,1.504211,0.002275,  60.659
   220.8,0.114168,0.066380,1.506819,0.002251,  60.654
   221.0,0.114361,0.066507,1.509973,0.002238,  60.623
   221.2,0.114557,0.066631,1.513695,0.002262,  60.614
   221.4,0.114756,0.066759,1.516376,0.002225,  60.610
   221.6,0.114925,0.066880,1.519090,0.002225,  60.597
   221.8,0.115101,0.067005,1.520745,0.002249,  60.588
   222.0,0.115261,0.067137,1.523478,0.002225,  60.588
   222.2,0.115498,0.067259,1.525110,0.002225,  60.583
   222.4,0.115786,0.067381,1.526205,0.002262,  60.585
   222.6,0.116099,0.067508,1.527856,0.002238,  60.586
   222.8,0.116393,0.067627,1.529521,0.002238,  60.586
   223.0,0.116710,0.067735,1.530635,0.002275,  60.576
   223.2,0.117028,0.067885,1.532302,0.002238,  60.575
   223.4,0.117346,0.068046,1.533977,0.002238,  60.569
   223.6,0.117684,0.068226,1.534531,0.002201,  60.562
   223.8,0.118019,0.068412,1.535650,0.002238,  60.550
   224.0,0.118309,0.068611,1.537353,0.002214,  60.542
   224.2,0.118576,0.068825,1.537928,0.002278,  60.539
   224.4,0.118825,0.069034,1.539094,0.002291,  60.543
   224.6,0.119060,0.069253,1.539694,0.002280,  60.541
   224.8,0.119263,0.069478,1.540333,0.002358,  60.534
   225.0,0.119460,0.069673,1.540403,0.002398,  60.534
   225.2,0.119635,0.069854,1.542100,0.002387,  60.528
   225.4,0.119797,0.070026,1.544364,0.002438,  60.527
   225.6,0.119943,0.070177,1.547188,0.002464,  60.521
   225.8,0.120073,0.070308,1.550070,0.002467,  60.516
   226.0,0.120202,0.070422,1.552392,0.002517,  60.511
   226.2,0.120312,0.070525,1.554743,0.002531,  60.502
   226.4,0.120454,0.070614,1.557122,0.002507,  60.502
   226.6,0.120624,0.070695,1.559522,0.002557,  60.498
   226.8,0.120794,0.070757,1.560746,0.002557,  60.493
   227.0,0.120953,0.070840,1.562549,0.002507,  60.489
   227.2,0.121099,0.070930,1.564971,0.002531,  60.482
   227.4,0.121248,0.071022,1.566187,0.002541,  60.478
   227.6,0.121358,0.071111,1.567406,0.002504,  60.479
   227.8,0.121440,0.071206,1.568644,0.002477,  60.465
   228.0,0.121509,0.071293,1.568675,0.002502,  60.456
   228.2,0.121561,0.071387,1.569878,0.002477,  60.417
   228.4,0.121598,0.071482,1.571068,0.002477,  60.407
   228.6,0.121618,0.071583,1.571634,0.002515,  60.393
   228.8,0.121614,0.071661,1.572845,0.002477,  60.378
   229.0,0.121643,0.071731,1.574677,0.002477,  60.363
   229.2,0.121700,0.071787,1.575912,0.002488,  60.346
   229.4,0.121756,0.071835,1.575959,0.002451,  60.341
   229.6,0.121805,0.071871,1.576036,0.002464,  60.328
   229.8,0.121846,0.071902,1.576160,0.002451,  60.308
   230.0,0.121902,0.071930,1.577391,0.002413,  60.297
   230.2,0.121938,0.071960,1.577973,0.002464,  60.280
   230.4,0.121959,0.071994,1.579133,0.002451,  60.275
   230.6,0.121991,0.072025,1.580334,0.002413,  60.270
   230.8,0.122028,0.072061,1.579687,0.002464,  60.264
   231.0,0.122065,0.072100,1.579040,0.002451,  60.248
   231.2,0.122118,0.072131,1.579001,0.002413,  60.240
   231.4,0.122199,0.072165,1.578340,0.002464,  60.238
   231.6,0.122297,0.072204,1.577066,0.002451,  60.226
   231.8,0.122410,0.072235,1.575850,0.002413,  60.221
   232.0,0.122540,0.072268,1.575279,0.002464,  60.211
   232.2,0.122674,0.072302,1.572900,0.002451,  60.185
   232.4,0.122817,0.072352,1.572278,0.002427,  60.175
   232.6,0.122926,0.072411,1.572247,0.002477,  60.169
   232.8,0.123016,0.072481,1.572201,0.002477,  60.166
   233.0,0.123090,0.072559,1.571588,0.002491,  60.162
   233.2,0.123168,0.072666,1.569785,0.002504,  60.146
   233.4,0.123254,0.072786,1.568005,0.002531,  60.145
   233.6,0.123343,0.072859,1.567383,0.002544,  60.134
   233.8,0.123409,0.072932,1.566148,0.002533,  60.130
   234.0,0.123474,0.072985,1.565505,0.002571,  60.124
   234.2,0.123539,0.073035,1.565497,0.002584,  60.119
   234.4,0.123548,0.073078,1.565490,0.002560,  60.109
   234.6,0.123535,0.073117,1.566715,0.002597,  60.101
   234.8,0.123510,0.073156,1.566730,0.002610,  60.100
   235.0,0.123560,0.073198,1.566715,0.002586,  60.089
   235.2,0.123646,0.073240,1.566715,0.002624,  60.079
   235.4,0.123772,0.073282,1.565490,0.002624,  60.079
   235.6,0.123821,0.073316,1.565466,0.002600,  60.068
   235.8,0.123858,0.073346,1.565459,0.002624,  60.042
   236.0,0.123886,0.073369,1.565443,0.002597,  60.035
   236.2,0.123858,0.073405,1.565428,0.002573,  60.019
   236.4,0.123817,0.073458,1.565420,0.002610,  60.013
   236.6,0.123746,0.073512,1.565412,0.002597,  59.997
   236.8,0.123657,0.073548,1.565404,0.002573,  59.971
   237.0,0.123558,0.073579,1.565389,0.002610,  59.948
   237.2,0.123436,0.073602,1.565381,0.002610,  59.920
   237.4,0.123354,0.073607,1.565970,0.002586,  59.911
   237.6,0.123281,0.073602,1.566560,0.002597,  59.885
   237.8,0.123215,0.073579,1.567773,0.002584,  59.874
   238.0,0.123154,0.073540,1.567773,0.002546,  59.835
   238.2,0.123069,0.073489,1.567174,0.002571,  59.809
   238.4,0.122982,0.073433,1.566591,0.002557,  59.794
   238.6,0.122888,0.073382,1.565970,0.002520,  59.776
   238.8,0.122787,0.073329,1.564739,0.002557,  59.762
   239.0,0.122693,0.073282,1.562918,0.002544,  59.750
   239.2,0.122595,0.073229,1.561111,0.002507,  59.737
   239.4,0.122461,0.073184,1.558717,0.002544,  59.737
   239.6,0.122322,0.073133,1.555761,0.002531,  59.733
   239.8,0.122166,0.073080,1.553411,0.002480,  59.723
   240.0,0.122082,0.073027,1.550506,0.002517,  59.712
   240.2,0.122044,0.072976,1.547621,0.002504,  59.699
   240.4,0.122036,0.072909,1.545307,0.002467,  59.693
   240.6,0.121979,0.072833,1.543006,0.002491,  59.641
   240.8,0.121914,0.072752,1.540702,0.002491,  59.624
   241.0,0.121848,0.072713,1.538418,0.002480,  59.612
   241.2,0.121775,0.072693,1.536160,0.002517,  59.595
   241.4,0.121686,0.072693,1.533354,0.002531,  59.587
   241.6,0.121604,0.072682,1.529992,0.002544,  59.581
   241.8,0.121567,0.072679,1.526112,0.002584,  59.571
   242.0,0.121546,0.072676,1.522274,0.002597,  59.568
   242.2,0.121560,0.072640,1.519548,0.002637,  59.560
   242.4,0.121528,0.072597,1.516306,0.002626,  59.551
   242.6,0.121479,0.072541,1.513105,0.002677,  59.543
   242.8,0.121426,0.072508,1.510474,0.002704,  59.536
   243.0,0.121362,0.072480,1.508934,0.002693,  59.526
   243.2,0.121301,0.072466,1.506896,0.002744,  59.512
   243.4,0.121239,0.072443,1.504875,0.002744,  59.502
   243.6,0.121191,0.072427,1.502234,0.002719,  59.472
   243.8,0.121167,0.072413,1.500105,0.002744,  59.468
   244.0,0.121166,0.072393,1.497438,0.002730,  59.461
   244.2,0.121074,0.072368,1.495346,0.002693,  59.448
   244.4,0.120956,0.072346,1.493792,0.002704,  59.445
   244.6,0.120809,0.072318,1.492266,0.002664,  59.438
   244.8,0.120627,0.072315,1.491740,0.002613,  59.427
   245.0,0.120428,0.072326,1.491717,0.002600,  59.418
   245.2,0.120197,0.072343,1.491200,0.002573,  59.385
   245.4,0.119962,0.072306,1.490675,0.002549,  59.372
   245.6,0.119723,0.072256,1.490660,0.002562,  59.347
   245.8,0.119468,0.072175,1.490144,0.002640,  59.327
   246.0,0.119255,0.072080,1.489636,0.002616,  59.312
   246.2,0.119069,0.071973,1.489660,0.002602,  59.267
   246.4,0.118896,0.071839,1.489698,0.002613,  59.252
   246.6,0.118758,0.071708,1.489183,0.002549,  59.237
   246.8,0.118544,0.071571,1.487146,0.002536,  59.220
   247.0,0.118313,0.071426,1.484608,0.002533,  59.202
   247.2,0.118067,0.071286,1.482138,0.002469,  59.184
   247.4,0.117838,0.071144,1.478222,0.002456,  59.181
   247.6,0.117600,0.071007,1.473883,0.002480,  59.171
   247.8,0.117371,0.070867,1.470465,0.002429,  59.173
   248.0,0.117117,0.070731,1.467051,0.002416,  59.168
   248.2,0.116844,0.070594,1.463146,0.002440,  59.164
   248.4,0.116574,0.070452,1.459787,0.002403,  59.154
   248.6,0.116386,0.070318,1.455984,0.002403,  59.151
   248.8,0.116225,0.070179,1.451763,0.002413,  59.146
   249.0,0.116113,0.070034,1.448497,0.002376,  59.125
   249.2,0.115880,0.069884,1.444797,0.002363,  59.083
   249.4,0.115603,0.069736,1.440690,0.002374,  59.076
   249.6,0.115294,0.069642,1.437071,0.002349,  59.072
   249.8,0.115054,0.069581,1.432598,0.002389,  59.060
   250.0,0.114818,0.069544,1.428627,0.002467,  59.065
   250.2,0.114605,0.069444,1.423361,0.002507,  59.059
   250.4,0.114421,0.069328,1.416860,0.002522,  59.056
   250.6,0.114253,0.069194,1.410032,0.002613,  59.052
   250.8,0.114109,0.069061,1.405402,0.002666,  59.048
   251.0,0.113949,0.068922,1.401242,0.002682,  59.048
   251.2,0.113786,0.068783,1.397539,0.002709,  59.039
   251.4,0.113626,0.068667,1.393860,0.002786,  59.037
   251.6,0.113506,0.068558,1.390220,0.002789,  59.030
   251.8,0.113390,0.068464,1.386226,0.002802,  59.028
   252.0,0.113286,0.068356,1.382245,0.002853,  59.027
   252.2,0.113150,0.068248,1.378293,0.002802,  59.025
   252.4,0.112987,0.068142,1.374003,0.002789,  59.024
   252.6,0.112800,0.068067,1.369747,0.002773,  59.017
   252.8,0.112569,0.068009,1.366280,0.002695,  59.015
   253.0,0.112306,0.067965,1.363227,0.002642,  59.017
   253.2,0.112008,0.067934,1.360565,0.002613,  59.011
   253.4,0.111690,0.067873,1.359059,0.002536,  59.011
   253.6,0.111348,0.067815,1.358332,0.002522,  59.006
   253.8,0.110983,0.067752,1.357980,0.002496,  58.994
   254.0,0.110634,0.067635,1.357224,0.002522,  58.995
   254.2,0.110281,0.067491,1.356842,0.002562,  58.989
   254.4,0.109917,0.067320,1.355334,0.002629,  58.984
   254.6,0.109569,0.067134,1.353839,0.002642,  58.983
   254.8,0.109221,0.066935,1.352365,0.002616,  58.984
   255.0,0.108873,0.066714,1.350519,0.002576,  58.977
   255.2,0.108577,0.066502,1.347605,0.002549,  58.975
   255.4,0.108302,0.066289,1.344016,0.002522,  58.982
   255.6,0.108069,0.066063,1.339746,0.002469,  58.983
   255.8,0.107848,0.065848,1.336525,0.002443,  58.983
   256.0,0.107548,0.065641,1.332605,0.002429,  58.990
   256.2,0.107225,0.065431,1.328354,0.002403,  58.994
   256.4,0.106890,0.065222,1.323482,0.002389,  58.999
   256.6,0.106529,0.065016,1.318330,0.002363,  59.005
   256.8,0.106164,0.064812,1.312578,0.002336,  58.999
   257.0,0.105788,0.064600,1.307204,0.002323,  59.007
   257.2,0.105479,0.064386,1.302226,0.002310,  59.013
   257.4,0.105208,0.064163,1.297288,0.002296,  59.013
   257.6,0.104977,0.063963,1.292727,0.002283,  59.011
   257.8,0.104579,0.063763,1.287583,0.002270,  59.017
   258.0,0.104129,0.063562,1.282499,0.002256,  59.019
   258.2,0.103626,0.063417,1.277793,0.002283,  59.024
   258.4,0.103236,0.063294,1.272529,0.002323,  59.036
   258.6,0.102881,0.063190,1.267031,0.002400,  59.038
   258.8,0.102566,0.062998,1.259821,0.002416,  59.052
   259.0,0.102286,0.062784,1.251848,0.002482,  59.054
   259.2,0.102049,0.062535,1.242597,0.002600,  59.058
   259.4,0.101854,0.062313,1.236607,0.002653,  59.063
   259.6,0.101625,0.062092,1.232090,0.002642,  59.067
   259.8,0.101404,0.061871,1.228444,0.002719,  59.074
   260.0,0.101198,0.061690,1.223445,0.002733,  59.078
   260.2,0.100974,0.061529,1.217680,0.002722,  59.084
   260.4,0.100753,0.061385,1.211470,0.002722,  59.092
   260.6,0.100539,0.061234,1.205091,0.002746,  59.087
   260.8,0.100273,0.061098,1.198026,0.002682,  59.098
   261.0,0.099986,0.060959,1.190841,0.002655,  59.105
   261.2,0.099684,0.060839,1.186788,0.002640,  59.112
   261.4,0.099356,0.060741,1.184018,0.002562,  59.114
   261.6,0.099020,0.060648,1.182772,0.002509,  59.121
   261.8,0.098665,0.060542,1.182279,0.002493,  59.122
   262.0,0.098283,0.060433,1.180789,0.002456,  59.135
   262.2,0.097898,0.060324,1.179553,0.002469,  59.160
   262.4,0.097494,0.060218,1.178313,0.002509,  59.163
   262.6,0.097083,0.060044,1.177060,0.002536,  59.168
   262.8,0.096672,0.059845,1.175819,0.002549,  59.186
   263.0,0.096246,0.059614,1.174090,0.002576,  59.195
   263.2,0.095840,0.059386,1.171392,0.002562,  59.210
   263.4,0.095438,0.059155,1.168218,0.002549,  59.226
   263.6,0.095039,0.058911,1.164362,0.002496,  59.247
   263.8,0.094695,0.058664,1.160770,0.002469,  59.263
   264.0,0.094382,0.058420,1.156743,0.002429,  59.276
   264.2,0.094104,0.058165,1.152520,0.002389,  59.293
   264.4,0.093848,0.057914,1.148337,0.002376,  59.307
   264.6,0.093486,0.057675,1.143752,0.002349,  59.322
   264.8,0.093120,0.057427,1.138989,0.002336,  59.347
   265.0,0.092724,0.057180,1.132990,0.002323,  59.361
   265.2,0.092310,0.056940,1.126008,0.002310,  59.376
   265.4,0.091870,0.056702,1.118529,0.002283,  59.383
   265.6,0.091422,0.056459,1.112569,0.002270,  59.395
   265.8,0.091039,0.056219,1.106869,0.002256,  59.404
   266.0,0.090668,0.055982,1.101427,0.002230,  59.410
   266.2,0.090327,0.055731,1.096447,0.002216,  59.428
   266.4,0.089847,0.055481,1.091500,0.002216,  59.443
   266.6,0.089299,0.055233,1.087000,0.002190,  59.459
   266.8,0.088703,0.055023,1.081767,0.002203,  59.473
   267.0,0.088278,0.054835,1.076398,0.002230,  59.488
   267.2,0.087894,0.054677,1.070716,0.002256,  59.502
   267.4,0.087586,0.054413,1.063612,0.002310,  59.530
   267.6,0.087300,0.054113,1.055710,0.002363,  59.544
   267.8,0.087056,0.053780,1.046874,0.002403,  59.552
   268.0,0.086861,0.053512,1.041230,0.002405,  59.563
   268.2,0.086639,0.053268,1.036535,0.002432,  59.575
   268.4,0.086414,0.053046,1.032767,0.002445,  59.580
   268.6,0.086193,0.052856,1.025942,0.002458,  59.589
   268.8,0.085901,0.052698,1.018061,0.002458,  59.598
   269.0,0.085572,0.052570,1.009012,0.002421,  59.604
   269.2,0.085194,0.052431,1.002190,0.002445,  59.615
   269.4,0.084846,0.052321,0.995777,0.002418,  59.623
   269.6,0.084503,0.052212,0.989585,0.002341,  59.630
   269.8,0.084152,0.052054,0.986048,0.002339,  59.632
   270.0,0.083809,0.051883,0.983796,0.002312,  59.641
   270.2,0.083467,0.051697,0.982824,0.002299,  59.648
   270.4,0.083120,0.051536,0.983117,0.002272,  59.656
   270.6,0.082752,0.051379,0.981673,0.002285,  59.667
   270.8,0.082370,0.051227,0.980242,0.002312,  59.670
   271.0,0.081972,0.051078,0.978824,0.002339,  59.679
   271.2,0.081572,0.050886,0.977082,0.002403,  59.690
   271.4,0.081164,0.050679,0.975045,0.002416,  59.710
   271.6,0.080742,0.050455,0.972693,0.002403,  59.743
   271.8,0.080343,0.050242,0.969150,0.002440,  59.767
   272.0,0.079936,0.050024,0.964741,0.002413,  59.779
   272.2,0.079530,0.049804,0.959642,0.002336,  59.804
   272.4,0.079180,0.049570,0.955618,0.002285,  59.819
   272.6,0.078867,0.049323,0.951483,0.002272,  59.836
   272.8,0.078576,0.049074,0.947686,0.002245,  59.852
   273.0,0.078318,0.048830,0.943763,0.002232,  59.866
   273.2,0.077969,0.048586,0.939437,0.002232,  59.879
   273.4,0.077605,0.048348,0.935154,0.002256,  59.911
   273.6,0.077223,0.048104,0.930220,0.002294,  59.923
   273.8,0.076790,0.047868,0.924811,0.002280,  59.932
   274.0,0.076340,0.047627,0.918923,0.002216,  59.936
   274.2,0.075849,0.047398,0.913622,0.002203,  59.949
   274.4,0.075403,0.047174,0.908377,0.002190,  59.953
   274.6,0.074979,0.046942,0.903194,0.002177,  59.961
   274.8,0.074560,0.046683,0.897834,0.002177,  59.972
   275.0,0.074064,0.046411,0.892548,0.002150,  59.991
   275.2,0.073543,0.046118,0.887214,0.002150,  60.004
   275.4,0.072994,0.045865,0.881805,0.002163,  60.016
   275.6,0.072598,0.045630,0.876331,0.002177,  60.026
   275.8,0.072264,0.045412,0.870796,0.002190,  60.035
   276.0,0.072007,0.045120,0.864599,0.002216,  60.050
   276.2,0.071753,0.044807,0.858015,0.002230,  60.057
   276.4,0.071543,0.044469,0.850945,0.002243,  60.067
   276.6,0.071376,0.044209,0.845391,0.002270,  60.090
   276.8,0.071101,0.043978,0.840386,0.002270,  60.096
   277.0,0.070808,0.043785,0.835581,0.002270,  60.096
   277.2,0.070490,0.043625,0.828682,0.002270,  60.102
   277.4,0.070151,0.043494,0.821013,0.002270,  60.114
   277.6,0.069801,0.043413,0.812531,0.002270,  60.117
   277.8,0.069437,0.043290,0.806386,0.002256,  60.120
   278.0,0.069106,0.043169,0.800822,0.002243,  60.129
   278.2,0.068778,0.043057,0.796039,0.002243,  60.135
   278.4,0.068461,0.042880,0.792850,0.002216,  60.137
   278.6,0.068163,0.042663,0.790901,0.002203,  60.144
   278.8,0.067868,0.042417,0.789871,0.002203,  60.147
   279.0,0.067585,0.042209,0.789965,0.002190,  60.151
   279.2,0.067269,0.041992,0.788463,0.002203,  60.158
   279.4,0.066935,0.041770,0.786990,0.002203,  60.157
   279.6,0.066584,0.041604,0.785530,0.002216,  60.166
   279.8,0.066234,0.041463,0.783038,0.002230,  60.165
   280.0,0.065869,0.041344,0.779950,0.002230,  60.173
   280.2,0.065494,0.041248,0.776295,0.002216,  60.184
   280.4,0.065133,0.041076,0.772468,0.002203,  60.190
   280.6,0.064765,0.040888,0.768176,0.002203,  60.196
   280.8,0.064398,0.040684,0.763361,0.002190,  60.206
   281.0,0.064028,0.040481,0.759637,0.002190,  60.210
   281.2,0.063651,0.040271,0.756233,0.002190,  60.220
   281.4,0.063274,0.040044,0.752956,0.002190,  60.227
   281.6,0.062937,0.039831,0.749427,0.002203,  60.229
   281.8,0.062613,0.039616,0.745834,0.002190,  60.232
   282.0,0.062319,0.039398,0.742006,0.002177,  60.233
   282.2,0.061997,0.039180,0.737762,0.002190,  60.244
   282.4,0.061663,0.038957,0.733195,0.002163,  60.242
   282.6,0.061341,0.038729,0.728244,0.002150,  60.245
   282.8,0.061016,0.038520,0.723609,0.002150,  60.243
   283.0,0.060621,0.038327,0.718930,0.002150,  60.239
   283.2,0.060197,0.038139,0.714230,0.002137,  60.240
   283.4,0.059758,0.037894,0.709413,0.002137,  60.246
   283.6,0.059310,0.037630,0.704656,0.002137,  60.249
   283.8,0.058853,0.037348,0.699795,0.002123,  60.254
   284.0,0.058381,0.037097,0.694987,0.002123,  60.259
   284.2,0.058054,0.036842,0.690168,0.002123,  60.279
   284.4,0.057791,0.036592,0.685403,0.002110,  60.284
   284.6,0.057594,0.036310,0.680179,0.002110,  60.283
   284.8,0.057391,0.036022,0.674768,0.002110,  60.287
   285.0,0.057219,0.035721,0.669178,0.002097,  60.286
   285.2,0.057069,0.035505,0.664508,0.002097,  60.288
   285.4,0.056799,0.035338,0.660045,0.002097,  60.292
   285.6,0.056488,0.035204,0.655917,0.002097,  60.288
   285.8,0.056124,0.035083,0.650055,0.002046,  60.286
   286.0,0.055788,0.034993,0.643409,0.002046,  60.286
   286.2,0.055443,0.034921,0.636016,0.002046,  60.286
   286.4,0.055083,0.034782,0.630990,0.002046,  60.286
   286.6,0.054780,0.034626,0.626716,0.002046,  60.285
   286.8,0.054498,0.034443,0.623059,0.002022,  60.287
   287.0,0.054237,0.034246,0.620377,0.002059,  60.281
   287.2,0.053986,0.034038,0.618392,0.002059,  60.278
   287.4,0.053750,0.033816,0.617173,0.002035,  60.283
   287.6,0.053531,0.033615,0.615144,0.002073,  60.277
   287.8,0.053267,0.033429,0.613124,0.002073,  60.281
   288.0,0.052986,0.033255,0.611053,0.002073,  60.276
   288.2,0.052698,0.033101,0.608962,0.002059,  60.267
   288.4,0.052396,0.032968,0.606858,0.002046,  60.263
   288.6,0.052088,0.032856,0.604631,0.002046,  60.259
   288.8,0.051773,0.032736,0.602400,0.002046,  60.256
   289.0,0.051458,0.032616,0.599106,0.002033,  60.252
   289.2,0.051158,0.032503,0.595399,0.002033,  60.225
   289.4,0.050851,0.032399,0.591153,0.002033,  60.223
   289.6,0.050533,0.032240,0.588022,0.002046,  60.221
   289.8,0.050226,0.032067,0.585111,0.002046,  60.220
   290.0,0.049913,0.031875,0.582423,0.002046,  60.216
   290.2,0.049616,0.031694,0.579354,0.002046,  60.216
   290.4,0.049351,0.031511,0.576307,0.002046,  60.216
   290.6,0.049086,0.031328,0.573043,0.002046,  60.206
   290.8,0.048811,0.031143,0.569490,0.002046,  60.209
   291.0,0.048536,0.030947,0.565776,0.002046,  60.203
   291.2,0.048265,0.030745,0.561803,0.002033,  60.192
   291.4,0.047987,0.030583,0.558043,0.002046,  60.189
   291.6,0.047621,0.030430,0.554190,0.002033,  60.181
   291.8,0.047214,0.030293,0.550270,0.002019,  60.170
   292.0,0.046774,0.030090,0.546377,0.002033,  60.163
   292.2,0.046404,0.029854,0.542469,0.002006,  60.151
   292.4,0.046048,0.029592,0.538433,0.001993,  60.147
   292.6,0.045717,0.029354,0.534652,0.001993,  60.145
   292.8,0.045471,0.029115,0.530952,0.001980,  60.134
   293.0,0.045290,0.028877,0.527339,0.001966,  60.124
   293.2,0.045157,0.028628,0.523364,0.001953,  60.122
   293.4,0.045013,0.028380,0.519261,0.001940,  60.118
   293.6,0.044908,0.028143,0.514966,0.001926,  60.110
   293.8,0.044817,0.027984,0.510834,0.001913,  60.106
   294.0,0.044564,0.027861,0.506765,0.001876,  60.104
   294.2,0.044255,0.027788,0.502585,0.001889,  60.100
   294.4,0.043874,0.027697,0.497653,0.001889,  60.100
   294.6,0.043558,0.027633,0.492360,0.001852,  60.094
   294.8,0.043256,0.027573,0.486634,0.001889,  60.084
   295.0,0.042951,0.027434,0.482793,0.001889,  60.077
   295.2,0.042697,0.027274,0.479589,0.001865,  60.071
   295.4,0.042466,0.027079,0.477064,0.001916,  60.069
   295.6,0.042267,0.026900,0.474950,0.001916,  60.062
   295.8,0.042067,0.026718,0.473367,0.001905,  60.061
   296.0,0.041874,0.026532,0.472221,0.001942,  60.056
   296.2,0.041709,0.026368,0.470161,0.001942,  60.045
   296.4,0.041496,0.026217,0.467941,0.001942,  60.021
   296.6,0.041255,0.026073,0.465420,0.001891,  60.015
   296.8,0.041016,0.025952,0.462746,0.001902,  60.002
   297.0,0.040770,0.025851,0.460275,0.001889,  59.986
   297.2,0.040510,0.025770,0.457707,0.001852,  59.971
   297.4,0.040254,0.025677,0.455123,0.001876,  59.962
   297.6,0.039998,0.025579,0.452523,0.001876,  59.947
   297.8,0.039742,0.025491,0.449884,0.001838,  59.931
   298.0,0.039491,0.025404,0.447215,0.001876,  59.922
   298.2,0.039245,0.025272,0.445064,0.001889,  59.917
   298.4,0.039006,0.025129,0.443152,0.001852,  59.909
   298.6,0.038782,0.024968,0.441392,0.001876,  59.908
   298.8,0.038561,0.024823,0.439149,0.001889,  59.899
   299.0,0.038335,0.024675,0.436790,0.001852,  59.891
   299.2,0.038131,0.024522,0.434281,0.001889,  59.881
   299.4,0.037866,0.024375,0.431556,0.001889,  59.878
   299.6,0.037561,0.024229,0.428724,0.001852,  59.863
   299.8,0.037250,0.024084,0.425683,0.001889,  59.848
   300.0,0.036979,0.023956,0.422714,0.001889,  59.808
   300.2,0.036725,0.023837,0.419644,0.001838,  59.787
   300.4,0.036478,0.023730,0.416424,0.001849,  59.776
   300.6,0.036244,0.023572,0.413312,0.001862,  59.761
   300.8,0.035987,0.023389,0.410162,0.001812,  59.746
   301.0,0.035720,0.023188,0.407001,0.001836,  59.739
   301.2,0.035453,0.022989,0.404274,0.001849,  59.724
   301.4,0.035267,0.022779,0.401648,0.001798,  59.720
   301.6,0.035109,0.022565,0.399236,0.001836,  59.716
   301.8,0.035007,0.022373,0.396386,0.001849,  59.709
   302.0,0.034871,0.022183,0.393351,0.001798,  59.694
   302.2,0.034727,0.022009,0.390176,0.001836,  59.687
   302.4,0.034601,0.021892,0.386782,0.001836,  59.682
   302.6,0.034391,0.021799,0.383185,0.001798,  59.670
   302.8,0.034135,0.021747,0.379459,0.001823,  59.649
   303.0,0.033853,0.021685,0.375726,0.001823,  59.640
   303.2,0.033618,0.021630,0.371792,0.001785,  59.633
   303.4,0.033381,0.021596,0.367832,0.001809,  59.625
   303.6,0.033163,0.021481,0.365164,0.001809,  59.624
   303.8,0.032964,0.021326,0.363043,0.001772,  59.611
   304.0,0.032785,0.021145,0.361468,0.001809,  59.606
   304.2,0.032627,0.020998,0.359674,0.001823,  59.597
   304.4,0.032458,0.020843,0.358015,0.001785,  59.593
   304.6,0.032296,0.020697,0.356482,0.001849,  59.591
   304.8,0.032144,0.020571,0.354500,0.001849,  59.582
   305.0,0.031973,0.020445,0.352267,0.001812,  59.571
   305.2,0.031778,0.020331,0.349854,0.001849,  59.551
   305.4,0.031573,0.020240,0.347901,0.001849,  59.541
   305.6,0.031379,0.020153,0.346111,0.001862,  59.524
   305.8,0.031171,0.020073,0.344429,0.001812,  59.506
   306.0,0.030954,0.019969,0.342885,0.001798,  59.496
   306.2,0.030735,0.019863,0.340834,0.001798,  59.473
   306.4,0.030527,0.019742,0.338614,0.001785,  59.447
   306.6,0.030324,0.019642,0.336306,0.001772,  59.443
   306.8,0.030126,0.019545,0.334618,0.001772,  59.435
   307.0,0.029945,0.019461,0.333142,0.001759,  59.433
   307.2,0.029781,0.019374,0.331866,0.001745,  59.422
   307.4,0.029612,0.019255,0.330089,0.001745,  59.419
   307.6,0.029451,0.019129,0.328168,0.001745,  59.412
   307.8,0.029304,0.018991,0.326089,0.001745,  59.407
   308.0,0.029103,0.018869,0.323981,0.001732,  59.396
   308.2,0.028883,0.018763,0.321780,0.001732,  59.374
   308.4,0.028654,0.018657,0.319452,0.001732,  59.366
   308.6,0.028462,0.018552,0.317057,0.001719,  59.349
   308.8,0.028267,0.018465,0.314555,0.001705,  59.336
   309.0,0.028091,0.018384,0.311949,0.001705,  59.318
   309.2,0.027921,0.018270,0.309696,0.001719,  59.302
   309.4,0.027731,0.018141,0.307555,0.001692,  59.300
   309.6,0.027539,0.018004,0.305516,0.001679,  59.287
   309.8,0.027332,0.017864,0.303552,0.001692,  59.256
   310.0,0.027171,0.017716,0.301639,0.001705,  59.257
   310.2,0.027041,0.017551,0.299807,0.001719,  59.246
   310.4,0.026923,0.017400,0.297648,0.001745,  59.243
   310.6,0.026769,0.017273,0.295371,0.001759,  59.235
   310.8,0.026619,0.017140,0.292944,0.001759,  59.231
   311.0,0.026456,0.017034,0.290202,0.001772,  59.225
   311.2,0.026289,0.016952,0.287182,0.001785,  59.219
   311.4,0.026133,0.016883,0.283962,0.001796,  59.216
   311.6,0.025967,0.016801,0.281205,0.001783,  59.207
   311.8,0.025800,0.016736,0.278559,0.001745,  59.203
   312.0,0.025644,0.016667,0.275998,0.001756,  59.197
   312.2,0.025484,0.016571,0.273807,0.001756,  59.187
   312.4,0.025330,0.016478,0.271859,0.001705,  59.185
   312.6,0.025191,0.016370,0.270089,0.001743,  59.179
   312.8,0.025059,0.016266,0.268904,0.001743,  59.175
   313.0,0.024912,0.016173,0.268058,0.001732,  59.169
   313.2,0.024769,0.016075,0.267585,0.001783,  59.166
   313.4,0.024633,0.015978,0.266012,0.001809,  59.161
   313.6,0.024469,0.015890,0.264082,0.001798,  59.152
   313.8,0.024310,0.015801,0.261770,0.001849,  59.139
   314.0,0.024142,0.015710,0.260092,0.001849,  59.140
   314.2,0.023963,0.015626,0.258554,0.001862,  59.125
   314.4,0.023798,0.015546,0.257178,0.001825,  59.111
   314.6,0.023624,0.015464,0.255882,0.001849,  59.099
   314.8,0.023451,0.015391,0.254388,0.001849,  59.078
   315.0,0.023297,0.015314,0.252853,0.001785,  59.067
   315.2,0.023138,0.015248,0.251317,0.001783,  59.062
   315.4,0.022991,0.015150,0.249991,0.001769,  59.061
   315.6,0.022866,0.015045,0.248773,0.001719,  59.061
   315.8,0.022746,0.014928,0.247661,0.001705,  59.055
   316.0,0.022622,0.014825,0.246289,0.001692,  59.051
   316.2,0.022520,0.014719,0.244805,0.001666,  59.044
   316.4,0.022416,0.014627,0.243262,0.001652,  59.037
   316.6,0.022277,0.014539,0.241546,0.001652,  59.029
   316.8,0.022125,0.014448,0.239673,0.001639,  59.015
   317.0,0.021965,0.014375,0.237674,0.001626,  59.008
   317.2,0.021823,0.014302,0.235880,0.001612,  58.995
   317.4,0.021687,0.014241,0.234114,0.001612,  58.990
   317.6,0.021547,0.014189,0.232354,0.001612,  58.984
   317.8,0.021429,0.014113,0.230778,0.001599,  58.971
   318.0,0.021281,0.014026,0.229242,0.001586,  58.971
   318.2,0.021118,0.013943,0.227791,0.001586,  58.966
   318.4,0.020968,0.013848,0.226432,0.001612,  58.966
   318.6,0.020839,0.013740,0.225070,0.001626,  58.966
   318.8,0.020706,0.013627,0.223782,0.001690,  58.966
   319.0,0.020597,0.013527,0.222161,0.001716,  58.960
   319.2,0.020478,0.013420,0.220348,0.001705,  58.959
   319.4,0.020356,0.013312,0.218421,0.001732,  58.957
   319.6,0.020241,0.013224,0.216306,0.001732,  58.953
   319.8,0.020125,0.013147,0.213971,0.001732,  58.953
   320.0,0.020009,0.013077,0.211475,0.001719,  58.952
   320.2,0.019908,0.013004,0.209565,0.001719,  58.944
   320.4,0.019795,0.012928,0.207848,0.001705,  58.949
   320.6,0.019669,0.012855,0.206270,0.001666,  58.944
   320.8,0.019557,0.012792,0.204897,0.001679,  58.947
   321.0,0.019445,0.012729,0.203687,0.001679,  58.941
   321.2,0.019322,0.012670,0.202645,0.001679,  58.938
   321.4,0.019211,0.012606,0.201283,0.001692,  58.937
   321.6,0.019092,0.012545,0.199815,0.001719,  58.937
   321.8,0.018959,0.012484,0.198265,0.001681,  58.935
   322.0,0.018835,0.012416,0.196770,0.001745,  58.932
   322.2,0.018700,0.012348,0.195219,0.001734,  58.929
   322.4,0.018552,0.012272,0.193688,0.001761,  58.923
   322.6,0.018412,0.012197,0.192534,0.001812,  58.918
   322.8,0.018271,0.012121,0.191554,0.001825,  58.917
   323.0,0.018127,0.012041,0.190740,0.001825,  58.907
   323.2,0.017990,0.011973,0.190097,0.001812,  58.888
   323.4,0.017866,0.011905,0.189046,0.001812,  58.886
   323.6,0.017750,0.011840,0.187912,0.001785,  58.883
   323.8,0.017638,0.011778,0.186705,0.001745,  58.891
   324.0,0.017533,0.011692,0.185703,0.001719,  58.892
   324.2,0.017431,0.011598,0.184754,0.001705,  58.893
   324.4,0.017335,0.011500,0.183864,0.001666,  58.887
   324.6,0.017255,0.011409,0.182836,0.001652,  58.887
   324.8,0.017178,0.011331,0.181728,0.001639,  58.887
   325.0,0.017111,0.011257,0.180565,0.001626,  58.879
   325.2,0.017023,0.011183,0.179296,0.001612,  58.873
   325.4,0.016911,0.011120,0.177890,0.001599,  58.872
   325.6,0.016790,0.011063,0.176397,0.001573,  58.872
   325.8,0.016695,0.011012,0.175108,0.001559,  58.872
   326.0,0.016585,0.010968,0.173848,0.001559,  58.869
   326.2,0.016493,0.010926,0.172639,0.001546,  58.873
   326.4,0.016397,0.010879,0.171540,0.001546,  58.871
   326.6,0.016279,0.010831,0.170499,0.001546,  58.869
   326.8,0.016156,0.010779,0.169518,0.001519,  58.875
   327.0,0.016037,0.010715,0.168612,0.001546,  58.875
   327.2,0.015940,0.010650,0.167733,0.001599,  58.876
   327.4,0.015873,0.010572,0.166928,0.001639,  58.879
   327.6,0.015826,0.010486,0.164916,0.001666,  58.879
   327.8,0.015732,0.010403,0.162301,0.001705,  58.881
   328.0,0.015640,0.010309,0.159140,0.001719,  58.880
   328.2,0.015541,0.010228,0.157524,0.001732,  58.883
   328.4,0.015451,0.010158,0.156394,0.001705,  58.880
   328.6,0.015368,0.010098,0.155730,0.001679,  58.883
   328.8,0.015296,0.010042,0.154720,0.001666,  58.886
   329.0,0.015203,0.009993,0.153822,0.001602,  58.884
   329.2,0.015111,0.009962,0.153011,0.001575,  58.888
   329.4,0.015026,0.009918,0.152224,0.001588,  58.887
   329.6,0.014926,0.009885,0.151502,0.001577,  58.886
   329.8,0.014838,0.009854,0.150850,0.001655,  58.888
   330.0,0.014744,0.009807,0.149734,0.001681,  58.887
   330.2,0.014632,0.009764,0.148429,0.001708,  58.886
   330.4,0.014528,0.009717,0.146904,0.001734,  58.887
   330.6,0.014411,0.009659,0.145607,0.001734,  58.889
   330.8,0.014286,0.009609,0.144322,0.001724,  58.890
   331.0,0.014173,0.009557,0.143072,0.001788,  58.888
   331.2,0.014049,0.009486,0.142067,0.001788,  58.887
   331.4,0.013931,0.009416,0.141202,0.001801,  58.888
   331.6,0.013827,0.009344,0.140482,0.001737,  58.893
   331.8,0.013716,0.009263,0.139831,0.001761,  58.896
   332.0,0.013617,0.009189,0.139316,0.001748,  58.896
   332.2,0.013542,0.009110,0.138848,0.001684,  58.900
   332.4,0.013460,0.009042,0.138508,0.001681,  58.902
   332.6,0.013370,0.008984,0.137388,0.001668,  58.904
   332.8,0.013301,0.008925,0.136018,0.001604,  58.908
   333.0,0.013222,0.008879,0.134401,0.001602,  58.924
   333.2,0.013158,0.008821,0.133641,0.001588,  58.929
   333.4,0.013118,0.008754,0.133184,0.001538,  58.926
   333.6,0.013087,0.008695,0.132979,0.001548,  58.925
   333.8,0.013020,0.008644,0.132286,0.001535,  58.929
   334.0,0.012947,0.008589,0.131520,0.001484,  58.927
   334.2,0.012872,0.008547,0.130622,0.001509,  58.928
   334.4,0.012773,0.008511,0.129830,0.001509,  58.931
   334.6,0.012672,0.008482,0.129047,0.001471,  58.933
   334.8,0.012562,0.008452,0.128259,0.001482,  58.938
   335.0,0.012477,0.008423,0.127567,0.001469,  58.939
   335.2,0.012401,0.008394,0.126898,0.001431,  58.951
   335.4,0.012331,0.008366,0.126230,0.001456,  58.956
   335.6,0.012271,0.008314,0.125549,0.001469,  58.955
   335.8,0.012219,0.008267,0.124899,0.001471,  58.966
   336.0,0.012159,0.008209,0.124236,0.001575,  58.968
   336.2,0.012106,0.008141,0.123266,0.001615,  58.970
   336.4,0.012049,0.008071,0.122117,0.001604,  58.975
   336.6,0.011985,0.007996,0.120832,0.001668,  58.977
   336.8,0.011939,0.007947,0.119711,0.001681,  58.982
   337.0,0.011889,0.007916,0.118549,0.001617,  58.979
   337.2,0.011827,0.007897,0.117382,0.001602,  58.977
   337.4,0.011784,0.007864,0.116449,0.001575,  58.985
   337.6,0.011728,0.007831,0.115627,0.001562,  58.987
   337.8,0.011664,0.007809,0.114907,0.001546,  58.987
   338.0,0.011603,0.007774,0.114215,0.001559,  58.989
   338.2,0.011530,0.007748,0.113558,0.001612,  58.996
   338.4,0.011448,0.007726,0.112988,0.001666,  58.992
   338.6,0.011357,0.007691,0.112008,0.001692,  58.997
   338.8,0.011268,0.007668,0.110833,0.001719,  59.000
   339.0,0.011177,0.007639,0.109492,0.001721,  59.002
   339.2,0.011081,0.007596,0.108610,0.001734,  59.005
   339.4,0.010983,0.007545,0.107856,0.001737,  59.004
   339.6,0.010881,0.007490,0.107243,0.001788,  58.999
   339.8,0.010783,0.007433,0.106542,0.001801,  59.003
   340.0,0.010698,0.007362,0.105849,0.001814,  59.005
   340.2,0.010620,0.007298,0.105185,0.001763,  59.011
   340.4,0.010551,0.007230,0.104662,0.001774,  59.013
   340.6,0.010484,0.007160,0.104215,0.001761,  59.026
   340.8,0.010418,0.007094,0.103889,0.001697,  59.031
   341.0,0.010366,0.007041,0.103617,0.001681,  59.033
   341.2,0.010306,0.006987,0.103171,0.001668,  59.039
   341.4,0.010239,0.006951,0.102713,0.001604,  59.038
   341.6,0.010187,0.006914,0.102226,0.001602,  59.042
   341.8,0.010149,0.006871,0.101610,0.001588,  59.039
   342.0,0.010107,0.006833,0.100899,0.001538,  59.037
   342.2,0.010086,0.006790,0.100127,0.001535,  59.044
   342.4,0.010045,0.006749,0.099478,0.001522,  59.047
   342.6,0.009994,0.006703,0.098829,0.001471,  59.053
   342.8,0.009951,0.006671,0.098174,0.001495,  59.059
   343.0,0.009882,0.006644,0.097590,0.001495,  59.063
   343.2,0.009790,0.006620,0.097068,0.001445,  59.072
   343.4,0.009703,0.006611,0.096541,0.001469,  59.078
   343.6,0.009637,0.006597,0.095780,0.001456,  59.081
   343.8,0.009574,0.006580,0.094920,0.001418,  59.090
   344.0,0.009521,0.006564,0.093922,0.001442,  59.119
   344.2,0.009474,0.006533,0.093433,0.001469,  59.127
   344.4,0.009419,0.006490,0.093117,0.001471,  59.131
   344.6,0.009389,0.006435,0.092973,0.001575,  59.138
   344.8,0.009352,0.006384,0.092278,0.001602,  59.145
   345.0,0.009320,0.006326,0.091389,0.001591,  59.141
   345.2,0.009295,0.006262,0.090307,0.001628,  59.147
   345.4,0.009277,0.006225,0.089450,0.001628,  59.152
   345.6,0.009254,0.006202,0.088623,0.001577,  59.155
   345.8,0.009222,0.006186,0.087800,0.001575,  59.157
   346.0,0.009185,0.006174,0.087221,0.001562,  59.165
   346.2,0.009151,0.006164,0.086776,0.001498,  59.168
   346.4,0.009104,0.006160,0.086460,0.001522,  59.170
   346.6,0.009043,0.006156,0.085950,0.001562,  59.171
   346.8,0.008987,0.006141,0.085434,0.001564,  59.172
   347.0,0.008918,0.006130,0.084862,0.001655,  59.173
   347.2,0.008843,0.006115,0.084095,0.001695,  59.176
   347.4,0.008768,0.006094,0.083238,0.001697,  59.174
   347.6,0.008686,0.006072,0.082263,0.001748,  59.180
   347.8,0.008599,0.006035,0.081548,0.001737,  59.186
   348.0,0.008523,0.005997,0.080921,0.001750,  59.183
   348.2,0.008445,0.005951,0.080362,0.001750,  59.181
   348.4,0.008367,0.005896,0.079797,0.001750,  59.181
   348.6,0.008301,0.005833,0.079279,0.001713,  59.182
   348.8,0.008239,0.005768,0.078750,0.001699,  59.188
   349.0,0.008179,0.005708,0.078395,0.001724,  59.194
   349.2,0.008129,0.005648,0.078143,0.001673,  59.205
   349.4,0.008082,0.005596,0.077943,0.001670,  59.209
   349.6,0.008049,0.005552,0.077861,0.001631,  59.211
   349.8,0.007995,0.005516,0.077054,0.001567,  59.216
   350.0,0.007948,0.005485,0.076013,0.001564,  59.223
   350.2,0.007905,0.005461,0.074741,0.001538,  59.218
   350.4,0.007869,0.005422,0.074261,0.001487,  59.214
   350.6,0.007857,0.005394,0.074039,0.001498,  59.210
   350.8,0.007861,0.005363,0.074129,0.001484,  59.213
   351.0,0.007829,0.005335,0.073865,0.001447,  59.221
   351.2,0.007805,0.005302,0.073549,0.001471,  59.231
   351.4,0.007769,0.005269,0.073230,0.001445,  59.232
   351.6,0.007711,0.005250,0.072942,0.001394,  59.239
   351.8,0.007653,0.005247,0.072635,0.001431,  59.241
   352.0,0.007578,0.005237,0.072336,0.001418,  59.248
   352.2,0.007528,0.005227,0.071998,0.001367,  59.263
   352.4,0.007474,0.005230,0.071649,0.001405,  59.270
   352.6,0.007441,0.005227,0.071269,0.001405,  59.280
   352.8,0.007403,0.005198,0.070936,0.001407,  59.307
   353.0,0.007374,0.005162,0.070642,0.001484,  59.316
   353.2,0.007366,0.005112,0.070379,0.001538,  59.325
   353.4,0.007359,0.005065,0.069865,0.001527,  59.327
   353.6,0.007343,0.005022,0.069212,0.001564,  59.333
   353.8,0.007341,0.004977,0.068445,0.001551,  59.338
   354.0,0.007328,0.004949,0.067861,0.001513,  59.344
   354.2,0.007305,0.004947,0.067265,0.001538,  59.348
   354.4,0.007297,0.004951,0.066732,0.001498,  59.350
   354.6,0.007279,0.004951,0.066291,0.001474,  59.353
   354.8,0.007247,0.004951,0.065900,0.001524,  59.354
   355.0,0.007222,0.004964,0.065583,0.001551,  59.358
   355.2,0.007195,0.004966,0.065040,0.001577,  59.354
   355.4,0.007138,0.004964,0.064410,0.001617,  59.361
   355.6,0.007078,0.004962,0.063686,0.001695,  59.360
   355.8,0.007007,0.004949,0.063126,0.001721,  59.366
   356.0,0.006934,0.004943,0.062567,0.001710,  59.370
   356.2,0.006869,0.004929,0.062009,0.001774,  59.377
   356.4,0.006798,0.004897,0.061595,0.001788,  59.380
   356.6,0.006728,0.004864,0.061246,0.001801,  59.373
   356.8,0.006673,0.004819,0.060944,0.001814,  59.368
   357.0,0.006611,0.004770,0.060554,0.001814,  59.365
   357.2,0.006553,0.004721,0.060165,0.001777,  59.370
   357.4,0.006521,0.004669,0.059788,0.001801,  59.377
   357.6,0.006488,0.004615,0.059348,0.001774,  59.386
   357.8,0.006451,0.004565,0.058923,0.001761,  59.395
   358.0,0.006411,0.004523,0.058424,0.001684,  59.401
   358.2,0.006381,0.004484,0.057930,0.001668,  59.402
   358.4,0.006343,0.004444,0.057753,0.001617,  59.405
   358.6,0.006306,0.004421,0.057692,0.001577,  59.409
   358.8,0.006270,0.004395,0.057758,0.001551,  59.400
   359.0,0.006254,0.004370,0.057615,0.001500,  59.395
   359.2,0.006251,0.004359,0.057412,0.001524,  59.403
   359.4,0.006257,0.004346,0.057152,0.001498,  59.408
   359.6,0.006239,0.004319,0.056930,0.001447,  59.411
   359.8,0.006214,0.004293,0.056698,0.001471,  59.422
   360.0,0.006179,0.004264,0.056454,0.001458,  59.428
   360.2,0.006142,0.004252,0.056252,0.001420,  59.437
   360.4,0.006095,0.004248,0.056086,0.001458,  59.448
   360.6,0.006036,0.004262,0.055913,0.001445,  59.450
   360.8,0.006008,0.004262,0.055674,0.001407,  59.463
   361.0,0.005996,0.004257,0.055438,0.001445,  59.493
   361.2,0.005989,0.004259,0.055155,0.001431,  59.502
   361.4,0.005980,0.004240,0.054771,0.001407,  59.513
   361.6,0.005974,0.004207,0.054347,0.001484,  59.519
   361.8,0.005977,0.004161,0.053845,0.001538,  59.531
   362.0,0.005977,0.004130,0.053380,0.001500,  59.534
   362.2,0.005974,0.004099,0.052908,0.001538,  59.539
   362.4,0.005968,0.004063,0.052410,0.001524,  59.539
   362.6,0.005961,0.004056,0.051869,0.001500,  59.547
   362.8,0.005955,0.004069,0.051334,0.001511,  59.549
   363.0,0.005949,0.004091,0.050751,0.001484,  59.559
   363.2,0.005933,0.004106,0.050342,0.001474,  59.564
   363.4,0.005915,0.004116,0.049989,0.001551,  59.560
   363.6,0.005897,0.004125,0.049664,0.001591,  59.566
   363.8,0.005874,0.004135,0.049251,0.001593,  59.572
   364.0,0.005830,0.004135,0.048813,0.001670,  59.568
   364.2,0.005774,0.004133,0.048348,0.001697,  59.578
   364.4,0.005712,0.004128,0.048005,0.001686,  59.579
   364.6,0.005656,0.004123,0.047717,0.001750,  59.583
   364.8,0.005597,0.004121,0.047474,0.001763,  59.584
   365.0,0.005535,0.004094,0.047241,0.001753,  59.588
   365.2,0.005485,0.004061,0.047060,0.001803,  59.583
   365.4,0.005435,0.004023,0.046869,0.001803,  59.585
   365.6,0.005385,0.003977,0.046660,0.001766,  59.588
   365.8,0.005345,0.003932,0.046422,0.001803,  59.593
   366.0,0.005311,0.003881,0.046189,0.001763,  59.597
   366.2,0.005277,0.003841,0.046007,0.001750,  59.605
   366.4,0.005250,0.003800,0.045824,0.001686,  59.613
   366.6,0.005216,0.003763,0.045638,0.001684,  59.614
   366.8,0.005182,0.003724,0.045521,0.001644,  59.624
   367.0,0.005158,0.003701,0.045443,0.001631,  59.624
   367.2,0.005127,0.003677,0.045373,0.001604,  59.618
   367.4,0.005088,0.003648,0.045227,0.001564,  59.617
   367.6,0.005079,0.003627,0.045062,0.001513,  59.620
   367.8,0.005079,0.003605,0.044869,0.001538,  59.625
   368.0,0.005082,0.003573,0.044674,0.001511,  59.632
   368.2,0.005067,0.003553,0.044546,0.001474,  59.640
   368.4,0.005042,0.003532,0.044367,0.001484,  59.649
   368.6,0.005015,0.003522,0.044232,0.001484,  59.653
   368.8,0.004977,0.003520,0.044089,0.001447,  59.662
   369.0,0.004939,0.003520,0.043943,0.001471,  59.690
   369.2,0.004906,0.003533,0.043772,0.001458,  59.702
   369.4,0.004893,0.003533,0.043525,0.001407,  59.706
   369.6,0.004906,0.003530,0.043257,0.001431,  59.711
   369.8,0.004929,0.003528,0.042897,0.001418,  59.725
   370.0,0.004931,0.003511,0.042306,0.001394,  59.729
   370.2,0.004954,0.003487,0.041576,0.001458,  59.741
   370.4,0.004964,0.003456,0.040683,0.001511,  59.744
   370.6,0.004962,0.003447,0.040340,0.001500,  59.752
   370.8,0.004976,0.003442,0.040193,0.001524,  59.758
   371.0,0.004979,0.003445,0.040224,0.001498,  59.763
   371.2,0.004979,0.003449,0.040141,0.001460,  59.762
   371.4,0.004976,0.003469,0.040113,0.001484,  59.767
   371.6,0.004973,0.003496,0.040110,0.001458,  59.775
   371.8,0.004967,0.003505,0.039987,0.001447,  59.776
   372.0,0.004957,0.003522,0.039817,0.001538,  59.779
   372.2,0.004939,0.003534,0.039608,0.001591,  59.780
   372.4,0.004917,0.003538,0.039220,0.001593,  59.781
   372.6,0.004872,0.003543,0.038732,0.001684,  59.785
   372.8,0.004827,0.003543,0.038118,0.001710,  59.788
   373.0,0.004765,0.003535,0.037770,0.001699,  59.791
   373.2,0.004708,0.003536,0.037483,0.001763,  59.797
   373.4,0.004662,0.003533,0.037270,0.001777,  59.799
   373.6,0.004614,0.003508,0.037101,0.001753,  59.804
   373.8,0.004563,0.003476,0.036924,0.001817,  59.805
   374.0,0.004523,0.003440,0.036817,0.001830,  59.807
   374.2,0.004490,0.003402,0.036674,0.001792,  59.808
   374.4,0.004452,0.003360,0.036513,0.001817,  59.812
   374.6,0.004424,0.003322,0.036342,0.001763,  59.820
   374.8,0.004403,0.003283,0.036217,0.001699,  59.822
   375.0,0.004368,0.003245,0.036137,0.001697,  59.829
   375.2,0.004343,0.003219,0.036066,0.001657,  59.831
   375.4,0.004323,0.003190,0.035931,0.001631,  59.830
   375.6,0.004287,0.003163,0.035796,0.001567,  59.832
   375.8,0.004265,0.003148,0.035622,0.001553,  59.827
   376.0,0.004245,0.003124,0.035536,0.001540,  59.827
   376.2,0.004228,0.003102,0.035510,0.001513,  59.834
   376.4,0.004225,0.003086,0.035487,0.001500,  59.859
   376.6,0.004236,0.003062,0.035415,0.001487,  59.868
   376.8,0.004213,0.003048,0.035308,0.001449,  59.877
   377.0,0.004191,0.003035,0.035191,0.001436,  59.878
   377.2,0.004168,0.003031,0.035028,0.001460,  59.887
   377.4,0.004135,0.003023,0.034868,0.001423,  59.895
   377.6,0.004118,0.003028,0.034705,0.001423,  59.891
   377.8,0.004101,0.003028,0.034533,0.001434,  59.907
   378.0,0.004099,0.003015,0.034446,0.001396,  59.910
   378.2,0.004129,0.003005,0.034369,0.001396,  59.921
   378.4,0.004163,0.002996,0.034313,0.001407,  59.925
   378.6,0.004177,0.002979,0.034127,0.001383,  59.932
   378.8,0.004209,0.002960,0.033894,0.001410,  59.939
   379.0,0.004225,0.002942,0.033579,0.001474,  59.947
   379.2,0.004237,0.002945,0.033366,0.001449,  59.954
   379.4,0.004242,0.002951,0.033110,0.001423,  59.960
   379.6,0.004252,0.002978,0.032879,0.001447,  59.965
   379.8,0.004263,0.002997,0.032747,0.001410,  59.964
   380.0,0.004262,0.003024,0.032643,0.001410,  59.967
   380.2,0.004269,0.003055,0.032574,0.001434,  59.971
   380.4,0.004280,0.003074,0.032397,0.001436,  59.974
   380.6,0.004274,0.003089,0.032165,0.001489,  59.976
   380.8,0.004258,0.003106,0.031879,0.001593,  59.979
   381.0,0.004233,0.003118,0.031571,0.001609,  59.983
   381.2,0.004199,0.003120,0.031225,0.001635,  59.984
   381.4,0.004153,0.003130,0.030819,0.001713,  59.987
   381.6,0.004091,0.003130,0.030591,0.001715,  59.992
   381.8,0.004044,0.003120,0.030435,0.001728,  59.991
   382.0,0.004001,0.003116,0.030349,0.001766,  59.990
   382.2,0.003954,0.003094,0.030190,0.001755,  59.994
   382.4,0.003914,0.003060,0.030014,0.001782,  59.999
   382.6,0.003876,0.003027,0.029853,0.001819,  59.999
   382.8,0.003842,0.002994,0.029775,0.001782,  60.001
   383.0,0.003814,0.002953,0.029706,0.001768,  60.001
   383.2,0.003785,0.002911,0.029666,0.001766,  60.004
   383.4,0.003774,0.002883,0.029615,0.001702,  60.010
   383.6,0.003749,0.002856,0.029570,0.001675,  60.012
   383.8,0.003720,0.002829,0.029515,0.001646,  60.014
   384.0,0.003702,0.002810,0.029444,0.001620,  60.011
   384.2,0.003684,0.002785,0.029347,0.001569,  60.007
   384.4,0.003655,0.002766,0.029239,0.001580,  60.005
   384.6,0.003637,0.002749,0.029214,0.001529,  60.011
   384.8,0.003625,0.002730,0.029208,0.001516,  60.016
   385.0,0.003616,0.002716,0.029228,0.001489,  60.019
   385.2,0.003617,0.002702,0.029140,0.001476,  60.024
   385.4,0.003601,0.002680,0.029050,0.001425,  60.028
   385.6,0.003586,0.002668,0.028897,0.001449,  60.053
   385.8,0.003567,0.002661,0.028707,0.001436,  60.060
   386.0,0.003552,0.002651,0.028495,0.001399,  60.069
   386.2,0.003533,0.002654,0.028245,0.001410,  60.076
   386.4,0.003518,0.002647,0.027960,0.001410,  60.082
   386.6,0.003536,0.002645,0.027892,0.001372,  60.088
   386.8,0.003574,0.002630,0.027913,0.001410,  60.098
   387.0,0.003626,0.002629,0.028007,0.001396,  60.106
   387.2,0.003657,0.002614,0.027929,0.001372,  60.112
   387.4,0.003685,0.002602,0.027789,0.001423,  60.118
   387.6,0.003711,0.002594,0.027604,0.001423,  60.127
   387.8,0.003730,0.002608,0.027464,0.001399,  60.129
   388.0,0.003738,0.002632,0.027306,0.001436,  60.125
   388.2,0.003754,0.002673,0.027149,0.001423,  60.128
   388.4,0.003764,0.002702,0.027063,0.001412,  60.129
   388.6,0.003762,0.002730,0.026995,0.001476,  60.138
   388.8,0.003773,0.002759,0.026945,0.001503,  60.140
   389.0,0.003773,0.002780,0.026744,0.001505,  60.141
   389.2,0.003767,0.002799,0.026497,0.001596,  60.144
   389.4,0.003765,0.002816,0.026162,0.001635,  60.145
   389.6,0.003749,0.002833,0.025907,0.001625,  60.150
   389.8,0.003719,0.002838,0.025646,0.001689,  60.150
   390.0,0.003675,0.002843,0.025366,0.001702,  60.150
   390.2,0.003630,0.002851,0.025219,0.001691,  60.156
   390.4,0.003597,0.002852,0.025142,0.001742,  60.158
   390.6,0.003554,0.002844,0.025101,0.001768,  60.158
   390.8,0.003506,0.002820,0.024561,0.001758,  60.166
   391.0,0.003472,0.002797,0.023756,0.001795,  60.166
   391.2,0.003441,0.002756,0.022747,0.001819,  60.169
   391.4,0.003413,0.002720,0.022644,0.001782,  60.171
   391.6,0.003389,0.002694,0.022857,0.001768,  60.169
   391.8,0.003367,0.002664,0.023415,0.001779,  60.173
   392.0,0.003352,0.002630,0.023629,0.001715,  60.177
   392.2,0.003333,0.002607,0.023799,0.001689,  60.179
   392.4,0.003311,0.002584,0.023968,0.001635,  60.175
   392.6,0.003287,0.002562,0.024067,0.001571,  60.171
   392.8,0.003274,0.002544,0.024128,0.001582,  60.164
   393.0,0.003265,0.002526,0.024119,0.001542,  60.169
   393.2,0.003253,0.002506,0.024128,0.001529,  60.170
   393.4,0.003237,0.002492,0.024146,0.001478,  60.176
   393.6,0.003222,0.002475,0.024111,0.001503,  60.177
   393.8,0.003200,0.002460,0.024113,0.001489,  60.182
   394.0,0.003185,0.002445,0.024132,0.001489,  60.186
   394.2,0.003172,0.002439,0.024134,0.001476,  60.192
   394.4,0.003163,0.002430,0.024082,0.001463,  60.200
   394.6,0.003172,0.002419,0.024030,0.001412,  60.205
   394.8,0.003191,0.002406,0.023916,0.001436,  60.204
   395.0,0.003222,0.002400,0.023810,0.001436,  60.212
   395.2,0.003253,0.002393,0.023758,0.001412,  60.220
   395.4,0.003290,0.002385,0.023680,0.001423,  60.247
   395.6,0.003337,0.002383,0.023628,0.001410,  60.255
   395.8,0.003358,0.002383,0.023568,0.001385,  60.263
   396.0,0.003379,0.002385,0.023509,0.001410,  60.270
   396.2,0.003409,0.002382,0.023449,0.001410,  60.278
   396.4,0.003420,0.002409,0.023416,0.001385,  60.282
   396.6,0.003429,0.002445,0.023383,0.001410,  60.277
   396.8,0.003439,0.002501,0.023360,0.001410,  60.285
   397.0,0.003441,0.002529,0.023256,0.001412,  60.293
   397.2,0.003451,0.002558,0.023132,0.001489,  60.294
   397.4,0.003461,0.002584,0.022955,0.001556,  60.293
   397.6,0.003458,0.002602,0.022782,0.001571,  60.293
   397.8,0.003452,0.002621,0.022591,0.001635,  60.297
   398.0,0.003439,0.002636,0.022376,0.001675,  60.298
   398.2,0.003436,0.002647,0.022177,0.001678,  60.304
   398.4,0.003402,0.002655,0.021987,0.001742,  60.307
   398.6,0.003362,0.002666,0.021806,0.001755,  60.307
   398.8,0.003309,0.002665,0.021624,0.001744,  60.310
   399.0,0.003268,0.002664,0.021449,0.001795,  60.312
   399.2,0.003233,0.002666,0.021273,0.001795,  60.318
   399.4,0.003204,0.002644,0.021204,0.001771,  60.323
   399.6,0.003169,0.002613,0.021154,0.001808,  60.321
   399.8,0.003151,0.002578,0.021154,0.001822,  60.331
   400.0,0.003137,0.002547,0.021163,0.001771,  60.326
   400.2,0.003112,0.002520,0.021165,0.001795,  60.327
   400.4,0.003091,0.002492,0.021201,0.001755,  60.326
   400.6,0.003073,0.002469,0.021201,0.001691,  60.328
   400.8,0.003058,0.002446,0.021184,0.001702,  60.327
   401.0,0.003038,0.002429,0.021140,0.001673,  60.318
   401.2,0.003030,0.002412,0.021098,0.001609,  60.311
   401.4,0.003024,0.002396,0.021079,0.001596,  60.313
   401.6,0.003010,0.002376,0.021060,0.001569,  60.315
   401.8,0.003012,0.002358,0.021069,0.001556,  60.323
   402.0,0.002996,0.002346,0.021079,0.001505,  60.326
   402.2,0.002967,0.002332,0.021123,0.001542,  60.328
   402.4,0.002941,0.002319,0.021000,0.001516,  60.332
   402.6,0.002925,0.002312,0.020755,0.001503,  60.340
   402.8,0.002913,0.002311,0.020447,0.001489,  60.342
   403.0,0.002911,0.002301,0.020388,0.001476,  60.346
   403.2,0.002930,0.002281,0.020389,0.001439,  60.354
   403.4,0.002964,0.002265,0.020487,0.001476,  60.358
   403.6,0.003017,0.002255,0.020462,0.001476,  60.366
   403.8,0.003054,0.002238,0.020445,0.001425,  60.372
   404.0,0.003084,0.002234,0.020376,0.001463,  60.381
   404.2,0.003129,0.002246,0.020305,0.001449,  60.391
   404.4,0.003160,0.002257,0.019656,0.001399,  60.401
   404.6,0.003174,0.002289,0.018755,0.001423,  60.402
   404.8,0.003197,0.002315,0.017587,0.001396,  60.410
   405.0,0.003215,0.002339,0.017554,0.001372,  60.410
   405.2,0.003220,0.002372,0.017966,0.001410,  60.418
   405.4,0.003237,0.002401,0.018805,0.001410,  60.438
   405.6,0.003246,0.002427,0.018999,0.001412,  60.441
   405.8,0.003245,0.002453,0.019079,0.001503,  60.440
   406.0,0.003255,0.002479,0.019062,0.001582,  60.444
   406.2,0.003249,0.002495,0.019073,0.001598,  60.443
   406.4,0.003229,0.002511,0.019015,0.001675,  60.446
   406.6,0.003212,0.002523,0.018914,0.001715,  60.449
   406.8,0.003190,0.002530,0.018830,0.001718,  60.454
   407.0,0.003155,0.002539,0.018729,0.001782,  60.455
   407.2,0.003129,0.002549,0.018618,0.001782,  60.454
   407.4,0.003092,0.002546,0.018577,0.001758,  60.459
   407.6,0.003064,0.002540,0.018562,0.001808,  60.467
   407.8,0.003033,0.002541,0.018556,0.001822,  60.471
   408.0,0.002999,0.002527,0.018523,0.001797,  60.477
   408.2,0.002974,0.002494,0.018462,0.001835,  60.479
   408.4,0.002945,0.002452,0.018392,0.001835,  60.479
   408.6,0.002928,0.002426,0.018401,0.001797,  60.480
   408.8,0.002909,0.002394,0.018411,0.001808,  60.475
   409.0,0.002888,0.002362,0.018437,0.001768,  60.473
   409.2,0.002876,0.002335,0.018464,0.001704,  60.473
   409.4,0.002861,0.002306,0.018481,0.001702,  60.469
   409.6,0.002842,0.002293,0.018489,0.001662,  60.458
   409.8,0.002827,0.002276,0.018525,0.001611,  60.463
   410.0,0.002827,0.002257,0.018578,0.001622,  60.465
   410.2,0.002833,0.002246,0.018656,0.001596,  60.473
   410.4,0.002846,0.002231,0.018692,0.001545,  60.475
   410.6,0.002833,0.002222,0.018701,0.001582,  60.480
   410.8,0.002805,0.002215,0.018684,0.001569,  60.482
   411.0,0.002765,0.002211,0.018677,0.001556,  60.490
   411.2,0.002757,0.002208,0.018659,0.001518,  60.494
   411.4,0.002745,0.002210,0.018608,0.001542,  60.497
   411.6,0.002736,0.002203,0.018522,0.001516,  60.504
   411.8,0.002768,0.002191,0.018417,0.001503,  60.509
   412.0,0.002811,0.002177,0.018286,0.001516,  60.516
   412.2,0.002870,0.002168,0.018218,0.001516,  60.521
   412.4,0.002902,0.002153,0.018191,0.001492,  60.525
   412.6,0.002933,0.002143,0.018183,0.001529,  60.536
   412.8,0.002975,0.002154,0.018183,0.001529,  60.540
   413.0,0.002995,0.002168,0.018164,0.001492,  60.551
   413.2,0.003017,0.002195,0.018146,0.001503,  60.553
   413.4,0.003040,0.002221,0.018100,0.001476,  60.560
   413.6,0.003051,0.002255,0.018093,0.001439,  60.561
   413.8,0.003063,0.002296,0.018085,0.001476,  60.568
   414.0,0.003072,0.002332,0.018062,0.001476,  60.568
   414.2,0.003082,0.002353,0.017976,0.001465,  60.565
   414.4,0.003088,0.002376,0.017829,0.001569,  60.573
   414.6,0.003091,0.002390,0.017622,0.001635,  60.572
   414.8,0.003079,0.002404,0.017512,0.001638,  60.573
   415.0,0.003057,0.002416,0.017401,0.001715,  60.576
   415.2,0.003037,0.002429,0.017275,0.001742,  60.576
   415.4,0.003012,0.002435,0.017155,0.001731,  60.582
   415.6,0.002990,0.002445,0.017009,0.001795,  60.581
   415.8,0.002959,0.002452,0.016836,0.001808,  60.583
   416.0,0.002932,0.002449,0.016794,0.001797,  60.579
   416.2,0.002896,0.002441,0.016787,0.001848,  60.590
   416.4,0.002873,0.002431,0.016798,0.001848,  60.595
   416.6,0.002845,0.002410,0.016782,0.001824,  60.601
   416.8,0.002816,0.002379,0.016739,0.001875,  60.601
   417.0,0.002802,0.002350,0.016678,0.001848,  60.604
   417.2,0.002785,0.002326,0.016218,0.001784,  60.597
   417.4,0.002762,0.002296,0.015540,0.001795,  60.598
   417.6,0.002754,0.002262,0.014640,0.001728,  60.595
   417.8,0.002735,0.002235,0.014597,0.001664,  60.590
   418.0,0.002715,0.002216,0.014881,0.001651,  60.583
   418.2,0.002710,0.002207,0.015486,0.001638,  60.590
   418.4,0.002698,0.002188,0.015764,0.001587,  60.585
   418.6,0.002703,0.002173,0.015999,0.001561,  60.593
   418.8,0.002735,0.002169,0.016243,0.001585,  60.596
   419.0,0.002772,0.002150,0.016373,0.001571,  60.598
   419.2,0.002749,0.002135,0.016409,0.001558,  60.603
   419.4,0.002726,0.002129,0.016400,0.001558,  60.605
   419.6,0.002673,0.002133,0.016445,0.001545,  60.628
   419.8,0.002650,0.002142,0.016498,0.001532,  60.640
   420.0,0.002649,0.002172,0.016543,0.001518,  60.640
   420.2,0.002647,0.002167,0.016526,0.001505,  60.642
   420.4,0.002664,0.002152,0.016475,0.001481,  60.647
   420.6,0.002718,0.002130,0.016395,0.001468,  60.654
   420.8,0.002787,0.002111,0.016265,0.001492,  60.658
   421.0,0.002814,0.002094,0.016248,0.001481,  60.668
   421.2,0.002855,0.002076,0.016238,0.001494,  60.668
   421.4,0.002883,0.002077,0.016248,0.001558,  60.679
   421.6,0.002903,0.002098,0.016299,0.001521,  60.682
   421.8,0.002925,0.002123,0.016394,0.001494,  60.688
   422.0,0.002937,0.002167,0.016506,0.001492,  60.690
   422.2,0.002948,0.002196,0.016515,0.001468,  60.693
   422.4,0.002971,0.002230,0.016473,0.001494,  60.694
   422.6,0.002988,0.002265,0.016380,0.001571,  60.700
   422.8,0.002990,0.002285,0.016296,0.001574,  60.699
   423.0,0.003006,0.002309,0.016203,0.001627,  60.700
   423.2,0.003006,0.002325,0.016058,0.001691,  60.699
   423.4,0.002990,0.002339,0.015905,0.001680,  60.705
   423.6,0.002965,0.002352,0.015742,0.001720,  60.705
   423.8,0.002934,0.002371,0.015578,0.001784,  60.709
   424.0,0.002909,0.002383,0.015328,0.001760,  60.705
   424.2,0.002885,0.002391,0.015052,0.001787,  60.714
   424.4,0.002857,0.002399,0.014734,0.001837,  60.712
   424.6,0.002829,0.002393,0.014692,0.001826,  60.721
   424.8,0.002801,0.002385,0.014754,0.001826,  60.729
   425.0,0.002778,0.002372,0.014902,0.001851,  60.733
   425.2,0.002754,0.002346,0.014972,0.001826,  60.741
   425.4,0.002728,0.002320,0.015008,0.001813,  60.738
   425.6,0.002707,0.002285,0.015034,0.001851,  60.739
   425.8,0.002691,0.002256,0.014853,0.001800,  60.731
   426.0,0.002672,0.002232,0.014550,0.001760,  60.731
   426.2,0.002664,0.002214,0.014151,0.001758,  60.727
   426.4,0.002651,0.002192,0.014151,0.001693,  60.721
   426.6,0.002635,0.002175,0.014264,0.001654,  60.723
   426.8,0.002636,0.002166,0.014556,0.001664,  60.722
   427.0,0.002630,0.002146,0.014650,0.001614,  60.730
   427.2,0.002647,0.002134,0.014677,0.001587,  60.733
   427.4,0.002691,0.002126,0.014709,0.001611,  60.740
   427.6,0.002747,0.002114,0.014822,0.001574,  60.737
   427.8,0.002735,0.002104,0.014944,0.001561,  60.752
   428.0,0.002694,0.002103,0.015093,0.001585,  60.751
   428.2,0.002634,0.002115,0.015111,0.001585,  60.754
   428.4,0.002625,0.002139,0.015076,0.001585,  60.756
   428.6,0.002627,0.002183,0.014972,0.001571,  60.763
   428.8,0.002656,0.002183,0.014938,0.001558,  60.765
   429.0,0.002680,0.002156,0.014912,0.001558,  60.770
   429.2,0.002707,0.002127,0.014868,0.001558,  60.779
   429.4,0.002758,0.002113,0.014652,0.001558,  60.782
   429.6,0.002788,0.002094,0.014383,0.001547,  60.786
   429.8,0.002806,0.002078,0.013986,0.001587,  60.794
   430.0,0.002832,0.002095,0.013528,0.001678,  60.797
   430.2,0.002850,0.002128,0.013726,0.001627,  60.822
   430.4,0.002858,0.002173,0.014113,0.001587,  60.822
   430.6,0.002875,0.002199,0.014708,0.001558,  60.823
   430.8,0.002890,0.002215,0.014864,0.001521,  60.831
   431.0,0.002892,0.002240,0.014865,0.001561,  60.831
   431.2,0.002909,0.002246,0.014745,0.001664,  60.834
   431.4,0.002918,0.002263,0.014721,0.001654,  60.833
   431.6,0.002917,0.002276,0.014664,0.001680,  60.840
   431.8,0.002927,0.002299,0.014590,0.001744,  60.840
   432.0,0.002915,0.002313,0.014307,0.001747,  60.843
   432.2,0.002883,0.002317,0.013895,0.001773,  60.842
   432.4,0.002859,0.002332,0.013386,0.001811,  60.845
   432.6,0.002832,0.002341,0.013319,0.001800,  60.846
   432.8,0.002790,0.002345,0.013426,0.001813,  60.851
   433.0,0.002761,0.002356,0.013686,0.001851,  60.849
   433.2,0.002743,0.002353,0.013705,0.001826,  60.852
   433.4,0.002717,0.002338,0.013688,0.001826,  60.861
   433.6,0.002709,0.002327,0.013626,0.001877,  60.866
   433.8,0.002694,0.002306,0.013669,0.001853,  60.865
   434.0,0.002675,0.002274,0.013731,0.001840,  60.856
   434.2,0.002657,0.002246,0.013819,0.001864,  60.859
   434.4,0.002638,0.002222,0.013922,0.001813,  60.857
   434.6,0.002623,0.002199,0.014008,0.001787,  60.859
   434.8,0.002614,0.002183,0.014070,0.001771,  60.853
   435.0,0.002612,0.002161,0.014079,0.001720,  60.848
   435.2,0.002609,0.002148,0.014069,0.001693,  60.852
   435.4,0.002598,0.002134,0.014015,0.001691,  60.849
   435.6,0.002609,0.002120,0.014032,0.001640,  60.853
   435.8,0.002643,0.002110,0.014075,0.001627,  60.859
   436.0,0.002682,0.002103,0.014143,0.001638,  60.864
   436.2,0.002754,0.002102,0.014203,0.001587,  60.864
   436.4,0.002742,0.002095,0.014205,0.001574,  60.867
   436.6,0.002691,0.002087,0.014214,0.001598,  60.873
   436.8,0.002621,0.002116,0.014249,0.001561,  60.875
   437.0,0.002618,0.002154,0.014276,0.001561,  60.873
   437.2,0.002629,0.002203,0.014302,0.001585,  60.880
   437.4,0.002667,0.002198,0.014259,0.001598,  60.882
   437.6,0.002692,0.002172,0.014172,0.001598,  60.885
   437.8,0.002713,0.002129,0.014050,0.001625,  60.886
   438.0,0.002754,0.002120,0.014101,0.001625,  60.889
   438.2,0.002779,0.002120,0.014212,0.001651,  60.894
   438.4,0.002797,0.002125,0.014376,0.001704,  60.897
   438.6,0.002820,0.002147,0.014531,0.001758,  60.902
   438.8,0.002839,0.002171,0.014695,0.001720,  60.904
   439.0,0.002851,0.002202,0.014885,0.001667,  60.909
   439.2,0.002860,0.002229,0.015075,0.001625,  60.910
   439.4,0.002880,0.002250,0.015032,0.001614,  60.916
   439.6,0.002886,0.002261,0.014851,0.001640,  60.912
   439.8,0.002896,0.002275,0.014559,0.001731,  60.913
   440.0,0.002909,0.002287,0.014396,0.001733,  60.913
   440.2,0.002909,0.002294,0.014243,0.001760,  60.911
   440.4,0.002902,0.002305,0.014065,0.001811,  60.918
   440.6,0.002886,0.002314,0.013929,0.001800,  60.915
   440.8,0.002858,0.002329,0.013784,0.001826,  60.915
   441.0,0.002824,0.002339,0.013656,0.001877,  60.921
   441.2,0.002794,0.002340,0.013571,0.001853,  60.917
   441.4,0.002763,0.002353,0.013513,0.001853,  60.920
   441.6,0.002726,0.002358,0.013479,0.001904,  60.926
   441.8,0.002704,0.002345,0.013385,0.001880,  60.932
   442.0,0.002686,0.002336,0.013274,0.001880,  60.936
   442.2,0.002670,0.002319,0.013178,0.001917,  60.940
   442.4,0.002658,0.002296,0.013161,0.001893,  60.943
   442.6,0.002647,0.002272,0.013144,0.001893,  60.937
   442.8,0.002643,0.002247,0.013161,0.001917,  60.929
   443.0,0.002629,0.002220,0.013118,0.001853,  60.928
   443.2,0.002612,0.002193,0.013023,0.001826,  60.921
   443.4,0.002607,0.002177,0.012901,0.001824,  60.923
   443.6,0.002598,0.002154,0.012970,0.001760,  60.920
   443.8,0.002600,0.002137,0.013090,0.001720,  60.918
   444.0,0.002623,0.002129,0.013289,0.001731,  60.923
   444.2,0.002644,0.002116,0.013315,0.001680,  60.921
   444.4,0.002677,0.002112,0.013280,0.001667,  60.921
   444.6,0.002726,0.002105,0.013201,0.001654,  60.924
   444.8,0.002782,0.002102,0.013175,0.001640,  60.924
   445.0,0.002759,0.002109,0.013106,0.001640,  60.920
   445.2,0.002707,0.002114,0.013054,0.001614,  60.924
   445.4,0.002620,0.002140,0.013037,0.001614,  60.923
   445.6,0.002610,0.002184,0.013037,0.001600,  60.928
   445.8,0.002636,0.002235,0.013029,0.001587,  60.927
   446.0,0.002676,0.002224,0.013047,0.001587,  60.932
   446.2,0.002690,0.002197,0.013090,0.001600,  60.927
   446.4,0.002722,0.002139,0.013134,0.001590,  60.929
   446.6,0.002747,0.002126,0.013228,0.001667,  60.931
   446.8,0.002758,0.002130,0.013346,0.001707,  60.935
   447.0,0.002784,0.002140,0.013490,0.001747,  60.935
   447.2,0.002796,0.002155,0.013428,0.001800,  60.942
   447.4,0.002804,0.002177,0.013306,0.001787,  60.944
   447.6,0.002824,0.002211,0.013072,0.001760,  60.952
   447.8,0.002830,0.002230,0.012779,0.001680,  60.951
   448.0,0.002832,0.002247,0.012703,0.001693,  60.950
   448.2,0.002849,0.002259,0.012671,0.001720,  60.954
   448.4,0.002852,0.002273,0.012698,0.001760,  60.952
   448.6,0.002847,0.002280,0.012684,0.001787,  60.953
   448.8,0.002855,0.002286,0.012644,0.001813,  60.954
   449.0,0.002849,0.002291,0.012604,0.001826,  60.959
   449.2,0.002826,0.002295,0.012607,0.001853,  60.955
   449.4,0.002805,0.002305,0.012610,0.001866,  60.959
   449.6,0.002771,0.002312,0.012620,0.001880,  60.953
   449.8,0.002736,0.002317,0.012580,0.001893,  60.958
   450.0,0.002710,0.002316,0.012546,0.001906,  60.961
   450.2,0.002676,0.002324,0.012452,0.001893,  60.975
   450.4,0.002644,0.002317,0.012358,0.001893,  60.977
   450.6,0.002626,0.002297,0.012248,0.001906,  60.988
   450.8,0.002605,0.002282,0.012126,0.001906,  60.998
   451.0,0.002586,0.002257,0.012083,0.001906,  61.019
   451.2,0.002574,0.002225,0.012050,0.001906,  61.012
   451.4,0.002569,0.002194,0.012057,0.001893,  61.004
   451.6,0.002560,0.002171,0.012126,0.001866,  60.977
   451.8,0.002555,0.002149,0.012231,0.001853,  60.938
   452.0,0.002544,0.002135,0.012352,0.001800,  60.933
   452.2,0.002540,0.002111,0.012360,0.001773,  60.931
   452.4,0.002559,0.002099,0.012315,0.001747,  60.927
   452.6,0.002585,0.002089,0.012210,0.001720,  60.925
   452.8,0.002631,0.002076,0.012157,0.001707,  60.926
   453.0,0.002681,0.002061,0.012114,0.001680,  60.928
   453.2,0.002733,0.002059,0.012045,0.001667,  60.928
   453.4,0.002789,0.002071,0.012081,0.001654,  60.927
   453.6,0.002767,0.002082,0.012159,0.001640,  60.924
   453.8,0.002712,0.002109,0.012289,0.001614,  60.930
   454.0,0.002616,0.002147,0.012317,0.001614,  60.932
   454.2,0.002610,0.002190,0.012351,0.001600,  60.932
   454.4,0.002625,0.002242,0.012334,0.001600,  60.933
   454.6,0.002669,0.002232,0.012403,0.001640,  60.929
   454.8,0.002690,0.002191,0.012489,0.001667,  60.933
   455.0,0.002709,0.002127,0.012575,0.001720,  60.931
   455.2,0.002735,0.002115,0.012712,0.001747,  60.943
   455.4,0.002756,0.002121,0.012891,0.001787,  60.948
   455.6,0.002761,0.002141,0.013103,0.001776,  60.947
   455.8,0.002773,0.002155,0.013205,0.001840,  60.960
