Run Name,Run 4
Run Date,07:52:47 PM   03-06-15
Method Name,10% isocratic
Export Format Version, 1.00
Method ID, 2242
Points/Second, 5.00
Number of Records,   3341
Offset from Run Start Time,00:00:00
Run End Time,00:11:11
Time,Second
QuadTec 1, (280.0 nm), AU
QuadTec 2, (260.0 nm), AU
Gradient Pump,<Not Selected>
QuadTec 3, (214.0 nm), AU
QuadTec 4, (405.0 nm), AU
Conductivity,mS/cm
Trace 6,<Not Available>
GP Pressure,<Not Selected>
Volume,<Not Selected>
Fraction,<Not Available>
Time,QuadTec 1,QuadTec 2,QuadTec 3,QuadTec 4,Conductivity
     0.0,0.000000,0.000000,-0.000942,0.000000,  46.065
     0.2,0.000000,0.000000,-0.000942,0.000000,  46.048
     0.4,0.000000,0.000000,-0.000942,0.000000,  46.023
     0.6,0.000000,0.000000,-0.000942,0.000000,  46.025
     0.8,0.000000,0.000000,0.000000,0.000000,  46.011
     1.0,0.000000,0.000000,0.000000,0.000000,  46.011
     1.2,0.000000,0.000000,0.000000,0.000000,  46.010
     1.4,0.000000,0.000000,0.000000,0.000000,  46.007
     1.6,0.000000,0.000000,0.000000,0.000000,  46.006
     1.8,0.000000,0.000000,0.000000,0.000000,  46.003
     2.0,0.000000,0.000000,0.000000,0.000000,  46.002
     2.2,0.000000,0.000000,0.000000,0.000000,  46.005
     2.4,0.000000,0.000000,0.000000,0.000000,  46.005
     2.6,0.000000,0.000000,0.000000,0.000000,  45.999
     2.8,0.000000,0.000000,0.000000,0.000000,  46.004
     3.0,0.000000,0.000000,0.000000,0.000000,  46.004
     3.2,0.000000,0.000000,0.000000,0.000000,  46.003
     3.4,0.000162,0.000000,0.000000,0.000000,  46.002
     3.6,0.000170,0.000030,0.000000,0.000048,  45.999
     3.8,0.000180,0.000061,-0.000210,0.000038,  46.000
     4.0,0.000205,0.000088,-0.000322,0.000038,  45.997
     4.2,0.000218,0.000107,-0.000404,0.000038,  45.993
     4.4,0.000242,0.000128,-0.000426,0.000016,  45.994
     4.6,0.000268,0.000137,-0.000418,0.000065,  45.996
     4.8,0.000285,0.000157,-0.000352,0.000078,  45.991
     5.0,0.000306,0.000183,-0.000277,0.000069,  45.990
     5.2,0.000314,0.000207,-0.000530,0.000105,  45.984
     5.4,0.000338,0.000227,-0.000910,0.000118,  45.988
     5.6,0.000362,0.000252,-0.001431,0.000095,  45.986
     5.8,0.000381,0.000275,-0.001401,0.000158,  45.987
     6.0,0.000417,0.000297,-0.001171,0.000158,  45.985
     6.2,0.000436,0.000321,-0.000733,0.000135,  45.981
     6.4,0.000470,0.000356,-0.000577,0.000197,  45.973
     6.6,0.000496,0.000378,-0.000459,0.000211,  45.973
     6.8,0.000510,0.000393,-0.000392,0.000201,  45.968
     7.0,0.000537,0.000416,-0.000325,0.000250,  45.971
     7.2,0.000552,0.000432,-0.000288,0.000250,  45.959
     7.4,0.000559,0.000443,-0.000259,0.000250,  45.947
     7.6,0.000575,0.000457,-0.000273,0.000228,  45.946
     7.8,0.000581,0.000469,-0.000325,0.000215,  45.936
     8.0,0.000580,0.000473,-0.000407,0.000250,  45.937
     8.2,0.000587,0.000475,-0.000415,0.000228,  45.932
     8.4,0.000587,0.000484,-0.000430,0.000264,  45.931
     8.6,0.000586,0.000489,-0.000415,0.000264,  45.929
     8.8,0.000598,0.000493,-0.000407,0.000228,  45.920
     9.0,0.000604,0.000495,-0.000347,0.000277,  45.922
     9.2,0.000603,0.000494,-0.000250,0.000277,  45.918
     9.4,0.000606,0.000488,-0.000123,0.000241,  45.915
     9.6,0.000599,0.000486,-0.000055,0.000290,  45.908
     9.8,0.000602,0.000491,-0.000032,0.000277,  45.907
    10.0,0.000599,0.000486,-0.000024,0.000277,  45.906
    10.2,0.000606,0.000477,-0.000031,0.000277,  45.902
    10.4,0.000602,0.000477,-0.000068,0.000299,  45.902
    10.6,0.000599,0.000468,-0.000143,0.000299,  45.893
    10.8,0.000603,0.000466,-0.000202,0.000264,  45.895
    11.0,0.000596,0.000464,-0.000269,0.000286,  45.893
    11.2,0.000593,0.000469,-0.000351,0.000250,  45.888
    11.4,0.000594,0.000471,-0.000403,0.000264,  45.885
    11.6,0.000590,0.000469,-0.000455,0.000264,  45.878
    11.8,0.000590,0.000462,-0.000508,0.000228,  45.877
    12.0,0.000600,0.000462,-0.000760,0.000264,  45.876
    12.2,0.000593,0.000460,-0.001124,0.000264,  45.869
    12.4,0.000593,0.000453,-0.001599,0.000228,  45.855
    12.6,0.000597,0.000455,-0.001666,0.000264,  45.850
    12.8,0.000588,0.000453,-0.001606,0.000264,  45.849
    13.0,0.000582,0.000444,-0.001384,0.000228,  45.845
    13.2,0.000580,0.000442,-0.001288,0.000264,  45.839
    13.4,0.000573,0.000440,-0.001198,0.000250,  45.835
    13.6,0.000577,0.000435,-0.001101,0.000215,  45.832
    13.8,0.000584,0.000443,-0.001027,0.000264,  45.824
    14.0,0.000577,0.000441,-0.000982,0.000250,  45.831
    14.2,0.000581,0.000434,-0.000966,0.000215,  45.825
    14.4,0.000572,0.000433,-0.000966,0.000264,  45.823
    14.6,0.000572,0.000435,-0.000996,0.000250,  45.819
    14.8,0.000572,0.000434,-0.001048,0.000215,  45.811
    15.0,0.000562,0.000436,-0.001076,0.000264,  45.808
    15.2,0.000569,0.000434,-0.001083,0.000250,  45.803
    15.4,0.000569,0.000437,-0.001083,0.000215,  45.803
    15.6,0.000562,0.000430,-0.001083,0.000264,  45.801
    15.8,0.000566,0.000431,-0.001113,0.000250,  45.794
    16.0,0.000556,0.000427,-0.001158,0.000250,  45.795
    16.2,0.000560,0.000422,-0.001551,0.000228,  45.788
    16.4,0.000564,0.000427,-0.002152,0.000215,  45.789
    16.6,0.000558,0.000425,-0.002972,0.000250,  45.785
    16.8,0.000558,0.000420,-0.003016,0.000228,  45.770
    17.0,0.000559,0.000418,-0.002757,0.000250,  45.769
    17.2,0.000549,0.000423,-0.002217,0.000250,  45.764
    17.4,0.000546,0.000425,-0.002024,0.000215,  45.758
    17.6,0.000547,0.000420,-0.001846,0.000250,  45.756
    17.8,0.000537,0.000420,-0.001719,0.000237,  45.753
    18.0,0.000537,0.000422,-0.001600,0.000201,  45.758
    18.2,0.000547,0.000419,-0.001496,0.000237,  45.749
    18.4,0.000543,0.000418,-0.001399,0.000237,  45.750
    18.6,0.000546,0.000421,-0.001317,0.000201,  45.742
    18.8,0.000553,0.000420,-0.001272,0.000215,  45.744
    19.0,0.000549,0.000424,-0.001243,0.000215,  45.747
    19.2,0.000552,0.000430,-0.001251,0.000179,  45.744
    19.4,0.000556,0.000429,-0.001221,0.000192,  45.742
    19.6,0.000549,0.000433,-0.001183,0.000215,  45.745
    19.8,0.000552,0.000430,-0.001153,0.000179,  45.741
    20.0,0.000559,0.000429,-0.001153,0.000192,  45.743
    20.2,0.000552,0.000431,-0.001183,0.000215,  45.742
    20.4,0.000555,0.000434,-0.001251,0.000179,  45.741
    20.6,0.000552,0.000432,-0.001926,0.000179,  45.739
    20.8,0.000548,0.000434,-0.002947,0.000201,  45.738
    21.0,0.000555,0.000432,-0.004310,0.000166,  45.741
    21.2,0.000562,0.000435,-0.004332,0.000166,  45.738
    21.4,0.000558,0.000439,-0.003898,0.000201,  45.738
    21.6,0.000560,0.000440,-0.002969,0.000166,  45.742
    21.8,0.000566,0.000438,-0.002636,0.000179,  45.740
    22.0,0.000559,0.000437,-0.002363,0.000215,  45.745
    22.2,0.000570,0.000445,-0.002133,0.000179,  45.744
    22.4,0.000574,0.000444,-0.001948,0.000215,  45.745
    22.6,0.000570,0.000439,-0.001800,0.000237,  45.746
    22.8,0.000577,0.000440,-0.001675,0.000201,  45.748
    23.0,0.000577,0.000441,-0.001563,0.000250,  45.757
    23.2,0.000580,0.000442,-0.001467,0.000250,  45.756
    23.4,0.000579,0.000439,-0.001407,0.000215,  45.756
    23.6,0.000582,0.000447,-0.001296,0.000228,  45.759
    23.8,0.000585,0.000450,-0.001206,0.000228,  45.761
    24.0,0.000591,0.000452,-0.001117,0.000192,  45.763
    24.2,0.000591,0.000454,-0.001043,0.000192,  45.761
    24.4,0.000594,0.000457,-0.000991,0.000228,  45.765
    24.6,0.000593,0.000459,-0.000946,0.000192,  45.769
    24.8,0.000596,0.000468,-0.000932,0.000192,  45.768
    25.0,0.000605,0.000467,-0.000939,0.000228,  45.776
    25.2,0.000601,0.000459,-0.000970,0.000228,  45.781
    25.4,0.000607,0.000464,-0.000932,0.000228,  45.782
    25.6,0.000611,0.000468,-0.000873,0.000241,  45.780
    25.8,0.000610,0.000475,-0.000813,0.000228,  45.785
    26.0,0.000616,0.000484,-0.000791,0.000241,  45.788
    26.2,0.000622,0.000486,-0.000768,0.000241,  45.794
    26.4,0.000621,0.000486,-0.000769,0.000228,  45.794
    26.6,0.000631,0.000487,-0.000791,0.000192,  45.789
    26.8,0.000634,0.000484,-0.000762,0.000205,  45.801
    27.0,0.000630,0.000486,-0.000762,0.000241,  45.805
    27.2,0.000634,0.000492,-0.000740,0.000205,  45.809
    27.4,0.000634,0.000491,-0.000755,0.000219,  45.814
    27.6,0.000630,0.000501,-0.000756,0.000241,  45.817
    27.8,0.000637,0.000501,-0.000801,0.000205,  45.820
    28.0,0.000639,0.000501,-0.000801,0.000219,  45.821
    28.2,0.000635,0.000506,-0.000786,0.000241,  45.823
    28.4,0.000642,0.000511,-0.000771,0.000205,  45.825
    28.6,0.000642,0.000517,-0.000764,0.000241,  45.828
    28.8,0.000638,0.000519,-0.000787,0.000264,  45.830
    29.0,0.000645,0.000522,-0.000824,0.000228,  45.832
    29.2,0.000645,0.000527,-0.000861,0.000277,  45.840
    29.4,0.000638,0.000527,-0.000891,0.000277,  45.855
    29.6,0.000645,0.000527,-0.000936,0.000241,  45.857
    29.8,0.000649,0.000525,-0.001137,0.000290,  45.860
    30.0,0.000648,0.000525,-0.001418,0.000277,  45.866
    30.2,0.000651,0.000529,-0.001760,0.000254,  45.865
    30.4,0.000658,0.000531,-0.002175,0.000290,  45.866
    30.6,0.000657,0.000536,-0.002685,0.000290,  45.868
    30.8,0.000663,0.000539,-0.003290,0.000268,  45.871
    31.0,0.000673,0.000542,-0.003209,0.000303,  45.877
    31.2,0.000672,0.000546,-0.002803,0.000303,  45.882
    31.4,0.000675,0.000558,-0.002130,0.000281,  45.886
    31.6,0.000684,0.000565,-0.001878,0.000317,  45.885
    31.8,0.000690,0.000563,-0.001701,0.000303,  45.886
    32.0,0.000693,0.000569,-0.001597,0.000281,  45.887
    32.2,0.000699,0.000578,-0.001463,0.000303,  45.890
    32.4,0.000702,0.000579,-0.001345,0.000290,  45.890
    32.6,0.000708,0.000582,-0.001249,0.000268,  45.892
    32.8,0.000714,0.000594,-0.001115,0.000303,  45.892
    33.0,0.000723,0.000605,-0.000959,0.000303,  45.891
    33.2,0.000724,0.000609,-0.000802,0.000281,  45.894
    33.4,0.000730,0.000620,-0.000743,0.000317,  45.892
    33.6,0.000733,0.000629,-0.000705,0.000317,  45.895
    33.8,0.000732,0.000633,-0.000720,0.000294,  45.892
    34.0,0.000745,0.000640,-0.000720,0.000317,  45.898
    34.2,0.000748,0.000647,-0.000735,0.000317,  45.898
    34.4,0.000747,0.000652,-0.000743,0.000317,  45.903
    34.6,0.000757,0.000653,-0.000712,0.000294,  45.897
    34.8,0.000760,0.000655,-0.000690,0.000294,  45.901
    35.0,0.000758,0.000657,-0.000631,0.000330,  45.904
    35.2,0.000768,0.000658,-0.000616,0.000294,  45.901
    35.4,0.000768,0.000658,-0.000623,0.000330,  45.902
    35.6,0.000767,0.000658,-0.000646,0.000330,  45.901
    35.8,0.000780,0.000669,-0.000683,0.000307,  45.905
    36.0,0.000783,0.000673,-0.000675,0.000330,  45.907
    36.2,0.000779,0.000675,-0.000646,0.000317,  45.911
    36.4,0.000786,0.000675,-0.000623,0.000294,  45.907
    36.6,0.000780,0.000670,-0.000601,0.000317,  45.911
    36.8,0.000767,0.000665,-0.000586,0.000317,  45.912
    37.0,0.000768,0.000661,-0.000578,0.000294,  45.913
    37.2,0.000760,0.000657,-0.000608,0.000281,  45.910
    37.4,0.000747,0.000652,-0.000653,0.000281,  45.908
    37.6,0.000748,0.000645,-0.000742,0.000258,  45.907
    37.8,0.000745,0.000643,-0.000809,0.000245,  45.910
    38.0,0.000735,0.000640,-0.000921,0.000268,  45.911
    38.2,0.000733,0.000638,-0.001040,0.000245,  45.910
    38.4,0.000727,0.000638,-0.001048,0.000245,  45.910
    38.6,0.000715,0.000633,-0.001025,0.000268,  45.909
    38.8,0.000719,0.000631,-0.000980,0.000245,  45.915
    39.0,0.000710,0.000625,-0.000973,0.000245,  45.913
    39.2,0.000694,0.000616,-0.000980,0.000268,  45.912
    39.4,0.000692,0.000607,-0.000980,0.000245,  45.913
    39.6,0.000680,0.000596,-0.000906,0.000232,  45.911
    39.8,0.000668,0.000592,-0.000831,0.000254,  45.910
    40.0,0.000669,0.000581,-0.000726,0.000219,  45.912
    40.2,0.000663,0.000570,-0.000681,0.000219,  45.905
    40.4,0.000650,0.000566,-0.000659,0.000241,  45.900
    40.6,0.000651,0.000559,-0.000674,0.000205,  45.905
    40.8,0.000649,0.000553,-0.000688,0.000205,  45.900
    41.0,0.000643,0.000539,-0.000726,0.000215,  45.899
    41.2,0.000635,0.000535,-0.000770,0.000166,  45.895
    41.4,0.000632,0.000531,-0.000793,0.000166,  45.896
    41.6,0.000623,0.000521,-0.000853,0.000188,  45.895
    41.8,0.000620,0.000520,-0.000891,0.000139,  45.899
    42.0,0.000614,0.000511,-0.001091,0.000139,  45.899
    42.2,0.000608,0.000503,-0.001410,0.000188,  45.898
    42.4,0.000598,0.000501,-0.001796,0.000152,  45.893
    42.6,0.000596,0.000494,-0.001788,0.000188,  45.892
    42.8,0.000600,0.000493,-0.001654,0.000224,  45.894
    43.0,0.000593,0.000492,-0.001357,0.000260,  45.897
    43.2,0.000593,0.000496,-0.001297,0.000188,  45.893
    43.4,0.000603,0.000493,-0.001297,0.000237,  45.894
    43.6,0.000601,0.000488,-0.001357,0.000237,  45.896
    43.8,0.000607,0.000494,-0.001320,0.000215,  45.892
    44.0,0.000610,0.000494,-0.001267,0.000250,  45.894
    44.2,0.000606,0.000491,-0.001193,0.000250,  45.894
    44.4,0.000613,0.000496,-0.001096,0.000215,  45.894
    44.6,0.000610,0.000498,-0.001059,0.000228,  45.892
    44.8,0.000609,0.000498,-0.001052,0.000215,  45.897
    45.0,0.000619,0.000503,-0.001066,0.000179,  45.895
    45.2,0.000622,0.000506,-0.001088,0.000192,  45.897
    45.4,0.000615,0.000504,-0.001096,0.000228,  45.898
    45.6,0.000619,0.000501,-0.001111,0.000192,  45.895
    45.8,0.000617,0.000501,-0.001118,0.000192,  45.899
    46.0,0.000607,0.000494,-0.001126,0.000228,  45.896
    46.2,0.000607,0.000497,-0.001134,0.000192,  45.898
    46.4,0.000611,0.000494,-0.001156,0.000192,  45.894
    46.6,0.000604,0.000492,-0.001186,0.000192,  45.896
    46.8,0.000607,0.000490,-0.001261,0.000156,  45.897
    47.0,0.000611,0.000488,-0.001313,0.000192,  45.895
    47.2,0.000604,0.000480,-0.001381,0.000192,  45.898
    47.4,0.000604,0.000475,-0.001477,0.000156,  45.896
    47.6,0.000605,0.000479,-0.001447,0.000192,  45.893
    47.8,0.000596,0.000477,-0.001380,0.000228,  45.893
    48.0,0.000596,0.000472,-0.001253,0.000192,  45.893
    48.2,0.000600,0.000471,-0.001200,0.000192,  45.890
    48.4,0.000590,0.000471,-0.001170,0.000228,  45.889
    48.6,0.000587,0.000469,-0.001141,0.000192,  45.889
    48.8,0.000591,0.000468,-0.001073,0.000192,  45.891
    49.0,0.000584,0.000466,-0.000991,0.000215,  45.890
    49.2,0.000584,0.000461,-0.000909,0.000179,  45.887
    49.4,0.000585,0.000467,-0.000887,0.000215,  45.887
    49.6,0.000585,0.000465,-0.000916,0.000237,  45.883
    49.8,0.000588,0.000465,-0.000984,0.000201,  45.883
    50.0,0.000588,0.000462,-0.000991,0.000237,  45.884
    50.2,0.000588,0.000462,-0.000961,0.000237,  45.881
    50.4,0.000591,0.000462,-0.000961,0.000201,  45.882
    50.6,0.000591,0.000465,-0.000931,0.000237,  45.879
    50.8,0.000588,0.000467,-0.000871,0.000237,  45.882
    51.0,0.000581,0.000462,-0.000797,0.000188,  45.879
    51.2,0.000578,0.000453,-0.000812,0.000224,  45.878
    51.4,0.000579,0.000450,-0.000857,0.000224,  45.880
    51.6,0.000572,0.000443,-0.000917,0.000224,  45.880
    51.8,0.000575,0.000443,-0.000925,0.000188,  45.877
    52.0,0.000575,0.000445,-0.000947,0.000188,  45.874
    52.2,0.000568,0.000447,-0.000977,0.000224,  45.873
    52.4,0.000575,0.000449,-0.001014,0.000188,  45.873
    52.6,0.000575,0.000449,-0.001044,0.000224,  45.872
    52.8,0.000568,0.000447,-0.001111,0.000224,  45.877
    53.0,0.000572,0.000440,-0.001170,0.000188,  45.871
    53.2,0.000576,0.000440,-0.001348,0.000224,  45.868
    53.4,0.000569,0.000440,-0.001593,0.000224,  45.854
    53.6,0.000572,0.000443,-0.001890,0.000188,  45.850
    53.8,0.000572,0.000446,-0.001868,0.000224,  45.851
    54.0,0.000565,0.000444,-0.001719,0.000224,  45.847
    54.2,0.000575,0.000447,-0.001430,0.000201,  45.849
    54.4,0.000575,0.000449,-0.001356,0.000237,  45.848
    54.6,0.000568,0.000446,-0.001327,0.000237,  45.844
    54.8,0.000575,0.000444,-0.001357,0.000215,  45.842
    55.0,0.000575,0.000444,-0.001282,0.000250,  45.835
    55.2,0.000568,0.000447,-0.001193,0.000237,  45.833
    55.4,0.000575,0.000440,-0.001068,0.000201,  45.836
    55.6,0.000575,0.000443,-0.001045,0.000237,  45.832
    55.8,0.000568,0.000435,-0.001075,0.000237,  45.831
    56.0,0.000575,0.000438,-0.001128,0.000188,  45.827
    56.2,0.000575,0.000439,-0.001090,0.000224,  45.825
    56.4,0.000568,0.000439,-0.001023,0.000224,  45.825
    56.6,0.000575,0.000440,-0.000919,0.000188,  45.822
    56.8,0.000575,0.000436,-0.000897,0.000224,  45.820
    57.0,0.000568,0.000439,-0.000897,0.000237,  45.820
    57.2,0.000575,0.000439,-0.000941,0.000215,  45.824
    57.4,0.000575,0.000443,-0.000925,0.000250,  45.821
    57.6,0.000575,0.000438,-0.000888,0.000237,  45.824
    57.8,0.000575,0.000435,-0.000858,0.000201,  45.815
    58.0,0.000571,0.000437,-0.000843,0.000237,  45.816
    58.2,0.000575,0.000431,-0.000828,0.000237,  45.818
    58.4,0.000578,0.000424,-0.000828,0.000201,  45.827
    58.6,0.000571,0.000430,-0.000850,0.000237,  45.813
    58.8,0.000575,0.000432,-0.000865,0.000237,  45.815
    59.0,0.000568,0.000427,-0.000888,0.000201,  45.810
    59.2,0.000575,0.000425,-0.000909,0.000201,  45.809
    59.4,0.000575,0.000424,-0.000917,0.000201,  45.816
    59.6,0.000568,0.000429,-0.000917,0.000166,  45.811
    59.8,0.000575,0.000428,-0.001251,0.000166,  45.814
    60.0,0.000575,0.000430,-0.001771,0.000201,  45.817
    60.2,0.000571,0.000435,-0.002453,0.000201,  45.815
    60.4,0.000578,0.000441,-0.002490,0.000215,  45.810
    60.6,0.000581,0.000444,-0.002283,0.000228,  45.818
    60.8,0.000577,0.000439,-0.001861,0.000228,  45.816
    61.0,0.000581,0.000438,-0.001698,0.000241,  45.819
    61.2,0.000588,0.000443,-0.001571,0.000241,  45.813
    61.4,0.000581,0.000445,-0.001437,0.000228,  45.815
    61.6,0.000588,0.000450,-0.001341,0.000192,  45.818
    61.8,0.000592,0.000447,-0.001281,0.000215,  45.814
    62.0,0.000585,0.000447,-0.001266,0.000237,  45.818
    62.2,0.000589,0.000448,-0.001289,0.000201,  45.812
    62.4,0.000583,0.000445,-0.001251,0.000237,  45.816
    62.6,0.000576,0.000444,-0.001214,0.000237,  45.818
    62.8,0.000582,0.000448,-0.001200,0.000201,  45.816
    63.0,0.000578,0.000445,-0.001214,0.000250,  45.818
    63.2,0.000571,0.000443,-0.001237,0.000250,  45.817
    63.4,0.000578,0.000446,-0.001304,0.000215,  45.819
    63.6,0.000572,0.000448,-0.001401,0.000264,  45.819
    63.8,0.000565,0.000446,-0.001520,0.000250,  45.821
    64.0,0.000575,0.000448,-0.001669,0.000215,  45.828
    64.2,0.000572,0.000450,-0.001669,0.000264,  45.826
    64.4,0.000565,0.000449,-0.001610,0.000250,  45.826
    64.6,0.000575,0.000444,-0.001490,0.000215,  45.827
    64.8,0.000572,0.000444,-0.001446,0.000228,  45.828
    65.0,0.000568,0.000444,-0.001401,0.000215,  45.826
    65.2,0.000578,0.000447,-0.001393,0.000179,  45.829
    65.4,0.000581,0.000451,-0.001319,0.000192,  45.825
    65.6,0.000577,0.000454,-0.001237,0.000215,  45.826
    65.8,0.000584,0.000451,-0.001147,0.000179,  45.826
    66.0,0.000587,0.000452,-0.001139,0.000192,  45.826
    66.2,0.000590,0.000450,-0.001169,0.000215,  45.825
    66.4,0.000590,0.000450,-0.001237,0.000179,  45.825
    66.6,0.000586,0.000452,-0.001200,0.000192,  45.831
    66.8,0.000590,0.000446,-0.001162,0.000215,  45.825
    67.0,0.000587,0.000446,-0.001096,0.000179,  45.825
    67.2,0.000577,0.000447,-0.001103,0.000179,  45.833
    67.4,0.000584,0.000447,-0.001111,0.000201,  45.834
    67.6,0.000577,0.000446,-0.001170,0.000152,  45.828
    67.8,0.000581,0.000450,-0.001192,0.000152,  45.830
    68.0,0.000575,0.000445,-0.001177,0.000188,  45.831
    68.2,0.000565,0.000438,-0.001170,0.000224,  45.830
    68.4,0.000566,0.000430,-0.001185,0.000188,  45.832
    68.6,0.000564,0.000425,-0.001200,0.000211,  45.832
    68.8,0.000552,0.000421,-0.001215,0.000211,  45.827
    69.0,0.000546,0.000428,-0.001215,0.000188,  45.830
    69.2,0.000547,0.000425,-0.001200,0.000211,  45.826
    69.4,0.000537,0.000421,-0.001163,0.000197,  45.826
    69.6,0.000531,0.000421,-0.001133,0.000175,  45.822
    69.8,0.000535,0.000416,-0.001125,0.000197,  45.819
    70.0,0.000525,0.000411,-0.001111,0.000184,  45.820
    70.2,0.000519,0.000399,-0.001111,0.000162,  45.819
    70.4,0.000521,0.000389,-0.001155,0.000184,  45.815
    70.6,0.000508,0.000390,-0.001200,0.000171,  45.817
    70.8,0.000505,0.000386,-0.001282,0.000148,  45.814
    71.0,0.000506,0.000379,-0.001274,0.000135,  45.815
    71.2,0.000499,0.000379,-0.001244,0.000135,  45.817
    71.4,0.000496,0.000379,-0.001199,0.000113,  45.814
    71.6,0.000497,0.000376,-0.001191,0.000099,  45.816
    71.8,0.000490,0.000371,-0.001206,0.000135,  45.813
    72.0,0.000500,0.000374,-0.001235,0.000113,  45.819
    72.2,0.000507,0.000374,-0.001279,0.000113,  45.814
    72.4,0.000503,0.000377,-0.001324,0.000148,  45.817
    72.6,0.000516,0.000375,-0.001390,0.000126,  45.811
    72.8,0.000522,0.000380,-0.001404,0.000126,  45.816
    73.0,0.000518,0.000379,-0.001382,0.000162,  45.812
    73.2,0.000525,0.000386,-0.001345,0.000139,  45.818
    73.4,0.000528,0.000390,-0.001374,0.000126,  45.814
    73.6,0.000524,0.000392,-0.001448,0.000162,  45.816
    73.8,0.000526,0.000394,-0.001553,0.000139,  45.813
    74.0,0.000526,0.000391,-0.001545,0.000126,  45.818
    74.2,0.000525,0.000388,-0.001515,0.000162,  45.819
    74.4,0.000528,0.000390,-0.001440,0.000139,  45.822
    74.6,0.000535,0.000388,-0.001633,0.000126,  45.820
    74.8,0.000531,0.000390,-0.001945,0.000162,  45.822
    75.0,0.000531,0.000390,-0.002374,0.000139,  45.821
    75.2,0.000538,0.000398,-0.002389,0.000139,  45.825
    75.4,0.000538,0.000402,-0.002263,0.000175,  45.822
    75.6,0.000541,0.000401,-0.001996,0.000152,  45.822
    75.8,0.000544,0.000398,-0.001892,0.000152,  45.820
    76.0,0.000547,0.000395,-0.001803,0.000175,  45.826
    76.2,0.000550,0.000397,-0.001714,0.000152,  45.831
    76.4,0.000550,0.000405,-0.001647,0.000175,  45.825
    76.6,0.000547,0.000405,-0.001595,0.000197,  45.827
    76.8,0.000543,0.000405,-0.001551,0.000175,  45.826
    77.0,0.000543,0.000406,-0.001529,0.000197,  45.837
    77.2,0.000550,0.000408,-0.001529,0.000197,  45.833
    77.4,0.000546,0.000413,-0.001522,0.000197,  45.828
    77.6,0.000549,0.000417,-0.001767,0.000175,  45.835
    77.8,0.000556,0.000424,-0.002152,0.000162,  45.831
    78.0,0.000552,0.000422,-0.002677,0.000211,  45.836
    78.2,0.000552,0.000420,-0.002766,0.000188,  45.837
    78.4,0.000562,0.000424,-0.002677,0.000188,  45.841
    78.6,0.000558,0.000424,-0.002470,0.000188,  45.839
    78.8,0.000558,0.000416,-0.002093,0.000152,  45.841
    79.0,0.000564,0.000415,-0.001996,0.000188,  45.845
    79.2,0.000560,0.000420,-0.001922,0.000224,  45.849
    79.4,0.000563,0.000425,-0.001849,0.000188,  45.850
    79.6,0.000573,0.000429,-0.001700,0.000224,  45.848
    79.8,0.000569,0.000434,-0.001537,0.000224,  45.849
    80.0,0.000575,0.000436,-0.001344,0.000201,  45.853
    80.2,0.000578,0.000436,-0.001262,0.000237,  45.849
    80.4,0.000574,0.000436,-0.001232,0.000237,  45.853
    80.6,0.000584,0.000437,-0.001255,0.000215,  45.855
    80.8,0.000585,0.000442,-0.001180,0.000264,  45.850
    81.0,0.000581,0.000434,-0.001091,0.000250,  45.857
    81.2,0.000587,0.000443,-0.000973,0.000215,  45.858
    81.4,0.000590,0.000446,-0.000958,0.000250,  45.852
    81.6,0.000586,0.000445,-0.001003,0.000237,  45.854
    81.8,0.000593,0.000449,-0.001071,0.000201,  45.855
    82.0,0.000593,0.000454,-0.001116,0.000237,  45.855
    82.2,0.000586,0.000457,-0.001198,0.000237,  45.852
    82.4,0.000593,0.000455,-0.001288,0.000201,  45.854
    82.6,0.000593,0.000454,-0.001280,0.000237,  45.856
    82.8,0.000586,0.000449,-0.001243,0.000237,  45.851
    83.0,0.000590,0.000446,-0.001154,0.000188,  45.852
    83.2,0.000587,0.000448,-0.001154,0.000224,  45.851
    83.4,0.000583,0.000443,-0.001206,0.000224,  45.849
    83.6,0.000584,0.000435,-0.001258,0.000175,  45.849
    83.8,0.000581,0.000436,-0.001199,0.000211,  45.850
    84.0,0.000578,0.000434,-0.001117,0.000224,  45.850
    84.2,0.000578,0.000431,-0.001005,0.000188,  45.845
    84.4,0.000568,0.000432,-0.000967,0.000224,  45.846
    84.6,0.000572,0.000432,-0.000929,0.000224,  45.842
    84.8,0.000572,0.000425,-0.000929,0.000188,  45.845
    85.0,0.000559,0.000430,-0.000914,0.000224,  45.845
    85.2,0.000563,0.000430,-0.000899,0.000224,  45.840
    85.4,0.000556,0.000423,-0.000876,0.000188,  45.842
    85.6,0.000556,0.000423,-0.000899,0.000188,  45.841
    85.8,0.000556,0.000421,-0.000966,0.000188,  45.838
    86.0,0.000549,0.000419,-0.001070,0.000152,  45.843
    86.2,0.000551,0.000419,-0.001040,0.000188,  45.842
    86.4,0.000556,0.000419,-0.000995,0.000152,  45.835
    86.6,0.000549,0.000418,-0.000891,0.000188,  45.834
    86.8,0.000545,0.000417,-0.000943,0.000188,  45.833
    87.0,0.000545,0.000415,-0.001062,0.000224,  45.836
    87.2,0.000538,0.000416,-0.001249,0.000224,  45.831
    87.4,0.000542,0.000410,-0.001323,0.000188,  45.833
    87.6,0.000543,0.000408,-0.001360,0.000188,  45.833
    87.8,0.000536,0.000410,-0.001375,0.000188,  45.835
    88.0,0.000546,0.000410,-0.001345,0.000152,  45.833
    88.2,0.000546,0.000413,-0.001479,0.000152,  45.832
    88.4,0.000536,0.000411,-0.001665,0.000188,  45.831
    88.6,0.000543,0.000412,-0.001887,0.000152,  45.831
    88.8,0.000547,0.000409,-0.001850,0.000152,  45.830
    89.0,0.000540,0.000413,-0.001723,0.000188,  45.832
    89.2,0.000543,0.000415,-0.001493,0.000152,  45.831
    89.4,0.000546,0.000417,-0.001463,0.000188,  45.831
    89.6,0.000542,0.000417,-0.001464,0.000224,  45.831
    89.8,0.000555,0.000419,-0.001531,0.000188,  45.828
    90.0,0.000552,0.000420,-0.001486,0.000224,  45.829
    90.2,0.000548,0.000422,-0.001412,0.000224,  45.828
    90.4,0.000558,0.000426,-0.001315,0.000188,  45.824
    90.6,0.000560,0.000428,-0.001315,0.000224,  45.827
    90.8,0.000556,0.000427,-0.001353,0.000211,  45.823
    91.0,0.000560,0.000422,-0.001443,0.000188,  45.823
    91.2,0.000560,0.000425,-0.001443,0.000224,  45.823
    91.4,0.000556,0.000427,-0.001443,0.000224,  45.824
    91.6,0.000563,0.000427,-0.001427,0.000188,  45.823
    91.8,0.000566,0.000430,-0.001420,0.000224,  45.821
    92.0,0.000562,0.000432,-0.001427,0.000224,  45.823
    92.2,0.000572,0.000429,-0.001427,0.000188,  45.824
    92.4,0.000572,0.000434,-0.001375,0.000224,  45.823
    92.6,0.000568,0.000439,-0.001300,0.000224,  45.824
    92.8,0.000578,0.000436,-0.001189,0.000188,  45.820
    93.0,0.000575,0.000443,-0.001166,0.000224,  45.818
    93.2,0.000575,0.000450,-0.001204,0.000224,  45.824
    93.4,0.000578,0.000449,-0.001249,0.000188,  45.820
    93.6,0.000574,0.000455,-0.001242,0.000224,  45.817
    93.8,0.000581,0.000463,-0.001219,0.000224,  45.819
    94.0,0.000587,0.000468,-0.001197,0.000188,  45.822
    94.2,0.000593,0.000474,-0.001160,0.000224,  45.820
    94.4,0.000603,0.000481,-0.001108,0.000224,  45.823
    94.6,0.000601,0.000486,-0.001056,0.000188,  45.821
    94.8,0.000610,0.000492,-0.001019,0.000224,  45.820
    95.0,0.000623,0.000489,-0.001019,0.000224,  45.821
    95.2,0.000622,0.000495,-0.001026,0.000224,  45.821
    95.4,0.000625,0.000501,-0.001019,0.000188,  45.822
    95.6,0.000628,0.000505,-0.000982,0.000201,  45.820
    95.8,0.000627,0.000514,-0.000975,0.000237,  45.824
    96.0,0.000637,0.000521,-0.000968,0.000201,  45.825
    96.2,0.000646,0.000528,-0.000968,0.000250,  45.823
    96.4,0.000645,0.000537,-0.000969,0.000237,  45.820
    96.6,0.000651,0.000541,-0.000991,0.000201,  45.821
    96.8,0.000664,0.000546,-0.001007,0.000237,  45.822
    97.0,0.000666,0.000554,-0.001015,0.000237,  45.820
    97.2,0.000682,0.000556,-0.001075,0.000201,  45.818
    97.4,0.000691,0.000562,-0.001045,0.000237,  45.821
    97.6,0.000690,0.000569,-0.000964,0.000237,  45.821
    97.8,0.000703,0.000575,-0.000867,0.000201,  45.821
    98.0,0.000706,0.000577,-0.000853,0.000250,  45.818
    98.2,0.000708,0.000581,-0.000906,0.000250,  45.816
    98.4,0.000711,0.000586,-0.000981,0.000250,  45.817
    98.6,0.000720,0.000591,-0.000952,0.000250,  45.813
    98.8,0.000721,0.000590,-0.000900,0.000273,  45.813
    99.0,0.000727,0.000597,-0.000804,0.000237,  45.810
    99.2,0.000737,0.000596,-0.000693,0.000250,  45.809
    99.4,0.000736,0.000594,-0.000567,0.000250,  45.810
    99.6,0.000745,0.000598,-0.000391,0.000215,  45.811
    99.8,0.000755,0.000599,-0.000258,0.000264,  45.807
   100.0,0.000757,0.000601,-0.000131,0.000250,  45.810
   100.2,0.000760,0.000603,-0.000034,0.000215,  45.807
   100.4,0.000772,0.000608,0.000069,0.000264,  45.807
   100.6,0.000777,0.000607,0.000158,0.000264,  45.807
   100.8,0.000786,0.000614,0.000224,0.000228,  45.804
   101.0,0.000805,0.000616,0.000304,0.000241,  45.809
   101.2,0.000812,0.000618,0.000400,0.000241,  45.806
   101.4,0.000821,0.000629,0.000496,0.000205,  45.806
   101.6,0.000840,0.000636,0.000644,0.000241,  45.805
   101.8,0.000851,0.000639,0.000829,0.000264,  45.805
   102.0,0.000866,0.000648,0.001074,0.000228,  45.804
   102.2,0.000878,0.000658,0.001289,0.000264,  45.805
   102.4,0.000889,0.000667,0.001489,0.000264,  45.808
   102.6,0.000904,0.000674,0.001688,0.000228,  45.803
   102.8,0.000918,0.000692,0.001948,0.000264,  45.807
   103.0,0.000938,0.000705,0.002239,0.000250,  45.812
   103.2,0.000955,0.000719,0.002551,0.000215,  45.805
   103.4,0.000995,0.000730,0.002826,0.000264,  45.807
   103.6,0.001025,0.000741,0.003100,0.000264,  45.813
   103.8,0.001045,0.000762,0.003375,0.000264,  45.812
   104.0,0.001078,0.000777,0.003666,0.000241,  45.816
   104.2,0.001107,0.000792,0.003992,0.000241,  45.814
   104.4,0.001133,0.000810,0.004297,0.000264,  45.816
   104.6,0.001172,0.000825,0.004617,0.000241,  45.817
   104.8,0.001207,0.000843,0.004951,0.000277,  45.821
   105.0,0.001238,0.000858,0.005286,0.000264,  45.821
   105.2,0.001273,0.000880,0.005607,0.000228,  45.825
   105.4,0.001308,0.000903,0.005936,0.000264,  45.824
   105.6,0.001346,0.000923,0.006250,0.000264,  45.827
   105.8,0.001389,0.000953,0.006557,0.000228,  45.829
   106.0,0.001436,0.000983,0.007030,0.000264,  45.824
   106.2,0.001479,0.001013,0.007556,0.000264,  45.829
   106.4,0.001539,0.001037,0.008135,0.000264,  45.829
   106.6,0.001592,0.001062,0.008684,0.000264,  45.834
   106.8,0.001644,0.001093,0.009235,0.000286,  45.832
   107.0,0.001709,0.001127,0.009807,0.000286,  45.834
   107.2,0.001765,0.001151,0.010403,0.000250,  45.836
   107.4,0.001823,0.001176,0.011000,0.000273,  45.837
   107.6,0.001897,0.001206,0.011619,0.000273,  45.834
   107.8,0.001965,0.001232,0.012364,0.000237,  45.838
   108.0,0.002031,0.001265,0.013170,0.000273,  45.840
   108.2,0.002114,0.001307,0.014018,0.000237,  45.841
   108.4,0.002197,0.001352,0.014572,0.000237,  45.837
   108.6,0.002275,0.001396,0.015000,0.000237,  45.839
   108.8,0.002367,0.001445,0.015288,0.000201,  45.838
   109.0,0.002452,0.001490,0.016144,0.000237,  45.834
   109.2,0.002536,0.001541,0.017197,0.000237,  45.838
   109.4,0.002637,0.001591,0.018472,0.000201,  45.837
   109.6,0.002732,0.001640,0.019569,0.000237,  45.836
   109.8,0.002825,0.001694,0.020691,0.000237,  45.834
   110.0,0.002932,0.001750,0.021832,0.000201,  45.838
   110.2,0.003045,0.001806,0.022928,0.000237,  45.831
   110.4,0.003136,0.001865,0.023979,0.000237,  45.835
   110.6,0.003224,0.001925,0.025046,0.000188,  45.831
   110.8,0.003304,0.001993,0.026141,0.000224,  45.831
   111.0,0.003380,0.002049,0.027246,0.000224,  45.831
   111.2,0.003486,0.002112,0.028377,0.000175,  45.834
   111.4,0.003601,0.002176,0.029584,0.000211,  45.827
   111.6,0.003722,0.002233,0.030836,0.000211,  45.830
   111.8,0.003833,0.002300,0.032138,0.000188,  45.829
   112.0,0.003957,0.002372,0.033470,0.000211,  45.828
   112.2,0.004081,0.002439,0.034852,0.000197,  45.830
   112.4,0.004204,0.002509,0.036231,0.000184,  45.830
   112.6,0.004338,0.002588,0.037555,0.000162,  45.827
   112.8,0.004470,0.002661,0.038865,0.000148,  45.826
   113.0,0.004602,0.002740,0.040135,0.000184,  45.827
   113.2,0.004755,0.002815,0.041545,0.000148,  45.830
   113.4,0.004904,0.002897,0.043002,0.000184,  45.830
   113.6,0.005057,0.002979,0.044505,0.000184,  45.833
   113.8,0.005222,0.003076,0.045841,0.000162,  45.830
   114.0,0.005390,0.003175,0.047105,0.000197,  45.832
   114.2,0.005560,0.003274,0.048293,0.000197,  45.830
   114.4,0.005754,0.003384,0.049406,0.000175,  45.828
   114.6,0.005953,0.003490,0.051029,0.000197,  45.833
   114.8,0.006142,0.003598,0.052782,0.000197,  45.831
   115.0,0.006344,0.003717,0.054733,0.000175,  45.831
   115.2,0.006558,0.003832,0.056588,0.000211,  45.830
   115.4,0.006759,0.003945,0.058467,0.000211,  45.825
   115.6,0.006964,0.004063,0.060413,0.000188,  45.827
   115.8,0.007176,0.004163,0.062353,0.000224,  45.825
   116.0,0.007383,0.004255,0.064320,0.000211,  45.821
   116.2,0.007591,0.004334,0.066319,0.000188,  45.821
   116.4,0.007812,0.004416,0.068311,0.000224,  45.821
   116.6,0.008032,0.004532,0.070294,0.000211,  45.819
   116.8,0.008261,0.004657,0.072325,0.000188,  45.819
   117.0,0.008500,0.004796,0.074446,0.000211,  45.819
   117.2,0.008738,0.004924,0.076595,0.000197,  45.819
   117.4,0.008988,0.005057,0.078797,0.000175,  45.816
   117.6,0.009249,0.005195,0.081163,0.000197,  45.812
   117.8,0.009511,0.005337,0.083643,0.000197,  45.814
   118.0,0.009799,0.005491,0.086201,0.000175,  45.808
   118.2,0.010093,0.005652,0.088840,0.000197,  45.808
   118.4,0.010367,0.005804,0.091587,0.000184,  45.808
   118.6,0.010655,0.005962,0.094424,0.000162,  45.803
   118.8,0.010942,0.006122,0.097159,0.000184,  45.806
   119.0,0.011191,0.006278,0.099875,0.000171,  45.798
   119.2,0.011425,0.006441,0.102605,0.000135,  45.796
   119.4,0.011638,0.006605,0.105447,0.000158,  45.800
   119.6,0.011833,0.006771,0.108309,0.000144,  45.793
   119.8,0.012116,0.006942,0.111220,0.000109,  45.784
   120.0,0.012423,0.007115,0.114101,0.000144,  45.783
   120.2,0.012754,0.007280,0.116977,0.000131,  45.779
   120.4,0.013057,0.007452,0.119845,0.000095,  45.782
   120.6,0.013364,0.007622,0.122797,0.000144,  45.776
   120.8,0.013679,0.007790,0.125776,0.000131,  45.776
   121.0,0.013985,0.007964,0.128789,0.000131,  45.770
   121.2,0.014296,0.008137,0.130938,0.000095,  45.769
   121.4,0.014615,0.008310,0.132666,0.000095,  45.769
   121.6,0.014928,0.008487,0.133954,0.000118,  45.764
   121.8,0.015252,0.008668,0.136913,0.000082,  45.761
   122.0,0.015586,0.008850,0.140521,0.000105,  45.764
   122.2,0.015909,0.009033,0.144795,0.000105,  45.756
   122.4,0.016246,0.009218,0.147816,0.000056,  45.754
   122.6,0.016590,0.009401,0.150540,0.000091,  45.749
   122.8,0.016921,0.009579,0.152938,0.000091,  45.747
   123.0,0.017259,0.009758,0.154991,0.000069,  45.747
   123.2,0.017609,0.009941,0.158079,0.000078,  45.744
   123.4,0.017943,0.010126,0.161382,0.000052,  45.733
   123.6,0.018283,0.010314,0.164911,0.000016,  45.737
   123.8,0.018621,0.010502,0.168289,0.000052,  45.729
   124.0,0.018962,0.010689,0.171679,0.000038,  45.723
   124.2,0.019317,0.010881,0.175119,0.000003,  45.716
   124.4,0.019669,0.011073,0.178489,0.000038,  45.715
   124.6,0.020020,0.011268,0.181826,0.000025,  45.705
   124.8,0.020388,0.011476,0.185188,-0.000011,  45.703
   125.0,0.020750,0.011642,0.188262,0.000025,  45.699
   125.2,0.021101,0.011798,0.191179,0.000012,  45.697
   125.4,0.021458,0.011931,0.193935,-0.000024,  45.675
   125.6,0.021808,0.012058,0.196993,0.000012,  45.670
   125.8,0.022154,0.012238,0.200142,-0.000001,  45.659
   126.0,0.022505,0.012431,0.203347,-0.000050,  45.661
   126.2,0.022866,0.012642,0.206529,-0.000015,  45.649
   126.4,0.023217,0.012836,0.209764,-0.000015,  45.647
   126.6,0.023575,0.013031,0.213040,-0.000064,  45.639
   126.8,0.023940,0.013230,0.216567,-0.000041,  45.633
   127.0,0.024297,0.013420,0.220224,-0.000041,  45.622
   127.2,0.024659,0.013623,0.224022,-0.000064,  45.612
   127.4,0.025025,0.013829,0.227584,-0.000077,  45.609
   127.6,0.025377,0.014021,0.231076,-0.000077,  45.601
   127.8,0.025734,0.014213,0.234472,-0.000099,  45.593
   128.0,0.026092,0.014411,0.237882,-0.000113,  45.587
   128.2,0.026439,0.014603,0.241267,-0.000090,  45.574
   128.4,0.026787,0.014795,0.244557,-0.000126,  45.550
   128.6,0.027136,0.014985,0.247969,-0.000139,  45.541
   128.8,0.027434,0.015174,0.251375,-0.000130,  45.531
   129.0,0.027712,0.015364,0.254790,-0.000166,  45.521
   129.2,0.027951,0.015552,0.258065,-0.000166,  45.512
   129.4,0.028175,0.015737,0.261292,-0.000143,  45.500
   129.6,0.028497,0.015935,0.264448,-0.000192,  45.488
   129.8,0.028837,0.016129,0.267613,-0.000192,  45.473
   130.0,0.029210,0.016304,0.270766,-0.000169,  45.444
   130.2,0.029540,0.016487,0.273908,-0.000218,  45.430
   130.4,0.029875,0.016665,0.277024,-0.000232,  45.418
   130.6,0.030214,0.016849,0.280121,-0.000196,  45.405
   130.8,0.030546,0.017034,0.283154,-0.000196,  45.392
   131.0,0.030881,0.017228,0.286273,-0.000209,  45.372
   131.2,0.031231,0.017414,0.289393,-0.000196,  45.349
   131.4,0.031557,0.017594,0.292507,-0.000209,  45.329
   131.6,0.031881,0.017770,0.295170,-0.000209,  45.316
   131.8,0.032205,0.017945,0.297600,-0.000222,  45.297
   132.0,0.032523,0.018125,0.299765,-0.000236,  45.278
   132.2,0.032845,0.018297,0.301688,-0.000271,  45.260
   132.4,0.033165,0.018465,0.304520,-0.000271,  45.235
   132.6,0.033471,0.018640,0.307491,-0.000249,  45.214
   132.8,0.033787,0.018813,0.310687,-0.000285,  45.197
   133.0,0.034092,0.018978,0.313563,-0.000298,  45.180
   133.2,0.034392,0.019147,0.316343,-0.000275,  45.156
   133.4,0.034706,0.019315,0.319093,-0.000324,  45.126
   133.6,0.035004,0.019481,0.321878,-0.000324,  45.109
   133.8,0.035301,0.019645,0.324618,-0.000302,  45.087
   134.0,0.035609,0.019804,0.327305,-0.000338,  45.069
   134.2,0.035908,0.019942,0.330034,-0.000364,  45.026
   134.4,0.036190,0.020069,0.332794,-0.000342,  45.009
   134.6,0.036473,0.020176,0.335501,-0.000377,  44.985
   134.8,0.036746,0.020282,0.337481,-0.000391,  44.963
   135.0,0.037013,0.020420,0.339106,-0.000368,  44.940
   135.2,0.037277,0.020568,0.340261,-0.000404,  44.896
   135.4,0.037545,0.020722,0.342727,-0.000417,  44.877
   135.6,0.037800,0.020870,0.345660,-0.000394,  44.854
   135.8,0.038055,0.021014,0.349045,-0.000443,  44.816
   136.0,0.038314,0.021167,0.351731,-0.000443,  44.787
   136.2,0.038562,0.021308,0.354363,-0.000421,  44.753
   136.4,0.038815,0.021447,0.356851,-0.000457,  44.717
   136.6,0.039074,0.021586,0.359319,-0.000470,  44.687
   136.8,0.039282,0.021714,0.361714,-0.000447,  44.658
   137.0,0.039475,0.021846,0.363959,-0.000483,  44.626
   137.2,0.039638,0.021982,0.366270,-0.000496,  44.577
   137.4,0.039783,0.022111,0.368490,-0.000487,  44.551
   137.6,0.039987,0.022236,0.370687,-0.000523,  44.505
   137.8,0.040208,0.022370,0.372610,-0.000536,  44.473
   138.0,0.040446,0.022493,0.374297,-0.000514,  44.444
   138.2,0.040657,0.022616,0.375836,-0.000563,  44.388
   138.4,0.040882,0.022732,0.377888,-0.000563,  44.361
   138.6,0.041091,0.022857,0.380069,-0.000527,  44.327
   138.8,0.041299,0.022982,0.382412,-0.000527,  44.279
   139.0,0.041522,0.023113,0.383515,-0.000540,  44.238
   139.2,0.041737,0.023228,0.384017,-0.000527,  44.176
   139.4,0.041927,0.023331,0.383954,-0.000540,  44.146
   139.6,0.042117,0.023427,0.385670,-0.000540,  44.095
   139.8,0.042294,0.023523,0.388021,-0.000553,  44.052
   140.0,0.042465,0.023623,0.390947,-0.000580,  44.011
   140.2,0.042636,0.023718,0.392804,-0.000615,  43.946
   140.4,0.042800,0.023816,0.394463,-0.000615,  43.919
   140.6,0.042961,0.023908,0.395880,-0.000593,  43.866
   140.8,0.043129,0.024003,0.397021,-0.000629,  43.817
   141.0,0.043291,0.024097,0.398615,-0.000629,  43.763
   141.2,0.043442,0.024197,0.400192,-0.000619,  43.712
   141.4,0.043608,0.024292,0.401775,-0.000668,  43.663
   141.6,0.043759,0.024374,0.403244,-0.000633,  43.614
   141.8,0.043902,0.024459,0.404658,-0.000610,  43.558
   142.0,0.044038,0.024535,0.406040,-0.000659,  43.513
   142.2,0.044167,0.024601,0.407357,-0.000637,  43.442
   142.4,0.044297,0.024655,0.408527,-0.000637,  43.394
   142.6,0.044419,0.024712,0.409600,-0.000637,  43.346
   142.8,0.044549,0.024758,0.410738,-0.000650,  43.279
   143.0,0.044669,0.024826,0.411886,-0.000640,  43.231
   143.2,0.044779,0.024897,0.412954,-0.000640,  43.159
   143.4,0.044896,0.024968,0.414041,-0.000663,  43.107
   143.6,0.045003,0.025041,0.415139,-0.000640,  43.055
   143.8,0.045119,0.025121,0.416263,-0.000676,  42.989
   144.0,0.045233,0.025201,0.417251,-0.000676,  42.932
   144.2,0.045323,0.025265,0.418061,-0.000689,  42.859
   144.4,0.045414,0.025319,0.418803,-0.000725,  42.807
   144.6,0.045495,0.025374,0.419571,-0.000689,  42.750
   144.8,0.045576,0.025434,0.420308,-0.000703,  42.679
   145.0,0.045664,0.025481,0.420969,-0.000738,  42.612
   145.2,0.045741,0.025541,0.421630,-0.000689,  42.544
   145.4,0.045809,0.025590,0.422293,-0.000703,  42.491
   145.6,0.045884,0.025638,0.422918,-0.000738,  42.418
   145.8,0.045953,0.025689,0.423504,-0.000703,  42.358
   146.0,0.046005,0.025739,0.424013,-0.000716,  42.293
   146.2,0.046054,0.025786,0.424483,-0.000765,  42.202
   146.4,0.046093,0.025838,0.424915,-0.000729,  42.148
   146.6,0.046125,0.025886,0.425315,-0.000742,  42.073
   146.8,0.046174,0.025919,0.425597,-0.000778,  42.018
   147.0,0.046220,0.025948,0.425664,-0.000742,  41.943
   147.2,0.046272,0.025984,0.425595,-0.000742,  41.855
   147.4,0.046307,0.026014,0.425350,-0.000765,  41.800
   147.6,0.046343,0.026040,0.425683,-0.000742,  41.736
   147.8,0.046379,0.026068,0.426192,-0.000755,  41.656
   148.0,0.046408,0.026094,0.426910,-0.000755,  41.584
   148.2,0.046443,0.026125,0.427204,-0.000778,  41.496
   148.4,0.046476,0.026156,0.427369,-0.000791,  41.440
   148.6,0.046492,0.026184,0.427423,-0.000755,  41.368
   148.8,0.046515,0.026213,0.427293,-0.000791,  41.294
   149.0,0.046528,0.026234,0.426980,-0.000769,  41.216
   149.2,0.046537,0.026246,0.426530,-0.000746,  41.125
   149.4,0.046548,0.026261,0.426419,-0.000782,  41.064
   149.6,0.046551,0.026278,0.426451,-0.000782,  40.986
   149.8,0.046550,0.026284,0.426549,-0.000795,  40.914
   150.0,0.046561,0.026304,0.426789,-0.000831,  40.846
   150.2,0.046571,0.026311,0.426808,-0.000782,  40.757
   150.4,0.046561,0.026308,0.426826,-0.000795,  40.701
   150.6,0.046551,0.026309,0.426831,-0.000831,  40.621
   150.8,0.046545,0.026314,0.426771,-0.000782,  40.547
   151.0,0.046525,0.026312,0.426638,-0.000795,  40.466
   151.2,0.046515,0.026307,0.426474,-0.000831,  40.369
   151.4,0.046496,0.026309,0.426237,-0.000795,  40.311
   151.6,0.046467,0.026304,0.425923,-0.000808,  40.236
   151.8,0.046454,0.026304,0.425511,-0.000844,  40.164
   152.0,0.046431,0.026306,0.425268,-0.000844,  40.095
   152.2,0.046402,0.026301,0.425058,-0.000844,  40.002
   152.4,0.046383,0.026299,0.424769,-0.000880,  39.944
   152.6,0.046360,0.026295,0.424105,-0.000880,  39.863
   152.8,0.046337,0.026297,0.423236,-0.000857,  39.791
   153.0,0.046320,0.026297,0.422138,-0.000893,  39.714
   153.2,0.046304,0.026291,0.421709,-0.000880,  39.621
   153.4,0.046274,0.026284,0.421525,-0.000844,  39.555
   153.6,0.046242,0.026279,0.421547,-0.000880,  39.477
   153.8,0.046210,0.026275,0.421293,-0.000880,  39.394
   154.0,0.046177,0.026271,0.420968,-0.000844,  39.309
   154.2,0.046151,0.026261,0.420618,-0.000867,  39.201
   154.4,0.046132,0.026254,0.420293,-0.000867,  39.141
   154.6,0.046102,0.026254,0.419937,-0.000818,  39.051
   154.8,0.046079,0.026254,0.419535,-0.000840,  38.962
   155.0,0.046064,0.026261,0.419134,-0.000804,  38.875
   155.2,0.046041,0.026261,0.418708,-0.000755,  38.766
   155.4,0.046025,0.026255,0.418283,-0.000778,  38.687
   155.6,0.046005,0.026263,0.417780,-0.000742,  38.592
   155.8,0.045989,0.026268,0.417209,-0.000729,  38.505
   156.0,0.045963,0.026270,0.416638,-0.000752,  38.409
   156.2,0.045924,0.026276,0.415725,-0.000752,  38.289
   156.4,0.045885,0.026273,0.414536,-0.000752,  38.220
   156.6,0.045832,0.026259,0.413180,-0.000774,  38.127
   156.8,0.045780,0.026235,0.412563,-0.000774,  38.036
   157.0,0.045732,0.026219,0.412223,-0.000752,  37.934
   157.2,0.045676,0.026194,0.412108,-0.000752,  37.820
   157.4,0.045631,0.026170,0.411630,-0.000752,  37.739
   157.6,0.045589,0.026151,0.411136,-0.000752,  37.645
   157.8,0.045537,0.026135,0.410625,-0.000752,  37.555
   158.0,0.045495,0.026129,0.410163,-0.000752,  37.459
   158.2,0.045456,0.026107,0.409770,-0.000752,  37.346
   158.4,0.045397,0.026081,0.409370,-0.000765,  37.271
   158.6,0.045336,0.026047,0.408970,-0.000814,  37.173
   158.8,0.045278,0.026014,0.408167,-0.000791,  37.070
   159.0,0.045216,0.025975,0.407160,-0.000755,  36.978
   159.2,0.045157,0.025947,0.405982,-0.000778,  36.865
   159.4,0.045109,0.025921,0.405337,-0.000755,  36.787
   159.6,0.045054,0.025892,0.404866,-0.000769,  36.688
   159.8,0.045008,0.025872,0.404562,-0.000791,  36.596
   160.0,0.044970,0.025850,0.404167,-0.000804,  36.497
   160.2,0.044927,0.025839,0.403847,-0.000818,  36.379
   160.4,0.044898,0.025824,0.403534,-0.000853,  36.303
   160.6,0.044876,0.025823,0.403146,-0.000853,  36.200
   160.8,0.044840,0.025808,0.402804,-0.000831,  36.097
   161.0,0.044814,0.025797,0.402431,-0.000867,  35.997
   161.2,0.044798,0.025785,0.402051,-0.000853,  35.876
   161.4,0.044775,0.025776,0.401717,-0.000831,  35.807
   161.6,0.044766,0.025765,0.401419,-0.000853,  35.703
   161.8,0.044756,0.025756,0.401091,-0.000853,  35.610
   162.0,0.044746,0.025748,0.400785,-0.000818,  35.517
   162.2,0.044753,0.025753,0.400449,-0.000840,  35.392
   162.4,0.044756,0.025758,0.400324,-0.000840,  35.307
   162.6,0.044759,0.025770,0.400229,-0.000791,  35.216
   162.8,0.044779,0.025784,0.400150,-0.000814,  35.112
   163.0,0.044792,0.025808,0.400062,-0.000814,  35.017
   163.2,0.044802,0.025822,0.399974,-0.000765,  34.900
   163.4,0.044811,0.025834,0.399788,-0.000787,  34.814
   163.6,0.044821,0.025836,0.399700,-0.000774,  34.721
   163.8,0.044830,0.025847,0.399663,-0.000738,  34.617
   164.0,0.044853,0.025859,0.399633,-0.000748,  34.520
   164.2,0.044882,0.025883,0.399656,-0.000734,  34.399
   164.4,0.044915,0.025905,0.399723,-0.000699,  34.318
   164.6,0.044940,0.025921,0.399821,-0.000721,  34.224
   164.8,0.044976,0.025942,0.399895,-0.000708,  34.118
   165.0,0.045018,0.025964,0.399976,-0.000659,  34.023
   165.2,0.045054,0.025992,0.400027,-0.000668,  33.893
   165.4,0.045099,0.026021,0.399749,-0.000668,  33.816
   165.6,0.045148,0.026050,0.399359,-0.000633,  33.708
   165.8,0.045190,0.026081,0.398761,-0.000633,  33.608
   166.0,0.045249,0.026116,0.398819,-0.000606,  33.514
   166.2,0.045301,0.026148,0.399064,-0.000606,  33.388
   166.4,0.045352,0.026174,0.399577,-0.000593,  33.311
   166.6,0.045414,0.026206,0.400241,-0.000580,  33.209
   166.8,0.045479,0.026239,0.400665,-0.000566,  33.111
   167.0,0.045540,0.026273,0.401133,-0.000553,  33.007
   167.2,0.045612,0.026313,0.401684,-0.000563,  32.885
   167.4,0.045690,0.026356,0.402154,-0.000563,  32.808
   167.6,0.045758,0.026399,0.402624,-0.000514,  32.712
   167.8,0.045839,0.026445,0.403109,-0.000536,  32.613
   168.0,0.045918,0.026495,0.403557,-0.000510,  32.509
   168.2,0.045992,0.026538,0.403975,-0.000474,  32.386
   168.4,0.046080,0.026578,0.404408,-0.000496,  32.311
   168.6,0.046161,0.026618,0.405000,-0.000483,  32.208
   168.8,0.046242,0.026654,0.405579,-0.000434,  32.114
   169.0,0.046331,0.026684,0.406197,-0.000443,  32.018
   169.2,0.046418,0.026720,0.406829,-0.000430,  31.900
   169.4,0.046502,0.026760,0.407456,-0.000381,  31.826
   169.6,0.046594,0.026813,0.408052,-0.000391,  31.732
   169.8,0.046685,0.026863,0.408718,-0.000377,  31.634
   170.0,0.046769,0.026908,0.409386,-0.000342,  31.533
   170.2,0.046854,0.026949,0.410099,-0.000364,  31.422
   170.4,0.046945,0.026993,0.410782,-0.000351,  31.351
   170.6,0.047033,0.027041,0.411366,-0.000289,  31.259
   170.8,0.047121,0.027090,0.411913,-0.000311,  31.172
   171.0,0.047219,0.027139,0.412523,-0.000298,  31.079
   171.2,0.047303,0.027186,0.413179,-0.000262,  30.967
   171.4,0.047395,0.027228,0.413766,-0.000271,  30.897
   171.6,0.047491,0.027279,0.414448,-0.000258,  30.812
   171.8,0.047579,0.027324,0.415194,-0.000222,  30.726
   172.0,0.047656,0.027362,0.415942,-0.000245,  30.638
   172.2,0.047751,0.027408,0.416659,-0.000232,  30.536
   172.4,0.047822,0.027453,0.417346,-0.000183,  30.466
   172.6,0.047887,0.027490,0.418026,-0.000192,  30.377
   172.8,0.047949,0.027537,0.418645,-0.000179,  30.296
   173.0,0.048005,0.027575,0.419240,-0.000143,  30.214
   173.2,0.048083,0.027619,0.419803,-0.000152,  30.118
   173.4,0.048162,0.027660,0.420400,-0.000139,  30.048
   173.6,0.048246,0.027695,0.420990,-0.000103,  29.972
   173.8,0.048318,0.027733,0.421587,-0.000126,  29.895
   174.0,0.048396,0.027772,0.422236,-0.000113,  29.821
   174.2,0.048475,0.027807,0.422918,-0.000064,  29.725
   174.4,0.048543,0.027841,0.423647,-0.000050,  29.668
   174.6,0.048619,0.027877,0.424234,-0.000037,  29.598
   174.8,0.048695,0.027903,0.424758,-0.000024,  29.519
   175.0,0.048756,0.027934,0.425178,-0.000024,  29.441
   175.2,0.048825,0.027963,0.425696,-0.000011,  29.359
   175.4,0.048884,0.027989,0.426222,-0.000011,  29.302
   175.6,0.048940,0.028014,0.426662,0.000003,  29.235
   175.8,0.048989,0.028036,0.427056,-0.000020,  29.169
   176.0,0.049045,0.028058,0.427444,-0.000007,  29.103
   176.2,0.049090,0.028075,0.427792,0.000029,  29.027
   176.4,0.049133,0.028089,0.428101,0.000007,  28.974
   176.6,0.049179,0.028105,0.428562,0.000020,  28.918
   176.8,0.049218,0.028119,0.429030,0.000056,  28.855
   177.0,0.049264,0.028133,0.429485,0.000033,  28.795
   177.2,0.049303,0.028142,0.429882,0.000033,  28.722
   177.4,0.049332,0.028149,0.430206,0.000069,  28.671
   177.6,0.049358,0.028161,0.430466,0.000046,  28.618
   177.8,0.049381,0.028168,0.430751,0.000046,  28.561
   178.0,0.049401,0.028166,0.431037,0.000082,  28.507
   178.2,0.049423,0.028171,0.431250,0.000060,  28.446
   178.4,0.049447,0.028164,0.431554,0.000073,  28.405
   178.6,0.049459,0.028161,0.431918,0.000095,  28.352
   178.8,0.049473,0.028154,0.432289,0.000060,  28.306
   179.0,0.049486,0.028156,0.432522,0.000073,  28.259
   179.2,0.049489,0.028151,0.432642,0.000109,  28.202
   179.4,0.049489,0.028149,0.432736,0.000073,  28.163
   179.6,0.049489,0.028144,0.432856,0.000086,  28.113
   179.8,0.049482,0.028132,0.432943,0.000122,  28.069
   180.0,0.049482,0.028122,0.432990,0.000099,  28.026
   180.2,0.049479,0.028108,0.433069,0.000099,  27.976
   180.4,0.049462,0.028091,0.433109,0.000135,  27.947
   180.6,0.049453,0.028075,0.433109,0.000113,  27.905
   180.8,0.049430,0.028059,0.433143,0.000135,  27.867
   181.0,0.049407,0.028037,0.433136,0.000171,  27.828
   181.2,0.049384,0.028019,0.433162,0.000148,  27.780
   181.4,0.049364,0.027995,0.433089,0.000184,  27.754
   181.6,0.049344,0.027974,0.432903,0.000184,  27.716
   181.8,0.049322,0.027949,0.432684,0.000162,  27.680
   182.0,0.049299,0.027920,0.432524,0.000197,  27.648
   182.2,0.049276,0.027892,0.432371,0.000197,  27.606
   182.4,0.049240,0.027858,0.432172,0.000175,  27.577
   182.6,0.049194,0.027825,0.431827,0.000211,  27.549
   182.8,0.049158,0.027794,0.431350,0.000211,  27.519
   183.0,0.049109,0.027756,0.430762,0.000188,  27.489
   183.2,0.049067,0.027722,0.430419,0.000224,  27.454
   183.4,0.049018,0.027684,0.430108,0.000211,  27.429
   183.6,0.048958,0.027644,0.429797,0.000211,  27.401
   183.8,0.048910,0.027594,0.429585,0.000188,  27.373
   184.0,0.048851,0.027548,0.429319,0.000175,  27.345
   184.2,0.048785,0.027505,0.429086,0.000211,  27.316
   184.4,0.048726,0.027460,0.428827,0.000188,  27.296
   184.6,0.048654,0.027410,0.428608,0.000224,  27.267
   184.8,0.048582,0.027363,0.428390,0.000211,  27.244
   185.0,0.048520,0.027315,0.428145,0.000188,  27.215
   185.2,0.048452,0.027268,0.427711,0.000224,  27.192
   185.4,0.048370,0.027216,0.427197,0.000211,  27.176
   185.6,0.048292,0.027164,0.426620,0.000188,  27.151
   185.8,0.048217,0.027109,0.426094,0.000224,  27.132
   186.0,0.048125,0.027055,0.425576,0.000211,  27.106
   186.2,0.048044,0.026995,0.425051,0.000188,  27.082
   186.4,0.047962,0.026935,0.424416,0.000224,  27.063
   186.6,0.047864,0.026878,0.423796,0.000211,  27.042
   186.8,0.047769,0.026816,0.423106,0.000188,  27.018
   187.0,0.047675,0.026763,0.422449,0.000211,  27.001
   187.2,0.047570,0.026708,0.421747,0.000197,  26.979
   187.4,0.047469,0.026661,0.420976,0.000175,  26.958
   187.6,0.047372,0.026616,0.420237,0.000197,  26.941
   187.8,0.047261,0.026554,0.419500,0.000184,  26.925
   188.0,0.047150,0.026487,0.418719,0.000162,  26.900
   188.2,0.047043,0.026414,0.417945,0.000197,  26.878
   188.4,0.046925,0.026345,0.417097,0.000184,  26.862
   188.6,0.046811,0.026271,0.416249,0.000162,  26.849
   188.8,0.046704,0.026197,0.415435,0.000197,  26.828
   189.0,0.046580,0.026123,0.414577,0.000184,  26.807
   189.2,0.046460,0.026039,0.413689,0.000197,  26.783
   189.4,0.046339,0.025973,0.412804,0.000184,  26.772
   189.6,0.046209,0.025899,0.411850,0.000207,  26.751
   189.8,0.046092,0.025818,0.410837,0.000207,  26.733
   190.0,0.045962,0.025744,0.409819,0.000158,  26.715
   190.2,0.045825,0.025663,0.408773,0.000180,  26.694
   190.4,0.045692,0.025582,0.407661,0.000180,  26.678
   190.6,0.045556,0.025502,0.406644,0.000144,  26.659
   190.8,0.045439,0.025416,0.405622,0.000180,  26.642
   191.0,0.045335,0.025331,0.404596,0.000144,  26.627
   191.2,0.045241,0.025251,0.403541,0.000158,  26.606
   191.4,0.045161,0.025165,0.402459,0.000158,  26.594
   191.6,0.045034,0.025084,0.401305,0.000122,  26.573
   191.8,0.044888,0.025011,0.400161,0.000135,  26.557
   192.0,0.044742,0.024923,0.398923,0.000122,  26.537
   192.2,0.044596,0.024834,0.397629,0.000086,  26.517
   192.4,0.044454,0.024742,0.396555,0.000099,  26.506
   192.6,0.044302,0.024655,0.395462,0.000122,  26.487
   192.8,0.044149,0.024559,0.394402,0.000122,  26.469
   193.0,0.044004,0.024479,0.393232,0.000122,  26.454
   193.2,0.043852,0.024393,0.392001,0.000135,  26.441
   193.4,0.043693,0.024296,0.390677,0.000122,  26.423
   193.6,0.043548,0.024209,0.389446,0.000122,  26.411
   193.8,0.043390,0.024117,0.388196,0.000122,  26.390
   194.0,0.043225,0.024020,0.386935,0.000122,  26.374
   194.2,0.043077,0.023931,0.385642,0.000086,  26.354
   194.4,0.042919,0.023839,0.384359,0.000086,  26.347
   194.6,0.042754,0.023740,0.383037,0.000109,  26.329
   194.8,0.042603,0.023650,0.381691,0.000073,  26.311
   195.0,0.042445,0.023558,0.380670,0.000073,  26.294
   195.2,0.042283,0.023464,0.379730,0.000095,  26.275
   195.4,0.042139,0.023372,0.378904,0.000060,  26.267
   195.6,0.041985,0.023279,0.377628,0.000060,  26.245
   195.8,0.041824,0.023194,0.376152,0.000082,  26.226
   196.0,0.041672,0.023109,0.374507,0.000046,  26.206
   196.2,0.041518,0.023019,0.373070,0.000046,  26.185
   196.4,0.041360,0.022924,0.371611,0.000082,  26.170
   196.6,0.041213,0.022832,0.370087,0.000046,  26.149
   196.8,0.041065,0.022756,0.368968,0.000046,  26.130
   197.0,0.040908,0.022691,0.368003,0.000082,  26.109
   197.2,0.040760,0.022622,0.367150,0.000046,  26.090
   197.4,0.040609,0.022574,0.366120,0.000046,  26.074
   197.6,0.040452,0.022491,0.365126,0.000082,  26.056
   197.8,0.040305,0.022399,0.364074,0.000046,  26.035
   198.0,0.040154,0.022306,0.362657,0.000046,  26.012
   198.2,0.039987,0.022214,0.361077,0.000082,  25.989
   198.4,0.039824,0.022122,0.359288,0.000046,  25.973
   198.6,0.039651,0.022038,0.357907,0.000046,  25.952
   198.8,0.039478,0.021944,0.356591,0.000082,  25.925
   199.0,0.039305,0.021845,0.355391,0.000046,  25.904
   199.2,0.039129,0.021747,0.353698,0.000046,  25.877
   199.4,0.038952,0.021651,0.351742,0.000082,  25.861
   199.6,0.038780,0.021547,0.349625,0.000046,  25.845
   199.8,0.038611,0.021444,0.348360,0.000046,  25.824
   200.0,0.038431,0.021348,0.347344,0.000082,  25.797
   200.2,0.038256,0.021243,0.346642,0.000033,  25.773
   200.4,0.038081,0.021132,0.345488,0.000069,  25.754
   200.6,0.037931,0.021031,0.344253,0.000105,  25.731
   200.8,0.037787,0.020932,0.342912,0.000056,  25.713
   201.0,0.037663,0.020834,0.341644,0.000091,  25.688
   201.2,0.037545,0.020730,0.340354,0.000105,  25.654
   201.4,0.037376,0.020627,0.339076,0.000069,  25.639
   201.6,0.037185,0.020524,0.337768,0.000105,  25.615
   201.8,0.036987,0.020421,0.336376,0.000105,  25.588
   202.0,0.036796,0.020313,0.334994,0.000069,  25.561
   202.2,0.036618,0.020208,0.333554,0.000091,  25.540
   202.4,0.036431,0.020094,0.332023,0.000078,  25.522
   202.6,0.036239,0.019988,0.330448,0.000065,  25.493
   202.8,0.036059,0.019883,0.328966,0.000042,  25.473
   203.0,0.035872,0.019772,0.327389,0.000042,  25.445
   203.2,0.035681,0.019662,0.325824,0.000078,  25.412
   203.4,0.035500,0.019560,0.324506,0.000056,  25.395
   203.6,0.035317,0.019455,0.323324,0.000091,  25.370
   203.8,0.035129,0.019347,0.322238,0.000078,  25.349
   204.0,0.034949,0.019249,0.321286,0.000056,  25.325
   204.2,0.034775,0.019148,0.319866,0.000078,  25.290
   204.4,0.034591,0.019043,0.318358,0.000078,  25.277
   204.6,0.034414,0.018949,0.316734,0.000056,  25.245
   204.8,0.034234,0.018847,0.315291,0.000078,  25.220
   205.0,0.034053,0.018742,0.313823,0.000078,  25.193
   205.2,0.033883,0.018639,0.312389,0.000056,  25.162
   205.4,0.033703,0.018544,0.310908,0.000078,  25.144
   205.6,0.033522,0.018446,0.309384,0.000078,  25.120
   205.8,0.033352,0.018350,0.307807,0.000056,  25.095
   206.0,0.033179,0.018268,0.306311,0.000078,  25.065
   206.2,0.032999,0.018189,0.304872,0.000078,  25.038
   206.4,0.032822,0.018118,0.303475,0.000056,  25.019
   206.6,0.032656,0.018058,0.301971,0.000078,  24.985
   206.8,0.032479,0.017969,0.300443,0.000065,  24.964
   207.0,0.032312,0.017876,0.298898,0.000042,  24.938
   207.2,0.032149,0.017774,0.297565,0.000078,  24.907
   207.4,0.031975,0.017683,0.296287,0.000065,  24.889
   207.6,0.031808,0.017589,0.295057,0.000042,  24.859
   207.8,0.031642,0.017491,0.293633,0.000078,  24.835
   208.0,0.031468,0.017392,0.292147,0.000065,  24.806
   208.2,0.031305,0.017295,0.290573,0.000042,  24.772
   208.4,0.031136,0.017205,0.289193,0.000078,  24.745
   208.6,0.030966,0.017114,0.287867,0.000065,  24.721
   208.8,0.030809,0.017019,0.286559,0.000042,  24.696
   209.0,0.030643,0.016931,0.285241,0.000065,  24.662
   209.2,0.030476,0.016841,0.283885,0.000052,  24.631
   209.4,0.030326,0.016755,0.282497,0.000029,  24.610
   209.6,0.030163,0.016662,0.281191,0.000052,  24.579
   209.8,0.030029,0.016565,0.279868,0.000052,  24.552
   210.0,0.029907,0.016482,0.278570,0.000029,  24.527
   210.2,0.029790,0.016397,0.277171,0.000065,  24.489
   210.4,0.029700,0.016311,0.275769,0.000065,  24.465
   210.6,0.029556,0.016222,0.274317,0.000042,  24.440
   210.8,0.029386,0.016138,0.272960,0.000078,  24.409
   211.0,0.029221,0.016059,0.271634,0.000065,  24.381
   211.2,0.029061,0.015969,0.270367,0.000042,  24.346
   211.4,0.028915,0.015883,0.269241,0.000078,  24.320
   211.6,0.028762,0.015794,0.268213,0.000065,  24.298
   211.8,0.028605,0.015706,0.267227,0.000065,  24.269
   212.0,0.028462,0.015632,0.266020,0.000029,  24.237
   212.2,0.028306,0.015548,0.264715,0.000042,  24.202
   212.4,0.028153,0.015459,0.263354,0.000078,  24.183
   212.6,0.028019,0.015386,0.262232,0.000056,  24.156
   212.8,0.027876,0.015312,0.261195,0.000091,  24.125
   213.0,0.027729,0.015230,0.260241,0.000078,  24.097
   213.2,0.027593,0.015160,0.259322,0.000056,  24.060
   213.4,0.027449,0.015087,0.258164,0.000078,  24.040
   213.6,0.027302,0.015007,0.256989,0.000078,  24.010
   213.8,0.027169,0.014930,0.255711,0.000056,  23.980
   214.0,0.027030,0.014856,0.254497,0.000091,  23.952
   214.2,0.026886,0.014779,0.253312,0.000105,  23.919
   214.4,0.026749,0.014706,0.252118,0.000069,  23.895
   214.6,0.026616,0.014631,0.250998,0.000105,  23.873
   214.8,0.026476,0.014561,0.249934,0.000105,  23.844
   215.0,0.026345,0.014494,0.248898,0.000082,  23.815
   215.2,0.026219,0.014436,0.247728,0.000118,  23.781
   215.4,0.026081,0.014376,0.246472,0.000118,  23.757
   215.6,0.025948,0.014323,0.245130,0.000095,  23.728
   215.8,0.025818,0.014277,0.243952,0.000131,  23.697
   216.0,0.025681,0.014202,0.242796,0.000118,  23.675
   216.2,0.025551,0.014132,0.241662,0.000082,  23.640
   216.4,0.025421,0.014051,0.240018,0.000118,  23.618
   216.6,0.025284,0.013982,0.238167,0.000118,  23.587
   216.8,0.025161,0.013910,0.236056,0.000082,  23.562
   217.0,0.025031,0.013839,0.234940,0.000118,  23.538
   217.2,0.024894,0.013767,0.234252,0.000118,  23.504
   217.4,0.024777,0.013700,0.233901,0.000082,  23.482
   217.6,0.024650,0.013633,0.233076,0.000118,  23.453
   217.8,0.024519,0.013561,0.232210,0.000118,  23.427
   218.0,0.024406,0.013499,0.231258,0.000082,  23.398
   218.2,0.024282,0.013432,0.230352,0.000095,  23.366
   218.4,0.024151,0.013363,0.229473,0.000095,  23.343
   218.6,0.024035,0.013292,0.228534,0.000060,  23.315
   218.8,0.023908,0.013224,0.227597,0.000073,  23.289
   219.0,0.023803,0.013154,0.226637,0.000095,  23.261
   219.2,0.023704,0.013084,0.225662,0.000060,  23.230
   219.4,0.023620,0.013021,0.224681,0.000073,  23.208
   219.6,0.023546,0.012957,0.223692,0.000095,  23.182
   219.8,0.023428,0.012893,0.222681,0.000060,  23.153
   220.0,0.023318,0.012830,0.221732,0.000073,  23.123
   220.2,0.023191,0.012766,0.220767,0.000095,  23.092
   220.4,0.023070,0.012701,0.219804,0.000060,  23.069
   220.6,0.022966,0.012641,0.218617,0.000073,  23.043
   220.8,0.022859,0.012576,0.217291,0.000095,  23.016
   221.0,0.022738,0.012511,0.215862,0.000095,  22.985
   221.2,0.022635,0.012456,0.214910,0.000109,  22.955
   221.4,0.022527,0.012396,0.214116,0.000095,  22.938
   221.6,0.022412,0.012334,0.213505,0.000095,  22.907
   221.8,0.022311,0.012269,0.212785,0.000109,  22.880
   222.0,0.022201,0.012210,0.212121,0.000095,  22.852
   222.2,0.022083,0.012151,0.211466,0.000095,  22.816
   222.4,0.021979,0.012096,0.210890,0.000060,  22.796
   222.6,0.021862,0.012031,0.210011,0.000073,  22.771
   222.8,0.021748,0.011974,0.209021,0.000095,  22.741
   223.0,0.021650,0.011916,0.207928,0.000060,  22.719
   223.2,0.021549,0.011858,0.207041,0.000073,  22.686
   223.4,0.021441,0.011798,0.206203,0.000109,  22.667
   223.6,0.021343,0.011745,0.205377,0.000073,  22.636
   223.8,0.021236,0.011697,0.204471,0.000073,  22.607
   224.0,0.021127,0.011653,0.203541,0.000109,  22.586
   224.2,0.021030,0.011607,0.202573,0.000073,  22.553
   224.4,0.020926,0.011571,0.201760,0.000073,  22.535
   224.6,0.020818,0.011517,0.200974,0.000109,  22.511
   224.8,0.020723,0.011464,0.200237,0.000073,  22.480
   225.0,0.020629,0.011409,0.199428,0.000086,  22.457
   225.2,0.020521,0.011354,0.198588,0.000122,  22.424
   225.4,0.020426,0.011297,0.197734,0.000086,  22.405
   225.6,0.020335,0.011242,0.196936,0.000122,  22.382
   225.8,0.020233,0.011194,0.196101,0.000144,  22.355
   226.0,0.020141,0.011142,0.195291,0.000109,  22.330
   226.2,0.020056,0.011092,0.194420,0.000158,  22.302
   226.4,0.019958,0.011044,0.193518,0.000158,  22.279
   226.6,0.019869,0.010992,0.192579,0.000135,  22.253
   226.8,0.019784,0.010940,0.191769,0.000171,  22.229
   227.0,0.019705,0.010884,0.190959,0.000171,  22.202
   227.2,0.019634,0.010831,0.190236,0.000148,  22.174
   227.4,0.019564,0.010786,0.189475,0.000171,  22.154
   227.6,0.019503,0.010735,0.188670,0.000171,  22.130
   227.8,0.019420,0.010688,0.187880,0.000148,  22.105
   228.0,0.019325,0.010644,0.187130,0.000171,  22.083
   228.2,0.019228,0.010596,0.186405,0.000171,  22.050
   228.4,0.019132,0.010547,0.185657,0.000148,  22.035
   228.6,0.019050,0.010501,0.184819,0.000171,  22.013
   228.8,0.018971,0.010449,0.183952,0.000171,  21.985
   229.0,0.018882,0.010406,0.183026,0.000171,  21.965
   229.2,0.018796,0.010360,0.181424,0.000148,  21.935
   229.4,0.018711,0.010312,0.179439,0.000148,  21.918
   229.6,0.018618,0.010266,0.177114,0.000184,  21.893
   229.8,0.018537,0.010217,0.176376,0.000148,  21.867
   230.0,0.018445,0.010168,0.176242,0.000184,  21.846
   230.2,0.018353,0.010122,0.176709,0.000184,  21.820
   230.4,0.018272,0.010075,0.176484,0.000162,  21.804
   230.6,0.018186,0.010029,0.176280,0.000197,  21.776
   230.8,0.018097,0.009986,0.176002,0.000197,  21.753
   231.0,0.018012,0.009941,0.175694,0.000175,  21.734
   231.2,0.017923,0.009890,0.175202,0.000197,  21.704
   231.4,0.017831,0.009845,0.174614,0.000197,  21.692
   231.6,0.017756,0.009801,0.173924,0.000175,  21.664
   231.8,0.017678,0.009755,0.173316,0.000197,  21.648
   232.0,0.017588,0.009712,0.172709,0.000197,  21.619
   232.2,0.017513,0.009670,0.172059,0.000175,  21.591
   232.4,0.017434,0.009632,0.171453,0.000162,  21.576
   232.6,0.017348,0.009597,0.170805,0.000162,  21.556
   232.8,0.017273,0.009561,0.170179,0.000139,  21.538
   233.0,0.017195,0.009536,0.169576,0.000126,  21.516
   233.2,0.017106,0.009494,0.168952,0.000162,  21.489
   233.4,0.017027,0.009453,0.168314,0.000139,  21.470
   233.6,0.016955,0.009402,0.167663,0.000126,  21.452
   233.8,0.016869,0.009356,0.166976,0.000162,  21.427
   234.0,0.016797,0.009312,0.166253,0.000139,  21.406
   234.2,0.016728,0.009281,0.165562,0.000126,  21.382
   234.4,0.016645,0.009240,0.164849,0.000162,  21.368
   234.6,0.016573,0.009194,0.164174,0.000139,  21.348
   234.8,0.016494,0.009150,0.163507,0.000126,  21.327
   235.0,0.016411,0.009104,0.162827,0.000162,  21.306
   235.2,0.016335,0.009062,0.162154,0.000139,  21.280
   235.4,0.016256,0.009016,0.161569,0.000126,  21.267
   235.6,0.016176,0.008975,0.161020,0.000162,  21.247
   235.8,0.016104,0.008935,0.160487,0.000139,  21.230
   236.0,0.016037,0.008894,0.159889,0.000126,  21.214
   236.2,0.015976,0.008852,0.159236,0.000162,  21.189
   236.4,0.015919,0.008814,0.158590,0.000139,  21.179
   236.6,0.015860,0.008776,0.158010,0.000126,  21.162
   236.8,0.015815,0.008730,0.157409,0.000162,  21.144
   237.0,0.015749,0.008689,0.156837,0.000139,  21.122
   237.2,0.015672,0.008655,0.156259,0.000126,  21.097
   237.4,0.015603,0.008611,0.155653,0.000162,  21.082
   237.6,0.015527,0.008571,0.155027,0.000139,  21.065
   237.8,0.015467,0.008530,0.154472,0.000126,  21.046
   238.0,0.015401,0.008494,0.153960,0.000148,  21.025
   238.2,0.015328,0.008455,0.153442,0.000126,  21.010
   238.4,0.015264,0.008424,0.152931,0.000126,  20.992
   238.6,0.015204,0.008387,0.152400,0.000148,  20.972
   238.8,0.015134,0.008352,0.151897,0.000162,  20.952
   239.0,0.015076,0.008322,0.151423,0.000162,  20.935
   239.2,0.015013,0.008285,0.150942,0.000175,  20.908
   239.4,0.014945,0.008253,0.150476,0.000162,  20.891
   239.6,0.014892,0.008224,0.150031,0.000175,  20.873
   239.8,0.014831,0.008189,0.149628,0.000162,  20.851
   240.0,0.014771,0.008158,0.149267,0.000162,  20.830
   240.2,0.014711,0.008126,0.148907,0.000139,  20.809
   240.4,0.014662,0.008089,0.148374,0.000126,  20.791
   240.6,0.014594,0.008059,0.147786,0.000162,  20.770
   240.8,0.014531,0.008028,0.147116,0.000139,  20.755
   241.0,0.014470,0.007989,0.146578,0.000139,  20.732
   241.2,0.014403,0.007960,0.146027,0.000175,  20.712
   241.4,0.014343,0.007931,0.145483,0.000152,  20.697
   241.6,0.014279,0.007901,0.144981,0.000152,  20.671
   241.8,0.014212,0.007874,0.144473,0.000188,  20.652
   242.0,0.014154,0.007856,0.143986,0.000152,  20.635
   242.2,0.014095,0.007831,0.143473,0.000152,  20.608
   242.4,0.014028,0.007799,0.142939,0.000188,  20.594
   242.6,0.013964,0.007763,0.142386,0.000152,  20.574
   242.8,0.013908,0.007731,0.141867,0.000152,  20.552
   243.0,0.013841,0.007695,0.141369,0.000175,  20.533
   243.2,0.013777,0.007658,0.140872,0.000152,  20.510
   243.4,0.013721,0.007622,0.140308,0.000152,  20.493
   243.6,0.013654,0.007588,0.139697,0.000175,  20.479
   243.8,0.013593,0.007554,0.139021,0.000152,  20.460
   244.0,0.013537,0.007529,0.138459,0.000152,  20.433
   244.2,0.013470,0.007497,0.137932,0.000175,  20.414
   244.4,0.013406,0.007455,0.137385,0.000152,  20.395
   244.6,0.013343,0.007423,0.136872,0.000139,  20.379
   244.8,0.013276,0.007391,0.136393,0.000162,  20.361
   245.0,0.013222,0.007352,0.135901,0.000139,  20.344
   245.2,0.013169,0.007319,0.135364,0.000126,  20.320
   245.4,0.013121,0.007287,0.134781,0.000162,  20.304
   245.6,0.013076,0.007252,0.134165,0.000139,  20.288
   245.8,0.013033,0.007225,0.133669,0.000139,  20.266
   246.0,0.012999,0.007198,0.133221,0.000188,  20.249
   246.2,0.012951,0.007168,0.132792,0.000152,  20.223
   246.4,0.012893,0.007148,0.132292,0.000152,  20.213
   246.6,0.012846,0.007125,0.131786,0.000188,  20.193
   246.8,0.012791,0.007095,0.131214,0.000152,  20.175
   247.0,0.012750,0.007073,0.130459,0.000152,  20.159
   247.2,0.012701,0.007045,0.129600,0.000188,  20.133
   247.4,0.012646,0.007017,0.128619,0.000188,  20.121
   247.6,0.012602,0.006992,0.128176,0.000188,  20.104
   247.8,0.012555,0.006967,0.127963,0.000201,  20.088
   248.0,0.012503,0.006939,0.127952,0.000201,  20.072
   248.2,0.012458,0.006916,0.127681,0.000215,  20.044
   248.4,0.012413,0.006890,0.127410,0.000215,  20.032
   248.6,0.012361,0.006865,0.127113,0.000215,  20.019
   248.8,0.012322,0.006840,0.126777,0.000179,  20.001
   249.0,0.012271,0.006815,0.126395,0.000192,  19.978
   249.2,0.012219,0.006790,0.125988,0.000215,  19.959
   249.4,0.012181,0.006766,0.125535,0.000179,  19.946
   249.6,0.012133,0.006743,0.125147,0.000192,  19.930
   249.8,0.012081,0.006721,0.124773,0.000215,  19.916
   250.0,0.012043,0.006692,0.124412,0.000179,  19.898
   250.2,0.011995,0.006669,0.124084,0.000228,  19.874
   250.4,0.011943,0.006646,0.123729,0.000250,  19.858
   250.6,0.011908,0.006633,0.123402,0.000215,  19.843
   250.8,0.011860,0.006619,0.122990,0.000264,  19.823
   251.0,0.011808,0.006591,0.122534,0.000264,  19.813
   251.2,0.011772,0.006573,0.122008,0.000228,  19.785
   251.4,0.011727,0.006549,0.120986,0.000264,  19.772
   251.6,0.011678,0.006518,0.119686,0.000264,  19.753
   251.8,0.011643,0.006499,0.118111,0.000228,  19.734
   252.0,0.011601,0.006474,0.117768,0.000264,  19.717
   252.2,0.011552,0.006444,0.117890,0.000264,  19.698
   252.4,0.011517,0.006421,0.118477,0.000228,  19.688
   252.6,0.011475,0.006404,0.118422,0.000264,  19.669
   252.8,0.011429,0.006378,0.118290,0.000250,  19.653
   253.0,0.011394,0.006362,0.118043,0.000215,  19.637
   253.2,0.011355,0.006346,0.117752,0.000264,  19.617
   253.4,0.011312,0.006324,0.117423,0.000250,  19.604
   253.6,0.011280,0.006309,0.117019,0.000215,  19.586
   253.8,0.011241,0.006288,0.116727,0.000264,  19.569
   254.0,0.011208,0.006266,0.116482,0.000264,  19.554
   254.2,0.011181,0.006245,0.116249,0.000228,  19.536
   254.4,0.011147,0.006227,0.115679,0.000264,  19.523
   254.6,0.011130,0.006212,0.114980,0.000264,  19.509
   254.8,0.011100,0.006191,0.114111,0.000228,  19.492
   255.0,0.011061,0.006171,0.113797,0.000264,  19.475
   255.2,0.011029,0.006153,0.113673,0.000264,  19.459
   255.4,0.010986,0.006137,0.113725,0.000228,  19.444
   255.6,0.010956,0.006116,0.113563,0.000277,  19.428
   255.8,0.010927,0.006095,0.113370,0.000277,  19.415
   256.0,0.010890,0.006074,0.113126,0.000277,  19.400
   256.2,0.010863,0.006061,0.112870,0.000241,  19.383
   256.4,0.010840,0.006045,0.112583,0.000241,  19.365
   256.6,0.010804,0.006024,0.112265,0.000277,  19.348
   256.8,0.010774,0.006011,0.112060,0.000254,  19.337
   257.0,0.010748,0.005997,0.111899,0.000254,  19.316
   257.2,0.010714,0.005976,0.111769,0.000254,  19.302
   257.4,0.010681,0.005968,0.111571,0.000232,  19.289
   257.6,0.010661,0.005959,0.111373,0.000219,  19.276
   257.8,0.010634,0.005942,0.111151,0.000254,  19.265
   258.0,0.010601,0.005931,0.110898,0.000232,  19.248
   258.2,0.010582,0.005917,0.110613,0.000232,  19.229
   258.4,0.010548,0.005907,0.110272,0.000268,  19.217
   258.6,0.010517,0.005894,0.109913,0.000245,  19.201
   258.8,0.010490,0.005882,0.109647,0.000245,  19.188
   259.0,0.010456,0.005863,0.109400,0.000268,  19.178
   259.2,0.010429,0.005851,0.109166,0.000245,  19.156
   259.4,0.010399,0.005840,0.108912,0.000245,  19.144
   259.6,0.010365,0.005821,0.108666,0.000268,  19.132
   259.8,0.010345,0.005806,0.108389,0.000245,  19.118
   260.0,0.010318,0.005792,0.108166,0.000245,  19.106
   260.2,0.010284,0.005784,0.107944,0.000268,  19.088
   260.4,0.010264,0.005767,0.107741,0.000245,  19.083
   260.6,0.010245,0.005761,0.107408,0.000245,  19.068
   260.8,0.010211,0.005745,0.106994,0.000281,  19.055
   261.0,0.010187,0.005731,0.106527,0.000258,  19.041
   261.2,0.010167,0.005715,0.106251,0.000258,  19.025
   261.4,0.010133,0.005696,0.106018,0.000294,  19.018
   261.6,0.010109,0.005682,0.105879,0.000272,  19.004
   261.8,0.010089,0.005666,0.105703,0.000272,  18.995
   262.0,0.010055,0.005652,0.105520,0.000294,  18.977
   262.2,0.010031,0.005641,0.105374,0.000272,  18.961
   262.4,0.010011,0.005627,0.105203,0.000272,  18.956
   262.6,0.009980,0.005613,0.105038,0.000294,  18.940
   262.8,0.009959,0.005609,0.104855,0.000272,  18.926
   263.0,0.009942,0.005598,0.104611,0.000272,  18.921
   263.2,0.009924,0.005584,0.104313,0.000307,  18.904
   263.4,0.009906,0.005576,0.103961,0.000272,  18.892
   263.6,0.009892,0.005566,0.103736,0.000272,  18.882
   263.8,0.009874,0.005555,0.103542,0.000307,  18.875
   264.0,0.009853,0.005546,0.103404,0.000272,  18.861
   264.2,0.009832,0.005537,0.103240,0.000272,  18.846
   264.4,0.009808,0.005530,0.103095,0.000307,  18.837
   264.6,0.009780,0.005517,0.102957,0.000272,  18.825
   264.8,0.009763,0.005507,0.102794,0.000272,  18.817
   265.0,0.009746,0.005495,0.102612,0.000307,  18.802
   265.2,0.009718,0.005484,0.102425,0.000307,  18.791
   265.4,0.009704,0.005470,0.102208,0.000307,  18.779
   265.6,0.009683,0.005456,0.101930,0.000321,  18.772
   265.8,0.009655,0.005441,0.101611,0.000307,  18.759
   266.0,0.009634,0.005435,0.101417,0.000321,  18.748
   266.2,0.009617,0.005426,0.101261,0.000321,  18.736
   266.4,0.009592,0.005410,0.101124,0.000334,  18.729
   266.6,0.009568,0.005394,0.100986,0.000311,  18.722
   266.8,0.009551,0.005385,0.100879,0.000325,  18.710
   267.0,0.009526,0.005366,0.100749,0.000334,  18.699
   267.2,0.009505,0.005355,0.100668,0.000298,  18.683
   267.4,0.009491,0.005346,0.100493,0.000311,  18.674
   267.6,0.009463,0.005334,0.100289,0.000334,  18.668
   267.8,0.009442,0.005330,0.100061,0.000298,  18.656
   268.0,0.009428,0.005320,0.099875,0.000334,  18.645
   268.2,0.009400,0.005305,0.099678,0.000356,  18.631
   268.4,0.009380,0.005296,0.099481,0.000321,  18.627
   268.6,0.009366,0.005287,0.099254,0.000356,  18.619
   268.8,0.009341,0.005278,0.098997,0.000356,  18.609
   269.0,0.009320,0.005269,0.098710,0.000321,  18.597
   269.2,0.009303,0.005266,0.098495,0.000356,  18.586
   269.4,0.009275,0.005249,0.098328,0.000356,  18.577
   269.6,0.009254,0.005243,0.098192,0.000321,  18.566
   269.8,0.009240,0.005232,0.098018,0.000356,  18.566
   270.0,0.009215,0.005223,0.097882,0.000356,  18.549
   270.2,0.009191,0.005209,0.097739,0.000321,  18.538
   270.4,0.009174,0.005201,0.097010,0.000356,  18.527
   270.6,0.009149,0.005189,0.095989,0.000356,  18.522
   270.8,0.009132,0.005171,0.094636,0.000321,  18.511
   271.0,0.009108,0.005162,0.094434,0.000356,  18.499
   271.2,0.009080,0.005146,0.094639,0.000356,  18.490
   271.4,0.009066,0.005128,0.095254,0.000321,  18.485
   271.6,0.009042,0.005118,0.095359,0.000356,  18.474
   271.8,0.009024,0.005105,0.095391,0.000356,  18.460
   272.0,0.009003,0.005094,0.095388,0.000321,  18.456
   272.2,0.008984,0.005086,0.095331,0.000356,  18.445
   272.4,0.008974,0.005075,0.095225,0.000356,  18.431
   272.6,0.008956,0.005066,0.095096,0.000321,  18.430
   272.8,0.008928,0.005052,0.094983,0.000356,  18.420
   273.0,0.008914,0.005033,0.094896,0.000356,  18.406
   273.2,0.008889,0.005017,0.094797,0.000321,  18.395
   273.4,0.008875,0.005007,0.094506,0.000356,  18.392
   273.6,0.008861,0.004993,0.094083,0.000356,  18.380
   273.8,0.008836,0.004984,0.093542,0.000356,  18.372
   274.0,0.008815,0.004978,0.093396,0.000334,  18.365
   274.2,0.008796,0.004964,0.093379,0.000321,  18.353
   274.4,0.008768,0.004957,0.093502,0.000356,  18.349
   274.6,0.008750,0.004943,0.093415,0.000334,  18.341
   274.8,0.008733,0.004931,0.093309,0.000321,  18.331
   275.0,0.008708,0.004917,0.093163,0.000321,  18.323
   275.2,0.008687,0.004910,0.093094,0.000285,  18.310
   275.4,0.008673,0.004896,0.093048,0.000285,  18.307
   275.6,0.008648,0.004877,0.093016,0.000321,  18.298
   275.8,0.008628,0.004871,0.093013,0.000285,  18.290
   276.0,0.008611,0.004865,0.092848,0.000285,  18.285
   276.2,0.008583,0.004847,0.092643,0.000321,  18.274
   276.4,0.008562,0.004839,0.092402,0.000285,  18.267
   276.6,0.008548,0.004827,0.092226,0.000285,  18.262
   276.8,0.008520,0.004815,0.092032,0.000321,  18.252
   277.0,0.008502,0.004808,0.091839,0.000285,  18.243
   277.2,0.008491,0.004801,0.091484,0.000298,  18.235
   277.4,0.008467,0.004787,0.091053,0.000298,  18.232
   277.6,0.008446,0.004778,0.090545,0.000262,  18.222
   277.8,0.008426,0.004770,0.090330,0.000311,  18.216
   278.0,0.008401,0.004753,0.090192,0.000298,  18.209
   278.2,0.008390,0.004745,0.090149,0.000262,  18.200
   278.4,0.008373,0.004733,0.090128,0.000298,  18.193
   278.6,0.008345,0.004724,0.090165,0.000285,  18.183
   278.8,0.008334,0.004712,0.090218,0.000249,  18.178
   279.0,0.008314,0.004703,0.090114,0.000285,  18.170
   279.2,0.008286,0.004693,0.089946,0.000285,  18.163
   279.4,0.008272,0.004680,0.089702,0.000236,  18.156
   279.6,0.008251,0.004666,0.089615,0.000272,  18.151
   279.8,0.008226,0.004651,0.089569,0.000307,  18.145
   280.0,0.008215,0.004642,0.089559,0.000258,  18.135
   280.2,0.008191,0.004628,0.089462,0.000258,  18.124
   280.4,0.008174,0.004621,0.089310,0.000294,  18.122
   280.6,0.008158,0.004610,0.089143,0.000272,  18.116
   280.8,0.008140,0.004601,0.089009,0.000272,  18.111
   281.0,0.008131,0.004595,0.088893,0.000294,  18.099
   281.2,0.008116,0.004584,0.088785,0.000272,  18.087
   281.4,0.008085,0.004563,0.088691,0.000272,  18.083
   281.6,0.008064,0.004551,0.088623,0.000294,  18.076
   281.8,0.008037,0.004545,0.088584,0.000272,  18.061
   282.0,0.008026,0.004536,0.088003,0.000258,  18.058
   282.2,0.008012,0.004527,0.087183,0.000281,  18.051
   282.4,0.007987,0.004517,0.086066,0.000281,  18.044
   282.6,0.007969,0.004511,0.085875,0.000281,  18.038
   282.8,0.007961,0.004497,0.085995,0.000281,  18.028
   283.0,0.007942,0.004489,0.086437,0.000281,  18.021
   283.2,0.007930,0.004482,0.086481,0.000281,  18.010
   283.4,0.007919,0.004472,0.086507,0.000281,  18.004
   283.6,0.007901,0.004460,0.086446,0.000281,  17.996
   283.8,0.007891,0.004459,0.086367,0.000258,  17.990
   284.0,0.007885,0.004452,0.086357,0.000258,  17.981
   284.2,0.007870,0.004440,0.086336,0.000307,  17.977
   284.4,0.007847,0.004436,0.086315,0.000272,  17.966
   284.6,0.007835,0.004427,0.086001,0.000272,  17.961
   284.8,0.007823,0.004415,0.085500,0.000307,  17.947
   285.0,0.007801,0.004413,0.084848,0.000272,  17.942
   285.2,0.007794,0.004409,0.084629,0.000272,  17.934
   285.4,0.007775,0.004402,0.084539,0.000307,  17.925
   285.6,0.007757,0.004395,0.084597,0.000272,  17.921
   285.8,0.007739,0.004388,0.084598,0.000272,  17.913
   286.0,0.007717,0.004377,0.084646,0.000294,  17.898
   286.2,0.007703,0.004373,0.084740,0.000272,  17.897
   286.4,0.007685,0.004363,0.084723,0.000272,  17.886
   286.6,0.007664,0.004356,0.084637,0.000307,  17.881
   286.8,0.007653,0.004342,0.084505,0.000272,  17.873
   287.0,0.007635,0.004340,0.084441,0.000272,  17.866
   287.2,0.007613,0.004333,0.084391,0.000307,  17.854
   287.4,0.007602,0.004317,0.084335,0.000285,  17.850
   287.6,0.007581,0.004311,0.084202,0.000285,  17.841
   287.8,0.007560,0.004304,0.084030,0.000321,  17.838
   288.0,0.007542,0.004293,0.083800,0.000298,  17.825
   288.2,0.007524,0.004282,0.083686,0.000298,  17.815
   288.4,0.007505,0.004276,0.083565,0.000321,  17.811
   288.6,0.007490,0.004271,0.083468,0.000285,  17.805
   288.8,0.007485,0.004261,0.083290,0.000285,  17.800
   289.0,0.007473,0.004252,0.083071,0.000321,  17.790
   289.2,0.007461,0.004239,0.082824,0.000285,  17.779
   289.4,0.007459,0.004233,0.082664,0.000285,  17.775
   289.6,0.007445,0.004227,0.082525,0.000321,  17.767
   289.8,0.007429,0.004217,0.082411,0.000285,  17.758
   290.0,0.007411,0.004208,0.082279,0.000285,  17.750
   290.2,0.007400,0.004200,0.082136,0.000321,  17.738
   290.4,0.007381,0.004191,0.081994,0.000285,  17.734
   290.6,0.007369,0.004184,0.081898,0.000285,  17.727
   290.8,0.007354,0.004174,0.081784,0.000321,  17.720
   291.0,0.007335,0.004167,0.081681,0.000321,  17.714
   291.2,0.007321,0.004161,0.081510,0.000334,  17.706
   291.4,0.007310,0.004152,0.081310,0.000321,  17.695
   291.6,0.007291,0.004143,0.081064,0.000321,  17.687
   291.8,0.007276,0.004137,0.080922,0.000334,  17.679
   292.0,0.007271,0.004133,0.080822,0.000321,  17.672
   292.2,0.007252,0.004121,0.080737,0.000321,  17.666
   292.4,0.007240,0.004123,0.080695,0.000285,  17.660
   292.6,0.007235,0.004115,0.080603,0.000285,  17.651
   292.8,0.007217,0.004115,0.080518,0.000321,  17.642
   293.0,0.007208,0.004112,0.080433,0.000285,  17.641
   293.2,0.007206,0.004103,0.080291,0.000298,  17.625
   293.4,0.007193,0.004096,0.080092,0.000334,  17.617
   293.6,0.007181,0.004092,0.079871,0.000298,  17.611
   293.8,0.007173,0.004090,0.079672,0.000311,  17.607
   294.0,0.007157,0.004084,0.079481,0.000334,  17.597
   294.2,0.007145,0.004080,0.079261,0.000298,  17.589
   294.4,0.007137,0.004073,0.079073,0.000311,  17.582
   294.6,0.007119,0.004068,0.078910,0.000334,  17.571
   294.8,0.007107,0.004062,0.078747,0.000298,  17.565
   295.0,0.007102,0.004057,0.078623,0.000311,  17.561
   295.2,0.007083,0.004050,0.078517,0.000334,  17.544
   295.4,0.007071,0.004043,0.078393,0.000298,  17.542
   295.6,0.007066,0.004033,0.078167,0.000311,  17.539
   295.8,0.007053,0.004024,0.077888,0.000334,  17.533
   296.0,0.007048,0.004017,0.077517,0.000298,  17.524
   296.2,0.007043,0.004015,0.077376,0.000311,  17.511
   296.4,0.007030,0.004013,0.077327,0.000347,  17.506
   296.6,0.007022,0.004006,0.077341,0.000311,  17.501
   296.8,0.007013,0.004006,0.077313,0.000311,  17.490
   297.0,0.007000,0.004003,0.077320,0.000347,  17.484
   297.2,0.006991,0.003991,0.077352,0.000311,  17.474
   297.4,0.006986,0.003986,0.077314,0.000311,  17.466
   297.6,0.006973,0.003984,0.077254,0.000347,  17.465
   297.8,0.006964,0.003975,0.077166,0.000311,  17.455
   298.0,0.006962,0.003975,0.077067,0.000311,  17.451
   298.2,0.006956,0.003970,0.076915,0.000347,  17.443
   298.4,0.006950,0.003970,0.076732,0.000311,  17.439
   298.6,0.006950,0.003970,0.076616,0.000311,  17.432
   298.8,0.006944,0.003963,0.076482,0.000347,  17.421
   299.0,0.006938,0.003961,0.076348,0.000311,  17.415
   299.2,0.006929,0.003954,0.076306,0.000311,  17.407
   299.4,0.006921,0.003947,0.076285,0.000347,  17.399
   299.6,0.006908,0.003947,0.076299,0.000311,  17.394
   299.8,0.006905,0.003942,0.076194,0.000311,  17.386
   300.0,0.006909,0.003937,0.076067,0.000347,  17.382
   300.2,0.006899,0.003947,0.075884,0.000347,  17.372
   300.4,0.006890,0.003947,0.075522,0.000347,  17.365
   300.6,0.006891,0.003942,0.075041,0.000347,  17.354
   300.8,0.006881,0.003950,0.074449,0.000347,  17.351
   301.0,0.006878,0.003947,0.074277,0.000347,  17.348
   301.2,0.006879,0.003943,0.074270,0.000360,  17.336
   301.4,0.006869,0.003946,0.074400,0.000360,  17.333
   301.6,0.006863,0.003942,0.074694,0.000325,  17.324
   301.8,0.006864,0.003942,0.074779,0.000338,  17.321
   302.0,0.006851,0.003941,0.074828,0.000360,  17.317
   302.2,0.006848,0.003939,0.074887,0.000325,  17.307
   302.4,0.006846,0.003937,0.074891,0.000338,  17.305
   302.6,0.006833,0.003935,0.074873,0.000360,  17.299
   302.8,0.006827,0.003929,0.074821,0.000338,  17.295
   303.0,0.006828,0.003922,0.074824,0.000338,  17.285
   303.2,0.006819,0.003915,0.074845,0.000374,  17.278
   303.4,0.006810,0.003912,0.074842,0.000351,  17.274
   303.6,0.006811,0.003907,0.074789,0.000338,  17.266
   303.8,0.006801,0.003905,0.074681,0.000374,  17.266
   304.0,0.006798,0.003907,0.074527,0.000351,  17.260
   304.2,0.006792,0.003905,0.074492,0.000338,  17.251
   304.4,0.006779,0.003903,0.074456,0.000374,  17.254
   304.6,0.006780,0.003893,0.074432,0.000351,  17.246
   304.8,0.006774,0.003896,0.074173,0.000338,  17.246
   305.0,0.006761,0.003894,0.073819,0.000374,  17.238
   305.2,0.006762,0.003887,0.073348,0.000351,  17.229
   305.4,0.006763,0.003883,0.072598,0.000338,  17.223
   305.6,0.006753,0.003881,0.071658,0.000374,  17.221
   305.8,0.006747,0.003879,0.070538,0.000351,  17.221
   306.0,0.006748,0.003879,0.070597,0.000338,  17.216
   306.2,0.006735,0.003876,0.071151,0.000374,  17.205
   306.4,0.006733,0.003872,0.072197,0.000351,  17.203
   306.6,0.006734,0.003870,0.072563,0.000338,  17.194
   306.8,0.006729,0.003868,0.072803,0.000374,  17.194
   307.0,0.006719,0.003861,0.072950,0.000351,  17.192
   307.2,0.006717,0.003856,0.073128,0.000338,  17.190
   307.4,0.006714,0.003854,0.073278,0.000374,  17.182
   307.6,0.006704,0.003852,0.073407,0.000351,  17.184
   307.8,0.006698,0.003850,0.073491,0.000338,  17.179
   308.0,0.006699,0.003848,0.073512,0.000374,  17.175
   308.2,0.006686,0.003840,0.073529,0.000351,  17.167
   308.4,0.006687,0.003841,0.073522,0.000338,  17.162
   308.6,0.006681,0.003836,0.073442,0.000374,  17.160
   308.8,0.006671,0.003827,0.073351,0.000374,  17.158
   309.0,0.006672,0.003823,0.073281,0.000374,  17.157
   309.2,0.006669,0.003821,0.073191,0.000374,  17.150
   309.4,0.006659,0.003817,0.073089,0.000374,  17.145
   309.6,0.006660,0.003818,0.073089,0.000387,  17.144
   309.8,0.006654,0.003818,0.073121,0.000374,  17.139
   310.0,0.006641,0.003821,0.073187,0.000374,  17.137
   310.2,0.006645,0.003817,0.073292,0.000351,  17.129
   310.4,0.006640,0.003814,0.073093,0.000338,  17.129
   310.6,0.006633,0.003814,0.072803,0.000374,  17.125
   310.8,0.006640,0.003817,0.072378,0.000351,  17.117
   311.0,0.006634,0.003817,0.071953,0.000338,  17.113
   311.2,0.006624,0.003812,0.071438,0.000374,  17.111
   311.4,0.006628,0.003810,0.070887,0.000351,  17.109
   311.6,0.006622,0.003813,0.070932,0.000351,  17.109
   311.8,0.006612,0.003812,0.071195,0.000387,  17.107
   312.0,0.006616,0.003806,0.071730,0.000364,  17.100
   312.2,0.006613,0.003809,0.071915,0.000364,  17.094
   312.4,0.006606,0.003811,0.072068,0.000387,  17.100
   312.6,0.006613,0.003809,0.072158,0.000364,  17.091
   312.8,0.006607,0.003811,0.072270,0.000364,  17.088
   313.0,0.006597,0.003806,0.072381,0.000387,  17.086
   313.2,0.006601,0.003809,0.072507,0.000364,  17.084
   313.4,0.006595,0.003805,0.072552,0.000364,  17.081
   313.6,0.006592,0.003808,0.072562,0.000400,  17.078
   313.8,0.006589,0.003805,0.072552,0.000378,  17.076
   314.0,0.006593,0.003804,0.072580,0.000364,  17.070
   314.2,0.006583,0.003809,0.072608,0.000400,  17.073
   314.4,0.006580,0.003807,0.072629,0.000378,  17.070
   314.6,0.006571,0.003799,0.072660,0.000364,  17.067
   314.8,0.006565,0.003799,0.072723,0.000400,  17.065
   315.0,0.006555,0.003797,0.072772,0.000378,  17.059
   315.2,0.006559,0.003790,0.072765,0.000364,  17.059
   315.4,0.006553,0.003783,0.072719,0.000400,  17.054
   315.6,0.006546,0.003778,0.072618,0.000378,  17.051
   315.8,0.006541,0.003770,0.072583,0.000364,  17.049
   316.0,0.006535,0.003758,0.072576,0.000400,  17.048
   316.2,0.006525,0.003753,0.072594,0.000378,  17.043
   316.4,0.006516,0.003755,0.072576,0.000364,  17.039
   316.6,0.006517,0.003750,0.072559,0.000400,  17.038
   316.8,0.006504,0.003744,0.072541,0.000378,  17.036
   317.0,0.006502,0.003745,0.072332,0.000364,  17.037
   317.2,0.006497,0.003743,0.072005,0.000400,  17.029
   317.4,0.006481,0.003735,0.071560,0.000400,  17.033
   317.6,0.006475,0.003740,0.071490,0.000413,  17.027
   317.8,0.006469,0.003738,0.071563,0.000400,  17.026
   318.0,0.006454,0.003729,0.071747,0.000400,  17.023
   318.2,0.006448,0.003723,0.071768,0.000413,  17.014
   318.4,0.006446,0.003722,0.071761,0.000400,  17.014
   318.6,0.006433,0.003716,0.071744,0.000400,  17.011
   318.8,0.006427,0.003716,0.071692,0.000378,  17.011
   319.0,0.006425,0.003712,0.071688,0.000364,  17.010
   319.2,0.006412,0.003707,0.071733,0.000400,  17.009
   319.4,0.006403,0.003701,0.071779,0.000378,  17.005
   319.6,0.006398,0.003693,0.071726,0.000378,  17.004
   319.8,0.006385,0.003690,0.071636,0.000413,  17.002
   320.0,0.006379,0.003682,0.071472,0.000391,  17.001
   320.2,0.006380,0.003677,0.071420,0.000391,  16.996
   320.4,0.006368,0.003675,0.071420,0.000413,  16.993
   320.6,0.006359,0.003673,0.071431,0.000391,  16.992
   320.8,0.006357,0.003671,0.071389,0.000378,  16.990
   321.0,0.006344,0.003664,0.071372,0.000400,  16.991
   321.2,0.006338,0.003669,0.071344,0.000378,  16.986
   321.4,0.006333,0.003659,0.071319,0.000351,  16.988
   321.6,0.006317,0.003652,0.071285,0.000374,  16.987
   321.8,0.006308,0.003648,0.071239,0.000351,  16.985
   322.0,0.006303,0.003640,0.071281,0.000338,  16.980
   322.2,0.006284,0.003632,0.071340,0.000374,  16.976
   322.4,0.006276,0.003621,0.071462,0.000351,  16.974
   322.6,0.006274,0.003616,0.071493,0.000338,  16.976
   322.8,0.006255,0.003608,0.071468,0.000374,  16.972
   323.0,0.006243,0.003601,0.071423,0.000338,  16.969
   323.2,0.006241,0.003597,0.071343,0.000338,  16.965
   323.4,0.006229,0.003590,0.071197,0.000360,  16.962
   323.6,0.006218,0.003580,0.071006,0.000325,  16.958
   323.8,0.006221,0.003577,0.070972,0.000325,  16.958
   324.0,0.006212,0.003570,0.070947,0.000347,  16.956
   324.2,0.006196,0.003566,0.070978,0.000311,  16.951
   324.4,0.006193,0.003562,0.070982,0.000311,  16.946
   324.6,0.006183,0.003562,0.070950,0.000334,  16.948
   324.8,0.006173,0.003554,0.070937,0.000298,  16.945
   325.0,0.006177,0.003553,0.070843,0.000311,  16.945
   325.2,0.006174,0.003551,0.070711,0.000334,  16.941
   325.4,0.006164,0.003546,0.070565,0.000298,  16.935
   325.6,0.006158,0.003550,0.070478,0.000325,  16.939
   325.8,0.006156,0.003550,0.070419,0.000360,  16.934
   326.0,0.006146,0.003537,0.070385,0.000325,  16.932
   326.2,0.006147,0.003537,0.070388,0.000338,  16.927
   326.4,0.006138,0.003534,0.070374,0.000360,  16.925
   326.6,0.006128,0.003527,0.070370,0.000360,  16.922
   326.8,0.006129,0.003525,0.070301,0.000360,  16.919
   327.0,0.006123,0.003522,0.070186,0.000374,  16.922
   327.2,0.006114,0.003520,0.070034,0.000374,  16.916
   327.4,0.006111,0.003517,0.069965,0.000387,  16.909
   327.6,0.006098,0.003514,0.069913,0.000374,  16.909
   327.8,0.006085,0.003511,0.069881,0.000374,  16.903
   328.0,0.006086,0.003509,0.069864,0.000338,  16.894
   328.2,0.006080,0.003499,0.069712,0.000374,  16.895
   328.4,0.006064,0.003499,0.069494,0.000396,  16.895
   328.6,0.006062,0.003498,0.069231,0.000360,  16.891
   328.8,0.006053,0.003493,0.069117,0.000409,  16.889
   329.0,0.006040,0.003483,0.069048,0.000396,  16.885
   329.2,0.006041,0.003483,0.069024,0.000374,  16.880
   329.4,0.006032,0.003481,0.068999,0.000409,  16.881
   329.6,0.006020,0.003471,0.068985,0.000409,  16.873
   329.8,0.006014,0.003472,0.068954,0.000387,  16.869
   330.0,0.005999,0.003470,0.068750,0.000409,  16.868
   330.2,0.005983,0.003467,0.068447,0.000409,  16.859
   330.4,0.005977,0.003460,0.068019,0.000374,  16.861
   330.6,0.005975,0.003458,0.067899,0.000409,  16.857
   330.8,0.005962,0.003453,0.067892,0.000396,  16.853
   331.0,0.005953,0.003442,0.067957,0.000360,  16.845
   331.2,0.005954,0.003438,0.068015,0.000409,  16.844
   331.4,0.005942,0.003431,0.068084,0.000396,  16.840
   331.6,0.005936,0.003426,0.068187,0.000360,  16.835
   331.8,0.005940,0.003428,0.068173,0.000409,  16.836
   332.0,0.005930,0.003425,0.068104,0.000396,  16.834
   332.2,0.005931,0.003428,0.067990,0.000374,  16.827
   332.4,0.005935,0.003428,0.067959,0.000409,  16.822
   332.6,0.005928,0.003428,0.067928,0.000409,  16.823
   332.8,0.005929,0.003426,0.067921,0.000387,  16.814
   333.0,0.005923,0.003424,0.067900,0.000409,  16.812
   333.2,0.005910,0.003420,0.067903,0.000409,  16.806
   333.4,0.005914,0.003418,0.067896,0.000387,  16.804
   333.6,0.005905,0.003419,0.067827,0.000387,  16.797
   333.8,0.005902,0.003420,0.067765,0.000387,  16.799
   334.0,0.005896,0.003415,0.067648,0.000364,  16.790
   334.2,0.005899,0.003416,0.067552,0.000364,  16.791
   334.4,0.005900,0.003416,0.067455,0.000387,  16.783
   334.6,0.005897,0.003413,0.067331,0.000364,  16.782
   334.8,0.005891,0.003408,0.067262,0.000364,  16.778
   335.0,0.005888,0.003403,0.067214,0.000364,  16.778
   335.2,0.005878,0.003397,0.067179,0.000342,  16.773
   335.4,0.005872,0.003394,0.067083,0.000364,  16.766
   335.6,0.005867,0.003387,0.066970,0.000364,  16.762
   335.8,0.005854,0.003389,0.066853,0.000364,  16.759
   336.0,0.005858,0.003383,0.066767,0.000378,  16.754
   336.2,0.005852,0.003376,0.066688,0.000364,  16.748
   336.4,0.005842,0.003378,0.066636,0.000364,  16.748
   336.6,0.005840,0.003378,0.066602,0.000378,  16.744
   336.8,0.005835,0.003374,0.066578,0.000329,  16.741
   337.0,0.005825,0.003372,0.066546,0.000351,  16.739
   337.2,0.005819,0.003371,0.066539,0.000329,  16.734
   337.4,0.005823,0.003369,0.066436,0.000364,  16.736
   337.6,0.005813,0.003361,0.066337,0.000387,  16.730
   337.8,0.005810,0.003361,0.066186,0.000364,  16.726
   338.0,0.005811,0.003360,0.066145,0.000364,  16.720
   338.2,0.005801,0.003358,0.066113,0.000400,  16.718
   338.4,0.005795,0.003357,0.066137,0.000378,  16.711
   338.6,0.005796,0.003360,0.066096,0.000364,  16.710
   338.8,0.005787,0.003355,0.066044,0.000400,  16.706
   339.0,0.005787,0.003354,0.065965,0.000378,  16.703
   339.2,0.005793,0.003354,0.065904,0.000364,  16.702
   339.4,0.005784,0.003353,0.065825,0.000400,  16.696
   339.6,0.005781,0.003350,0.065718,0.000378,  16.695
   339.8,0.005781,0.003352,0.065533,0.000364,  16.685
   340.0,0.005777,0.003349,0.065294,0.000400,  16.684
   340.2,0.005781,0.003349,0.064983,0.000378,  16.675
   340.4,0.005778,0.003349,0.064932,0.000364,  16.670
   340.6,0.005771,0.003347,0.064969,0.000400,  16.673
   340.8,0.005778,0.003351,0.065085,0.000378,  16.668
   341.0,0.005772,0.003352,0.065133,0.000364,  16.666
   341.2,0.005765,0.003355,0.065197,0.000400,  16.665
   341.4,0.005776,0.003358,0.065272,0.000378,  16.663
   341.6,0.005777,0.003358,0.065269,0.000378,  16.657
   341.8,0.005770,0.003360,0.065234,0.000413,  16.654
   342.0,0.005773,0.003360,0.065190,0.000391,  16.652
   342.2,0.005773,0.003355,0.065210,0.000391,  16.646
   342.4,0.005773,0.003350,0.065230,0.000413,  16.643
   342.6,0.005773,0.003353,0.065275,0.000391,  16.640
   342.8,0.005777,0.003354,0.065241,0.000378,  16.640
   343.0,0.005777,0.003348,0.065189,0.000400,  16.634
   343.2,0.005770,0.003350,0.065117,0.000378,  16.629
   343.4,0.005773,0.003351,0.064861,0.000364,  16.633
   343.6,0.005777,0.003346,0.064533,0.000400,  16.626
   343.8,0.005770,0.003347,0.064107,0.000378,  16.626
   344.0,0.005780,0.003352,0.064100,0.000378,  16.621
   344.2,0.005780,0.003354,0.064243,0.000378,  16.616
   344.4,0.005773,0.003349,0.064505,0.000355,  16.616
   344.6,0.005773,0.003350,0.064570,0.000391,  16.612
   344.8,0.005770,0.003352,0.064604,0.000378,  16.609
   345.0,0.005763,0.003347,0.064584,0.000378,  16.607
   345.2,0.005766,0.003352,0.064577,0.000427,  16.607
   345.4,0.005773,0.003355,0.064584,0.000391,  16.603
   345.6,0.005766,0.003352,0.064557,0.000413,  16.603
   345.8,0.005769,0.003359,0.064557,0.000427,  16.604
   346.0,0.005773,0.003359,0.064550,0.000427,  16.600
   346.2,0.005773,0.003359,0.064567,0.000427,  16.596
   346.4,0.005773,0.003369,0.064550,0.000391,  16.595
   346.6,0.005784,0.003372,0.064577,0.000391,  16.591
   346.8,0.005777,0.003369,0.064611,0.000427,  16.590
   347.0,0.005773,0.003369,0.064621,0.000391,  16.589
   347.2,0.005776,0.003371,0.064631,0.000391,  16.586
   347.4,0.005769,0.003373,0.064638,0.000427,  16.588
   347.6,0.005772,0.003371,0.064618,0.000391,  16.586
   347.8,0.005779,0.003376,0.064611,0.000391,  16.582
   348.0,0.005772,0.003372,0.064628,0.000427,  16.581
   348.2,0.005779,0.003374,0.064618,0.000404,  16.580
   348.4,0.005783,0.003370,0.064547,0.000404,  16.578
   348.6,0.005776,0.003365,0.064431,0.000440,  16.578
   348.8,0.005786,0.003368,0.064267,0.000417,  16.574
   349.0,0.005786,0.003369,0.063763,0.000417,  16.573
   349.2,0.005779,0.003364,0.063049,0.000440,  16.574
   349.4,0.005786,0.003359,0.062156,0.000404,  16.571
   349.6,0.005780,0.003362,0.062139,0.000404,  16.571
   349.8,0.005770,0.003362,0.062441,0.000440,  16.568
   350.0,0.005770,0.003360,0.063103,0.000391,  16.566
   350.2,0.005767,0.003358,0.063371,0.000391,  16.561
   350.4,0.005757,0.003358,0.063629,0.000427,  16.562
   350.6,0.005757,0.003356,0.063871,0.000378,  16.560
   350.8,0.005767,0.003356,0.064014,0.000378,  16.560
   351.0,0.005760,0.003354,0.064095,0.000427,  16.555
   351.2,0.005767,0.003355,0.064130,0.000391,  16.560
   351.4,0.005771,0.003354,0.064246,0.000391,  16.556
   351.6,0.005768,0.003355,0.064354,0.000427,  16.552
   351.8,0.005771,0.003354,0.064456,0.000391,  16.552
   352.0,0.005768,0.003355,0.064501,0.000391,  16.552
   352.2,0.005772,0.003355,0.064491,0.000427,  16.552
   352.4,0.005768,0.003359,0.064416,0.000391,  16.551
   352.6,0.005768,0.003362,0.064433,0.000391,  16.552
   352.8,0.005761,0.003361,0.064467,0.000427,  16.545
   353.0,0.005760,0.003357,0.064477,0.000427,  16.546
   353.2,0.005760,0.003355,0.063653,0.000427,  16.541
   353.4,0.005770,0.003357,0.062406,0.000427,  16.543
   353.6,0.005766,0.003355,0.060742,0.000427,  16.542
   353.8,0.005766,0.003360,0.060698,0.000427,  16.541
   354.0,0.005770,0.003363,0.061225,0.000427,  16.535
   354.2,0.005763,0.003357,0.062366,0.000427,  16.533
   354.4,0.005763,0.003365,0.062753,0.000391,  16.537
   354.6,0.005770,0.003367,0.063065,0.000391,  16.538
   354.8,0.005760,0.003360,0.063310,0.000427,  16.539
   355.0,0.005760,0.003365,0.063452,0.000391,  16.535
   355.2,0.005764,0.003367,0.063701,0.000391,  16.533
   355.4,0.005757,0.003360,0.063932,0.000427,  16.539
   355.6,0.005757,0.003363,0.064147,0.000391,  16.535
   355.8,0.005764,0.003365,0.064317,0.000391,  16.533
   356.0,0.005760,0.003361,0.064467,0.000427,  16.537
   356.2,0.005754,0.003357,0.064556,0.000391,  16.534
   356.4,0.005755,0.003351,0.064672,0.000391,  16.533
   356.6,0.005751,0.003355,0.064771,0.000427,  16.533
   356.8,0.005747,0.003348,0.064860,0.000391,  16.533
   357.0,0.005743,0.003355,0.064894,0.000391,  16.528
   357.2,0.005743,0.003355,0.064884,0.000427,  16.531
   357.4,0.005737,0.003353,0.064846,0.000391,  16.532
   357.6,0.005732,0.003347,0.064829,0.000391,  16.526
   357.8,0.005722,0.003350,0.064802,0.000427,  16.529
   358.0,0.005722,0.003350,0.064772,0.000391,  16.531
   358.2,0.005726,0.003343,0.064782,0.000391,  16.526
   358.4,0.005716,0.003340,0.064809,0.000427,  16.528
   358.6,0.005716,0.003338,0.064853,0.000391,  16.524
   358.8,0.005726,0.003339,0.064881,0.000427,  16.529
   359.0,0.005716,0.003329,0.064888,0.000449,  16.529
   359.2,0.005720,0.003330,0.064888,0.000427,  16.528
   359.4,0.005718,0.003330,0.064925,0.000462,  16.529
   359.6,0.005715,0.003326,0.064980,0.000449,  16.531
   359.8,0.005713,0.003331,0.065051,0.000427,  16.524
   360.0,0.005713,0.003333,0.065058,0.000462,  16.526
   360.2,0.005717,0.003325,0.064980,0.000449,  16.524
   360.4,0.005717,0.003328,0.064895,0.000427,  16.527
   360.6,0.005714,0.003322,0.064874,0.000462,  16.522
   360.8,0.005711,0.003317,0.064813,0.000449,  16.528
   361.0,0.005704,0.003322,0.064775,0.000427,  16.521
   361.2,0.005698,0.003318,0.064786,0.000462,  16.527
   361.4,0.005695,0.003316,0.064813,0.000449,  16.528
   361.6,0.005688,0.003316,0.064850,0.000413,  16.526
   361.8,0.005689,0.003315,0.064379,0.000427,  16.525
   362.0,0.005683,0.003312,0.063643,0.000391,  16.522
   362.2,0.005673,0.003310,0.062658,0.000413,  16.524
   362.4,0.005674,0.003308,0.062631,0.000427,  16.523
   362.6,0.005668,0.003303,0.062933,0.000427,  16.520
   362.8,0.005655,0.003304,0.063606,0.000413,  16.523
   363.0,0.005656,0.003298,0.063837,0.000391,  16.524
   363.2,0.005657,0.003293,0.064008,0.000378,  16.522
   363.4,0.005644,0.003288,0.064141,0.000400,  16.522
   363.6,0.005635,0.003286,0.064205,0.000378,  16.521
   363.8,0.005631,0.003284,0.064260,0.000364,  16.518
   364.0,0.005618,0.003274,0.064277,0.000387,  16.522
   364.2,0.005609,0.003267,0.064291,0.000364,  16.523
   364.4,0.005607,0.003263,0.064284,0.000364,  16.516
   364.6,0.005594,0.003256,0.064291,0.000387,  16.521
   364.8,0.005585,0.003250,0.064298,0.000364,  16.517
   365.0,0.005583,0.003248,0.064355,0.000364,  16.513
   365.2,0.005570,0.003231,0.064464,0.000387,  16.516
   365.4,0.005571,0.003234,0.064583,0.000364,  16.511
   365.6,0.005567,0.003227,0.064586,0.000351,  16.511
   365.8,0.005551,0.003215,0.064552,0.000374,  16.515
   366.0,0.005555,0.003213,0.064436,0.000338,  16.508
   366.2,0.005546,0.003207,0.064392,0.000338,  16.507
   366.4,0.005530,0.003202,0.064337,0.000360,  16.511
   366.6,0.005531,0.003201,0.064266,0.000325,  16.511
   366.8,0.005519,0.003194,0.064276,0.000338,  16.510
   367.0,0.005509,0.003192,0.064330,0.000360,  16.507
   367.2,0.005516,0.003189,0.064388,0.000338,  16.502
   367.4,0.005516,0.003190,0.064347,0.000338,  16.500
   367.6,0.005509,0.003190,0.064268,0.000374,  16.503
   367.8,0.005509,0.003185,0.064145,0.000351,  16.501
   368.0,0.005509,0.003192,0.064121,0.000351,  16.497
   368.2,0.005499,0.003192,0.064107,0.000387,  16.495
   368.4,0.005496,0.003188,0.064128,0.000364,  16.494
   368.6,0.005500,0.003191,0.064110,0.000364,  16.493
   368.8,0.005497,0.003189,0.064042,0.000387,  16.495
   369.0,0.005494,0.003187,0.063970,0.000364,  16.495
   369.2,0.005494,0.003185,0.063698,0.000364,  16.491
   369.4,0.005494,0.003187,0.063317,0.000400,  16.492
   369.6,0.005494,0.003184,0.062821,0.000378,  16.487
   369.8,0.005489,0.003184,0.062769,0.000364,  16.490
   370.0,0.005489,0.003183,0.062858,0.000400,  16.487
   370.2,0.005482,0.003183,0.063099,0.000378,  16.486
   370.4,0.005482,0.003182,0.063207,0.000364,  16.483
   370.6,0.005479,0.003180,0.063299,0.000400,  16.481
   370.8,0.005469,0.003178,0.063390,0.000400,  16.480
   371.0,0.005473,0.003184,0.062615,0.000413,  16.478
   371.2,0.005474,0.003184,0.061392,0.000400,  16.475
   371.4,0.005464,0.003179,0.059759,0.000400,  16.473
   371.6,0.005458,0.003179,0.059692,0.000413,  16.472
   371.8,0.005462,0.003177,0.060200,0.000400,  16.475
   372.0,0.005452,0.003175,0.061280,0.000400,  16.471
   372.2,0.005446,0.003172,0.061625,0.000378,  16.468
   372.4,0.005447,0.003172,0.061882,0.000364,  16.464
   372.6,0.005437,0.003164,0.062034,0.000400,  16.461
   372.8,0.005434,0.003161,0.062115,0.000378,  16.463
   373.0,0.005441,0.003161,0.061949,0.000364,  16.466
   373.2,0.005434,0.003156,0.061614,0.000400,  16.460
   373.4,0.005431,0.003157,0.061113,0.000378,  16.460
   373.6,0.005432,0.003158,0.061177,0.000378,  16.461
   373.8,0.005422,0.003153,0.061410,0.000413,  16.457
   374.0,0.005419,0.003159,0.061877,0.000391,  16.456
   374.2,0.005417,0.003156,0.062056,0.000391,  16.450
   374.4,0.005408,0.003157,0.062182,0.000413,  16.452
   374.6,0.005412,0.003150,0.062263,0.000391,  16.447
   374.8,0.005413,0.003149,0.062334,0.000391,  16.447
   375.0,0.005406,0.003149,0.062327,0.000413,  16.448
   375.2,0.005410,0.003146,0.062283,0.000391,  16.445
   375.4,0.005404,0.003149,0.062283,0.000391,  16.438
   375.6,0.005394,0.003143,0.062259,0.000427,  16.440
   375.8,0.005401,0.003142,0.062225,0.000391,  16.440
   376.0,0.005398,0.003149,0.062218,0.000391,  16.436
   376.2,0.005398,0.003149,0.062204,0.000427,  16.433
   376.4,0.005392,0.003146,0.062224,0.000391,  16.430
   376.6,0.005396,0.003146,0.062207,0.000391,  16.432
   376.8,0.005399,0.003143,0.062156,0.000427,  16.424
   377.0,0.005389,0.003145,0.062095,0.000391,  16.424
   377.2,0.005396,0.003141,0.062064,0.000391,  16.423
   377.4,0.005396,0.003141,0.062064,0.000427,  16.424
   377.6,0.005386,0.003143,0.062047,0.000391,  16.418
   377.8,0.005390,0.003141,0.062013,0.000391,  16.420
   378.0,0.005390,0.003137,0.061962,0.000427,  16.415
   378.2,0.005387,0.003138,0.061901,0.000391,  16.413
   378.4,0.005390,0.003136,0.061928,0.000391,  16.412
   378.6,0.005390,0.003131,0.061965,0.000427,  16.412
   378.8,0.005383,0.003134,0.062029,0.000404,  16.406
   379.0,0.005383,0.003141,0.062005,0.000404,  16.407
   379.2,0.005383,0.003139,0.061954,0.000440,  16.402
   379.4,0.005376,0.003139,0.061873,0.000417,  16.399
   379.6,0.005383,0.003144,0.061812,0.000417,  16.398
   379.8,0.005383,0.003144,0.061723,0.000440,  16.393
   380.0,0.005379,0.003147,0.061615,0.000404,  16.393
   380.2,0.005389,0.003150,0.061219,0.000417,  16.394
   380.4,0.005392,0.003153,0.060648,0.000417,  16.391
   380.6,0.005388,0.003156,0.059927,0.000417,  16.391
   380.8,0.005388,0.003156,0.059903,0.000382,  16.384
   381.0,0.005385,0.003159,0.060152,0.000417,  16.384
   381.2,0.005378,0.003155,0.060671,0.000417,  16.381
   381.4,0.005385,0.003152,0.060830,0.000417,  16.382
   381.6,0.005386,0.003150,0.060945,0.000417,  16.372
   381.8,0.005382,0.003150,0.060999,0.000453,  16.378
   382.0,0.005389,0.003157,0.061009,0.000417,  16.373
   382.2,0.005389,0.003154,0.061117,0.000431,  16.373
   382.4,0.005385,0.003152,0.061238,0.000453,  16.370
   382.6,0.005389,0.003157,0.061346,0.000417,  16.369
   382.8,0.005389,0.003154,0.061312,0.000431,  16.366
   383.0,0.005385,0.003152,0.061231,0.000453,  16.362
   383.2,0.005389,0.003152,0.061070,0.000417,  16.358
   383.4,0.005389,0.003152,0.061046,0.000417,  16.362
   383.6,0.005382,0.003147,0.061066,0.000440,  16.360
   383.8,0.005386,0.003149,0.061137,0.000404,  16.356
   384.0,0.005383,0.003149,0.061113,0.000404,  16.352
   384.2,0.005376,0.003146,0.061069,0.000440,  16.350
   384.4,0.005383,0.003151,0.060971,0.000404,  16.347
   384.6,0.005383,0.003151,0.060971,0.000417,  16.348
   384.8,0.005383,0.003151,0.060964,0.000453,  16.352
   385.0,0.005390,0.003151,0.060974,0.000417,  16.340
   385.2,0.005394,0.003151,0.060974,0.000431,  16.337
   385.4,0.005397,0.003156,0.060974,0.000453,  16.339
   385.6,0.005393,0.003156,0.060957,0.000417,  16.343
   385.8,0.005396,0.003154,0.060994,0.000431,  16.341
   386.0,0.005399,0.003159,0.061058,0.000453,  16.339
   386.2,0.005392,0.003162,0.061132,0.000417,  16.339
   386.4,0.005399,0.003160,0.061125,0.000431,  16.339
   386.6,0.005402,0.003160,0.061108,0.000453,  16.335
   386.8,0.005395,0.003164,0.061054,0.000417,  16.336
   387.0,0.005408,0.003169,0.061081,0.000431,  16.333
   387.2,0.005401,0.003165,0.061135,0.000453,  16.329
   387.4,0.005394,0.003169,0.061179,0.000417,  16.329
   387.6,0.005397,0.003171,0.061172,0.000431,  16.329
   387.8,0.005404,0.003166,0.061155,0.000466,  16.329
   388.0,0.005404,0.003158,0.061111,0.000431,  16.326
   388.2,0.005404,0.003160,0.061033,0.000431,  16.324
   388.4,0.005408,0.003160,0.060952,0.000466,  16.329
   388.6,0.005405,0.003159,0.060861,0.000431,  16.325
   388.8,0.005398,0.003160,0.060871,0.000431,  16.322
   389.0,0.005405,0.003162,0.060908,0.000466,  16.321
   389.2,0.005408,0.003167,0.060989,0.000466,  16.323
   389.4,0.005401,0.003161,0.060999,0.000480,  16.322
   389.6,0.005408,0.003160,0.060972,0.000466,  16.320
   389.8,0.005404,0.003160,0.060925,0.000466,  16.322
   390.0,0.005404,0.003157,0.060915,0.000466,  16.322
   390.2,0.005404,0.003154,0.060925,0.000466,  16.321
   390.4,0.005400,0.003154,0.060942,0.000466,  16.317
   390.6,0.005407,0.003161,0.060962,0.000431,  16.318
   390.8,0.005404,0.003161,0.060962,0.000431,  16.316
   391.0,0.005397,0.003162,0.060935,0.000453,  16.317
   391.2,0.005407,0.003164,0.060898,0.000417,  16.314
   391.4,0.005407,0.003166,0.060915,0.000431,  16.316
   391.6,0.005403,0.003170,0.060932,0.000453,  16.316
   391.8,0.005416,0.003170,0.060942,0.000417,  16.310
   392.0,0.005419,0.003170,0.060952,0.000431,  16.311
   392.2,0.005415,0.003168,0.060952,0.000453,  16.312
   392.4,0.005424,0.003174,0.060942,0.000417,  16.309
   392.6,0.005424,0.003170,0.060986,0.000431,  16.313
   392.8,0.005420,0.003165,0.061030,0.000453,  16.311
   393.0,0.005427,0.003165,0.061084,0.000417,  16.312
   393.2,0.005424,0.003169,0.061128,0.000431,  16.307
   393.4,0.005420,0.003169,0.061135,0.000453,  16.308
   393.6,0.005427,0.003174,0.061135,0.000417,  16.313
   393.8,0.005424,0.003174,0.060712,0.000431,  16.311
   394.0,0.005420,0.003171,0.060095,0.000453,  16.309
   394.2,0.005427,0.003171,0.059234,0.000417,  16.307
   394.4,0.005424,0.003169,0.059234,0.000431,  16.306
   394.6,0.005420,0.003166,0.059543,0.000453,  16.308
   394.8,0.005427,0.003164,0.060166,0.000417,  16.312
   395.0,0.005424,0.003170,0.060341,0.000431,  16.310
   395.2,0.005424,0.003167,0.060436,0.000453,  16.311
   395.4,0.005417,0.003165,0.060460,0.000417,  16.309
   395.6,0.005421,0.003168,0.060628,0.000431,  16.312
   395.8,0.005421,0.003168,0.060824,0.000453,  16.311
   396.0,0.005415,0.003168,0.061054,0.000417,  16.308
   396.2,0.005420,0.003168,0.061169,0.000431,  16.311
   396.4,0.005430,0.003171,0.061240,0.000453,  16.312
   396.6,0.005426,0.003174,0.061247,0.000417,  16.308
   396.8,0.005436,0.003177,0.061308,0.000431,  16.314
   397.0,0.005433,0.003179,0.061342,0.000453,  16.311
   397.2,0.005426,0.003176,0.061359,0.000453,  16.314
   397.4,0.005436,0.003173,0.061376,0.000453,  16.312
   397.6,0.005436,0.003174,0.061373,0.000453,  16.311
   397.8,0.005433,0.003174,0.061336,0.000453,  16.314
   398.0,0.005437,0.003183,0.061177,0.000453,  16.312
   398.2,0.005438,0.003186,0.060954,0.000453,  16.314
   398.4,0.005438,0.003186,0.060660,0.000453,  16.315
   398.6,0.005438,0.003186,0.060643,0.000417,  16.314
   398.8,0.005441,0.003183,0.060731,0.000431,  16.319
   399.0,0.005437,0.003188,0.060917,0.000453,  16.318
   399.2,0.005440,0.003185,0.061191,0.000417,  16.317
   399.4,0.005436,0.003187,0.061312,0.000431,  16.321
   399.6,0.005432,0.003185,0.061400,0.000453,  16.319
   399.8,0.005439,0.003188,0.061512,0.000417,  16.323
   400.0,0.005436,0.003188,0.061556,0.000431,  16.318
   400.2,0.005429,0.003183,0.061573,0.000453,  16.321
   400.4,0.005432,0.003189,0.061570,0.000417,  16.319
   400.6,0.005432,0.003192,0.061631,0.000431,  16.320
   400.8,0.005425,0.003190,0.061686,0.000453,  16.325
   401.0,0.005432,0.003185,0.061774,0.000417,  16.324
   401.2,0.005436,0.003186,0.061818,0.000431,  16.322
   401.4,0.005433,0.003183,0.061835,0.000453,  16.324
   401.6,0.005427,0.003177,0.061818,0.000417,  16.324
   401.8,0.005428,0.003174,0.061774,0.000417,  16.326
   402.0,0.005425,0.003169,0.061682,0.000440,  16.327
   402.2,0.005416,0.003167,0.061557,0.000404,  16.326
   402.4,0.005420,0.003165,0.061513,0.000404,  16.324
   402.6,0.005420,0.003162,0.061476,0.000440,  16.329
   402.8,0.005416,0.003162,0.061473,0.000404,  16.331
   403.0,0.005420,0.003165,0.061507,0.000404,  16.331
   403.2,0.005416,0.003170,0.061517,0.000440,  16.333
   403.4,0.005416,0.003168,0.061585,0.000404,  16.336
   403.6,0.005416,0.003161,0.061673,0.000404,  16.334
   403.8,0.005409,0.003166,0.061764,0.000440,  16.333
   404.0,0.005413,0.003168,0.061890,0.000391,  16.338
   404.2,0.005410,0.003166,0.061934,0.000427,  16.338
   404.4,0.005407,0.003158,0.061951,0.000462,  16.336
   404.6,0.005400,0.003157,0.061948,0.000413,  16.339
   404.8,0.005397,0.003155,0.061992,0.000449,  16.334
   405.0,0.005391,0.003149,0.062036,0.000462,  16.337
   405.2,0.005391,0.003149,0.062073,0.000427,  16.337
   405.4,0.005385,0.003155,0.062100,0.000427,  16.339
   405.6,0.005379,0.003153,0.062117,0.000427,  16.336
   405.8,0.005369,0.003148,0.062134,0.000391,  16.339
   406.0,0.005370,0.003147,0.062100,0.000391,  16.336
   406.2,0.005368,0.003142,0.062046,0.000413,  16.340
   406.4,0.005355,0.003133,0.061972,0.000413,  16.345
   406.6,0.005353,0.003124,0.061928,0.000427,  16.341
   406.8,0.005345,0.003122,0.061901,0.000427,  16.339
   407.0,0.005335,0.003117,0.061846,0.000413,  16.341
   407.2,0.005339,0.003115,0.061846,0.000427,  16.344
   407.4,0.005333,0.003112,0.061874,0.000413,  16.343
   407.6,0.005323,0.003109,0.061911,0.000400,  16.342
   407.8,0.005324,0.003104,0.061982,0.000378,  16.344
   408.0,0.005312,0.003099,0.062009,0.000364,  16.341
   408.2,0.005302,0.003101,0.061992,0.000387,  16.341
   408.4,0.005296,0.003095,0.061975,0.000364,  16.341
   408.6,0.005290,0.003090,0.061958,0.000364,  16.345
   408.8,0.005277,0.003086,0.061907,0.000387,  16.343
   409.0,0.005274,0.003082,0.061870,0.000364,  16.341
   409.2,0.005272,0.003077,0.061870,0.000364,  16.339
   409.4,0.005263,0.003080,0.061829,0.000387,  16.340
   409.6,0.005270,0.003071,0.061829,0.000364,  16.344
   409.8,0.005274,0.003073,0.061785,0.000364,  16.341
   410.0,0.005264,0.003074,0.061706,0.000400,  16.341
   410.2,0.005271,0.003075,0.061611,0.000378,  16.341
   410.4,0.005265,0.003073,0.061560,0.000378,  16.339
   410.6,0.005258,0.003078,0.061526,0.000413,  16.341
   410.8,0.005262,0.003074,0.061485,0.000391,  16.339
   411.0,0.005259,0.003071,0.061488,0.000391,  16.337
   411.2,0.005255,0.003066,0.061518,0.000413,  16.338
   411.4,0.005255,0.003065,0.061532,0.000391,  16.339
   411.6,0.005252,0.003067,0.061478,0.000391,  16.336
   411.8,0.005245,0.003061,0.061363,0.000413,  16.333
   412.0,0.005239,0.003058,0.061204,0.000391,  16.332
   412.2,0.005237,0.003055,0.061160,0.000391,  16.332
   412.4,0.005227,0.003051,0.061143,0.000413,  16.327
   412.6,0.005221,0.003050,0.061136,0.000391,  16.325
   412.8,0.005222,0.003046,0.061129,0.000391,  16.324
   413.0,0.005219,0.003042,0.061088,0.000413,  16.318
   413.2,0.005216,0.003040,0.061071,0.000391,  16.318
   413.4,0.005220,0.003040,0.061054,0.000391,  16.318
   413.6,0.005217,0.003037,0.060986,0.000413,  16.317
   413.8,0.005210,0.003034,0.060932,0.000391,  16.317
   414.0,0.005204,0.003036,0.060851,0.000391,  16.313
   414.2,0.005208,0.003033,0.060702,0.000413,  16.311
   414.4,0.005201,0.003032,0.060544,0.000413,  16.310
   414.6,0.005203,0.003033,0.060449,0.000427,  16.308
   414.8,0.005203,0.003028,0.060371,0.000427,  16.308
   415.0,0.005196,0.003028,0.060334,0.000413,  16.307
   415.2,0.005200,0.003027,0.060293,0.000427,  16.306
   415.4,0.005197,0.003030,0.060259,0.000462,  16.300
   415.6,0.005194,0.003033,0.060259,0.000449,  16.297
   415.8,0.005195,0.003032,0.060252,0.000427,  16.297
   416.0,0.005200,0.003038,0.060272,0.000462,  16.295
   416.2,0.005200,0.003033,0.060289,0.000449,  16.291
   416.4,0.005193,0.003031,0.060309,0.000427,  16.291
   416.6,0.005193,0.003026,0.060339,0.000427,  16.286
   416.8,0.005193,0.003023,0.060352,0.000427,  16.287
   417.0,0.005186,0.003024,0.060399,0.000391,  16.287
   417.2,0.005180,0.003016,0.060409,0.000391,  16.285
   417.4,0.005180,0.003018,0.060412,0.000427,  16.285
   417.6,0.005173,0.003019,0.060395,0.000391,  16.281
   417.8,0.005177,0.003019,0.060334,0.000391,  16.279
   418.0,0.005177,0.003021,0.060270,0.000427,  16.276
   418.2,0.005170,0.003016,0.060146,0.000391,  16.274
   418.4,0.005174,0.003014,0.060051,0.000391,  16.270
   418.6,0.005171,0.003011,0.059990,0.000427,  16.269
   418.8,0.005164,0.003015,0.059896,0.000391,  16.274
   419.0,0.005165,0.003011,0.059845,0.000391,  16.269
   419.2,0.005155,0.003006,0.059811,0.000391,  16.264
   419.4,0.005152,0.003001,0.059801,0.000355,  16.263
   419.6,0.005146,0.003000,0.059794,0.000391,  16.266
   419.8,0.005139,0.003002,0.059763,0.000391,  16.264
   420.0,0.005142,0.003000,0.059766,0.000355,  16.264
   420.2,0.005139,0.003005,0.059776,0.000391,  16.261
   420.4,0.005132,0.003003,0.059769,0.000391,  16.258
   420.6,0.005139,0.002998,0.059762,0.000355,  16.258
   420.8,0.005140,0.003002,0.059745,0.000391,  16.258
   421.0,0.005140,0.003002,0.059701,0.000391,  16.257
   421.2,0.005131,0.002997,0.059648,0.000355,  16.255
   421.4,0.005134,0.003000,0.059651,0.000391,  16.249
   421.6,0.005132,0.003000,0.059670,0.000391,  16.253
   421.8,0.005125,0.003000,0.059724,0.000355,  16.249
   422.0,0.005122,0.002998,0.059700,0.000391,  16.247
   422.2,0.005126,0.003001,0.059623,0.000391,  16.247
   422.4,0.005129,0.002999,0.059518,0.000355,  16.246
   422.6,0.005129,0.002992,0.059572,0.000391,  16.243
   422.8,0.005133,0.002999,0.059645,0.000391,  16.240
   423.0,0.005136,0.003001,0.059787,0.000391,  16.236
   423.2,0.005133,0.002999,0.059770,0.000391,  16.234
   423.4,0.005137,0.003001,0.059692,0.000391,  16.233
   423.6,0.005140,0.003003,0.059578,0.000391,  16.236
   423.8,0.005130,0.003001,0.059517,0.000391,  16.230
   424.0,0.005130,0.002998,0.059476,0.000355,  16.231
   424.2,0.005130,0.002995,0.059456,0.000391,  16.225
   424.4,0.005123,0.003000,0.059415,0.000355,  16.221
   424.6,0.005127,0.002995,0.059328,0.000391,  16.222
   424.8,0.005127,0.002987,0.059204,0.000413,  16.222
   425.0,0.005123,0.002993,0.059046,0.000391,  16.219
   425.2,0.005127,0.002995,0.059022,0.000391,  16.216
   425.4,0.005130,0.002995,0.059058,0.000413,  16.215
   425.6,0.005123,0.003004,0.059149,0.000391,  16.213
   425.8,0.005130,0.003004,0.059132,0.000391,  16.213
   426.0,0.005133,0.002999,0.059088,0.000427,  16.213
   426.2,0.005123,0.003002,0.059018,0.000391,  16.208
   426.4,0.005130,0.003000,0.058833,0.000391,  16.207
   426.6,0.005130,0.002995,0.058561,0.000427,  16.207
   426.8,0.005130,0.002992,0.058195,0.000391,  16.205
   427.0,0.005134,0.002995,0.058171,0.000391,  16.204
   427.2,0.005137,0.002990,0.058265,0.000391,  16.203
   427.4,0.005133,0.002997,0.058467,0.000368,  16.205
   427.6,0.005133,0.003000,0.058547,0.000404,  16.201
   427.8,0.005129,0.003002,0.058601,0.000404,  16.199
   428.0,0.005132,0.002997,0.058661,0.000382,  16.199
   428.2,0.005134,0.002999,0.058732,0.000417,  16.195
   428.4,0.005131,0.002996,0.058785,0.000404,  16.194
   428.6,0.005133,0.003001,0.058829,0.000368,  16.195
   428.8,0.005133,0.002998,0.058856,0.000404,  16.198
   429.0,0.005129,0.002998,0.058873,0.000404,  16.195
   429.2,0.005139,0.002998,0.058866,0.000368,  16.192
   429.4,0.005140,0.002992,0.058902,0.000404,  16.197
   429.6,0.005140,0.002992,0.058966,0.000404,  16.194
   429.8,0.005133,0.002991,0.059029,0.000355,  16.198
   430.0,0.005137,0.002995,0.058864,0.000391,  16.195
   430.2,0.005137,0.002997,0.058599,0.000391,  16.196
   430.4,0.005131,0.003000,0.058211,0.000342,  16.194
   430.6,0.005140,0.003004,0.058187,0.000378,  16.195
   430.8,0.005147,0.003004,0.058318,0.000391,  16.193
   431.0,0.005147,0.003006,0.058573,0.000355,  16.194
   431.2,0.005143,0.003009,0.058660,0.000391,  16.197
   431.4,0.005147,0.003006,0.058694,0.000378,  16.198
   431.6,0.005147,0.003005,0.058677,0.000378,  16.193
   431.8,0.005146,0.003005,0.058704,0.000427,  16.199
   432.0,0.005153,0.003007,0.058711,0.000391,  16.197
   432.2,0.005156,0.003007,0.058684,0.000413,  16.198
   432.4,0.005149,0.003012,0.058657,0.000427,  16.197
   432.6,0.005156,0.003014,0.058604,0.000391,  16.195
   432.8,0.005159,0.003009,0.058530,0.000391,  16.197
   433.0,0.005155,0.003012,0.058379,0.000355,  16.195
   433.2,0.005165,0.003011,0.058181,0.000391,  16.198
   433.4,0.005164,0.003012,0.057934,0.000391,  16.198
   433.6,0.005163,0.003013,0.057645,0.000355,  16.198
   433.8,0.005166,0.003017,0.057749,0.000391,  16.199
   434.0,0.005165,0.003015,0.057953,0.000391,  16.199
   434.2,0.005165,0.003016,0.058305,0.000355,  16.196
   434.4,0.005169,0.003014,0.058419,0.000391,  16.201
   434.6,0.005165,0.003019,0.058487,0.000391,  16.196
   434.8,0.005169,0.003024,0.058500,0.000355,  16.201
   435.0,0.005176,0.003025,0.058598,0.000391,  16.202
   435.2,0.005179,0.003020,0.058712,0.000391,  16.202
   435.4,0.005176,0.003021,0.058853,0.000355,  16.202
   435.6,0.005183,0.003024,0.058923,0.000391,  16.203
   435.8,0.005176,0.003016,0.058933,0.000391,  16.200
   436.0,0.005176,0.003021,0.058923,0.000355,  16.204
   436.2,0.005173,0.003020,0.058870,0.000391,  16.202
   436.4,0.005169,0.003020,0.058753,0.000391,  16.206
   436.6,0.005176,0.003025,0.058599,0.000355,  16.209
   436.8,0.005176,0.003023,0.058616,0.000391,  16.206
   437.0,0.005172,0.003023,0.058686,0.000391,  16.206
   437.2,0.005172,0.003026,0.058810,0.000355,  16.204
   437.4,0.005175,0.003024,0.058871,0.000391,  16.209
   437.6,0.005178,0.003024,0.058915,0.000391,  16.210
   437.8,0.005175,0.003027,0.058924,0.000355,  16.207
   438.0,0.005189,0.003023,0.058813,0.000391,  16.211
   438.2,0.005192,0.003023,0.058655,0.000391,  16.209
   438.4,0.005182,0.003024,0.058410,0.000355,  16.215
   438.6,0.005189,0.003020,0.058427,0.000391,  16.211
   438.8,0.005189,0.003015,0.058558,0.000391,  16.210
   439.0,0.005192,0.003016,0.058767,0.000355,  16.214
   439.2,0.005189,0.003024,0.058810,0.000391,  16.212
   439.4,0.005189,0.003027,0.058817,0.000391,  16.216
   439.6,0.005182,0.003019,0.058790,0.000355,  16.215
   439.8,0.005182,0.003026,0.058844,0.000391,  16.218
   440.0,0.005182,0.003028,0.058912,0.000391,  16.215
   440.2,0.005185,0.003023,0.059006,0.000355,  16.218
   440.4,0.005185,0.003023,0.059110,0.000391,  16.221
   440.6,0.005195,0.003026,0.059181,0.000427,  16.224
   440.8,0.005198,0.003023,0.059275,0.000427,  16.224
   441.0,0.005194,0.003028,0.059336,0.000462,  16.229
   441.2,0.005204,0.003032,0.059370,0.000427,  16.232
   441.4,0.005207,0.003032,0.059377,0.000427,  16.233
   441.6,0.005209,0.003041,0.059401,0.000427,  16.229
   441.8,0.005213,0.003044,0.059435,0.000427,  16.228
   442.0,0.005216,0.003041,0.059442,0.000427,  16.230
   442.2,0.005219,0.003042,0.059449,0.000391,  16.232
   442.4,0.005219,0.003042,0.059502,0.000391,  16.235
   442.6,0.005222,0.003042,0.059573,0.000427,  16.236
   442.8,0.005222,0.003047,0.059687,0.000391,  16.237
   443.0,0.005219,0.003047,0.059775,0.000391,  16.235
   443.2,0.005222,0.003044,0.059873,0.000427,  16.237
   443.4,0.005222,0.003049,0.059943,0.000391,  16.235
   443.6,0.005219,0.003049,0.059950,0.000391,  16.240
   443.8,0.005222,0.003049,0.059937,0.000427,  16.235
   444.0,0.005222,0.003049,0.059847,0.000391,  16.238
   444.2,0.005219,0.003044,0.059837,0.000391,  16.237
   444.4,0.005222,0.003046,0.059854,0.000427,  16.237
   444.6,0.005212,0.003041,0.059854,0.000391,  16.244
   444.8,0.005209,0.003041,0.059854,0.000391,  16.244
   445.0,0.005209,0.003040,0.059844,0.000427,  16.240
   445.2,0.005200,0.003042,0.059831,0.000391,  16.243
   445.4,0.005204,0.003037,0.059639,0.000391,  16.243
   445.6,0.005194,0.003032,0.059359,0.000427,  16.246
   445.8,0.005191,0.003038,0.059006,0.000391,  16.250
   446.0,0.005185,0.003034,0.059033,0.000391,  16.248
   446.2,0.005175,0.003032,0.059201,0.000427,  16.248
   446.4,0.005172,0.003029,0.059534,0.000391,  16.251
   446.6,0.005166,0.003028,0.059692,0.000391,  16.251
   446.8,0.005163,0.003021,0.059790,0.000413,  16.253
   447.0,0.005160,0.003019,0.059871,0.000391,  16.254
   447.2,0.005164,0.003018,0.059924,0.000391,  16.257
   447.4,0.005158,0.003014,0.059948,0.000413,  16.255
   447.6,0.005145,0.003012,0.059928,0.000391,  16.258
   447.8,0.005146,0.003007,0.059955,0.000378,  16.257
   448.0,0.005147,0.003005,0.059989,0.000387,  16.259
   448.2,0.005144,0.003000,0.059999,0.000364,  16.261
   448.4,0.005134,0.002993,0.060043,0.000364,  16.264
   448.6,0.005136,0.002991,0.060070,0.000387,  16.257
   448.8,0.005133,0.002986,0.060087,0.000387,  16.263
   449.0,0.005117,0.002979,0.059500,0.000387,  16.263
   449.2,0.005118,0.002975,0.058616,0.000400,  16.261
   449.4,0.005115,0.002972,0.057444,0.000387,  16.261
   449.6,0.005102,0.002966,0.057444,0.000400,  16.267
   449.8,0.005103,0.002961,0.057855,0.000400,  16.268
   450.0,0.005097,0.002958,0.058713,0.000387,  16.265
   450.2,0.005084,0.002955,0.058986,0.000364,  16.268
   450.4,0.005085,0.002952,0.059197,0.000351,  16.264
   450.6,0.005085,0.002947,0.059328,0.000374,  16.269
   450.8,0.005072,0.002957,0.059389,0.000351,  16.271
   451.0,0.005076,0.002959,0.059530,0.000338,  16.267
   451.2,0.005076,0.002954,0.059645,0.000374,  16.267
   451.4,0.005069,0.002952,0.059749,0.000351,  16.271
   451.6,0.005073,0.002954,0.059803,0.000338,  16.271
   451.8,0.005066,0.002952,0.059793,0.000374,  16.269
   452.0,0.005069,0.002950,0.059739,0.000351,  16.268
   452.2,0.005066,0.002950,0.059776,0.000338,  16.269
   452.4,0.005057,0.002946,0.059803,0.000374,  16.271
   452.6,0.005058,0.002949,0.059857,0.000351,  16.272
   452.8,0.005049,0.002947,0.059877,0.000351,  16.269
   453.0,0.005039,0.002942,0.059886,0.000387,  16.269
   453.2,0.005040,0.002938,0.059896,0.000364,  16.264
   453.4,0.005034,0.002933,0.059846,0.000364,  16.268
   453.6,0.005024,0.002925,0.059792,0.000387,  16.267
   453.8,0.005025,0.002921,0.059687,0.000364,  16.269
   454.0,0.005016,0.002919,0.059653,0.000351,  16.262
   454.2,0.005010,0.002917,0.059637,0.000374,  16.262
   454.4,0.005001,0.002908,0.059620,0.000351,  16.266
   454.6,0.005000,0.002902,0.059596,0.000338,  16.265
   454.8,0.004997,0.002895,0.059589,0.000374,  16.262
   455.0,0.004987,0.002897,0.059592,0.000351,  16.259
   455.2,0.004988,0.002894,0.059302,0.000338,  16.260
   455.4,0.004985,0.002892,0.058855,0.000374,  16.260
   455.6,0.004975,0.002886,0.058244,0.000351,  16.261
   455.8,0.004976,0.002894,0.058174,0.000338,  16.258
   456.0,0.004980,0.002894,0.058244,0.000374,  16.257
   456.2,0.004973,0.002884,0.058489,0.000351,  16.255
   456.4,0.004977,0.002885,0.058552,0.000374,  16.256
   456.6,0.004977,0.002885,0.058572,0.000409,  16.254
   456.8,0.004974,0.002887,0.058606,0.000387,  16.254
   457.0,0.004971,0.002892,0.058696,0.000409,  16.250
   457.2,0.004971,0.002890,0.058796,0.000409,  16.249
   457.4,0.004968,0.002888,0.058913,0.000387,  16.248
   457.6,0.004965,0.002883,0.058960,0.000409,  16.252
   457.8,0.004962,0.002886,0.058987,0.000409,  16.249
   458.0,0.004952,0.002881,0.058946,0.000387,  16.246
   458.2,0.004952,0.002879,0.058912,0.000409,  16.247
   458.4,0.004945,0.002881,0.058852,0.000409,  16.243
   458.6,0.004941,0.002879,0.058764,0.000374,  16.245
   458.8,0.004945,0.002878,0.058737,0.000374,  16.244
   459.0,0.004942,0.002875,0.058687,0.000325,  16.241
   459.2,0.004938,0.002868,0.058653,0.000360,  16.241
   459.4,0.004939,0.002871,0.058636,0.000360,  16.231
   459.6,0.004936,0.002874,0.058646,0.000374,  16.236
   459.8,0.004940,0.002872,0.058622,0.000360,  16.230
   460.0,0.004942,0.002868,0.058632,0.000338,  16.233
   460.2,0.004945,0.002868,0.058565,0.000338,  16.232
   460.4,0.004945,0.002866,0.058477,0.000374,  16.230
   460.6,0.004938,0.002863,0.058363,0.000351,  16.229
   460.8,0.004934,0.002860,0.058303,0.000338,  16.226
   461.0,0.004930,0.002855,0.058242,0.000374,  16.224
   461.2,0.004923,0.002858,0.058198,0.000351,  16.222
   461.4,0.004930,0.002858,0.058218,0.000338,  16.218
   461.6,0.004933,0.002855,0.058258,0.000374,  16.219
   461.8,0.004923,0.002865,0.058348,0.000351,  16.219
   462.0,0.004923,0.002867,0.058234,0.000351,  16.213
   462.2,0.004926,0.002865,0.058006,0.000387,  16.211
   462.4,0.004916,0.002872,0.057712,0.000364,  16.216
   462.6,0.004923,0.002872,0.057668,0.000364,  16.211
   462.8,0.004926,0.002876,0.057681,0.000387,  16.213
   463.0,0.004916,0.002876,0.057754,0.000364,  16.209
   463.2,0.004923,0.002876,0.057774,0.000364,  16.205
   463.4,0.004926,0.002879,0.057801,0.000400,  16.206
   463.6,0.004916,0.002877,0.057811,0.000378,  16.204
   463.8,0.004923,0.002878,0.057830,0.000364,  16.204
   464.0,0.004919,0.002875,0.057850,0.000400,  16.202
   464.2,0.004916,0.002878,0.057877,0.000378,  16.196
   464.4,0.004913,0.002874,0.057897,0.000364,  16.197
   464.6,0.004913,0.002874,0.057907,0.000400,  16.202
   464.8,0.004906,0.002873,0.057890,0.000378,  16.197
   465.0,0.004916,0.002875,0.057893,0.000364,  16.197
   465.2,0.004913,0.002875,0.057902,0.000387,  16.194
   465.4,0.004909,0.002874,0.057902,0.000364,  16.197
   465.6,0.004913,0.002870,0.057912,0.000364,  16.191
   465.8,0.004917,0.002867,0.057879,0.000387,  16.193
   466.0,0.004917,0.002867,0.057838,0.000364,  16.188
   466.2,0.004917,0.002865,0.057814,0.000364,  16.187
   466.4,0.004921,0.002865,0.057787,0.000387,  16.188
   466.6,0.004921,0.002863,0.057744,0.000364,  16.184
   466.8,0.004921,0.002863,0.057747,0.000364,  16.183
   467.0,0.004918,0.002867,0.057749,0.000387,  16.182
   467.2,0.004918,0.002865,0.057776,0.000387,  16.181
   467.4,0.004918,0.002864,0.057733,0.000387,  16.187
   467.6,0.004918,0.002868,0.057638,0.000400,  16.183
   467.8,0.004918,0.002863,0.057505,0.000387,  16.182
   468.0,0.004911,0.002863,0.057478,0.000400,  16.180
   468.2,0.004911,0.002861,0.057481,0.000400,  16.180
   468.4,0.004911,0.002857,0.057525,0.000387,  16.181
   468.6,0.004904,0.002857,0.057571,0.000364,  16.177
   468.8,0.004911,0.002855,0.057544,0.000364,  16.177
   469.0,0.004911,0.002858,0.057474,0.000387,  16.176
   469.2,0.004907,0.002861,0.057387,0.000364,  16.177
   469.4,0.004914,0.002862,0.057353,0.000364,  16.177
   469.6,0.004917,0.002864,0.057320,0.000387,  16.175
   469.8,0.004913,0.002863,0.057293,0.000364,  16.173
   470.0,0.004923,0.002860,0.057266,0.000364,  16.172
   470.2,0.004926,0.002867,0.057189,0.000387,  16.170
   470.4,0.004916,0.002863,0.057129,0.000364,  16.170
   470.6,0.004923,0.002868,0.057102,0.000364,  16.170
   470.8,0.004926,0.002868,0.057075,0.000364,  16.169
   471.0,0.004919,0.002868,0.057042,0.000342,  16.167
   471.2,0.004929,0.002871,0.057008,0.000364,  16.169
   471.4,0.004932,0.002874,0.056955,0.000364,  16.168
   471.6,0.004934,0.002877,0.056909,0.000342,  16.169
   471.8,0.004941,0.002876,0.056935,0.000364,  16.167
   472.0,0.004947,0.002875,0.056972,0.000364,  16.164
   472.2,0.004950,0.002882,0.057049,0.000342,  16.161
   472.4,0.004950,0.002883,0.057059,0.000364,  16.165
   472.6,0.004953,0.002885,0.057049,0.000400,  16.163
   472.8,0.004950,0.002883,0.056989,0.000378,  16.165
   473.0,0.004950,0.002887,0.056998,0.000364,  16.163
   473.2,0.004953,0.002889,0.057005,0.000400,  16.165
   473.4,0.004949,0.002889,0.057005,0.000378,  16.166
   473.6,0.004952,0.002889,0.057015,0.000364,  16.162
   473.8,0.004948,0.002883,0.057032,0.000400,  16.163
   474.0,0.004951,0.002890,0.057066,0.000378,  16.162
   474.2,0.004948,0.002897,0.057075,0.000364,  16.159
   474.4,0.004955,0.002896,0.057109,0.000400,  16.163
   474.6,0.004951,0.002898,0.057126,0.000378,  16.162
   474.8,0.004961,0.002901,0.057136,0.000364,  16.160
   475.0,0.004961,0.002906,0.057160,0.000400,  16.163
   475.2,0.004964,0.002906,0.057126,0.000378,  16.160
   475.4,0.004963,0.002902,0.057042,0.000364,  16.159
   475.6,0.004967,0.002907,0.056928,0.000400,  16.159
   475.8,0.004970,0.002909,0.056764,0.000400,  16.160
   476.0,0.004973,0.002902,0.056791,0.000413,  16.160
   476.2,0.004980,0.002903,0.056861,0.000400,  16.164
   476.4,0.004983,0.002905,0.057015,0.000400,  16.160
   476.6,0.004979,0.002914,0.057075,0.000413,  16.164
   476.8,0.004982,0.002913,0.057136,0.000413,  16.164
   477.0,0.004985,0.002911,0.057169,0.000413,  16.163
   477.2,0.004988,0.002919,0.057186,0.000391,  16.163
   477.4,0.004998,0.002924,0.057240,0.000391,  16.165
   477.6,0.005004,0.002921,0.057300,0.000413,  16.165
   477.8,0.005004,0.002925,0.057387,0.000391,  16.163
   478.0,0.005004,0.002930,0.057421,0.000391,  16.168
   478.2,0.005009,0.002929,0.057428,0.000413,  16.167
   478.4,0.005012,0.002937,0.057405,0.000391,  16.170
   478.6,0.005018,0.002939,0.057439,0.000391,  16.167
   478.8,0.005024,0.002934,0.057506,0.000413,  16.170
   479.0,0.005030,0.002937,0.057574,0.000391,  16.168
   479.2,0.005033,0.002937,0.057654,0.000391,  16.170
   479.4,0.005036,0.002934,0.057748,0.000427,  16.173
   479.6,0.005039,0.002934,0.057852,0.000404,  16.171
   479.8,0.005039,0.002941,0.057835,0.000404,  16.175
   480.0,0.005045,0.002940,0.057779,0.000440,  16.170
   480.2,0.005041,0.002940,0.057679,0.000417,  16.170
   480.4,0.005044,0.002949,0.057712,0.000417,  16.172
   480.6,0.005047,0.002951,0.057773,0.000440,  16.179
   480.8,0.005040,0.002953,0.057894,0.000404,  16.176
   481.0,0.005044,0.002955,0.057981,0.000404,  16.176
   481.2,0.005044,0.002955,0.058058,0.000440,  16.176
   481.4,0.005040,0.002961,0.058119,0.000404,  16.181
   481.6,0.005047,0.002964,0.058162,0.000404,  16.182
   481.8,0.005050,0.002969,0.058213,0.000440,  16.183
   482.0,0.005043,0.002965,0.058220,0.000404,  16.185
   482.2,0.005050,0.002965,0.058297,0.000404,  16.182
   482.4,0.005050,0.002969,0.058351,0.000440,  16.182
   482.6,0.005053,0.002966,0.058438,0.000404,  16.188
   482.8,0.005053,0.002966,0.058499,0.000404,  16.184
   483.0,0.005050,0.002961,0.058532,0.000440,  16.190
   483.2,0.005046,0.002959,0.058539,0.000391,  16.189
   483.4,0.005047,0.002962,0.058549,0.000391,  16.188
   483.6,0.005041,0.002960,0.058590,0.000427,  16.193
   483.8,0.005038,0.002957,0.058580,0.000378,  16.193
   484.0,0.005038,0.002953,0.058563,0.000378,  16.195
   484.2,0.005039,0.002953,0.058544,0.000427,  16.197
   484.4,0.005039,0.002950,0.058497,0.000427,  16.194
   484.6,0.005036,0.002948,0.058504,0.000427,  16.199
   484.8,0.005033,0.002946,0.058504,0.000427,  16.199
   485.0,0.005033,0.002938,0.058511,0.000413,  16.198
   485.2,0.005033,0.002939,0.058528,0.000427,  16.197
   485.4,0.005027,0.002939,0.058521,0.000427,  16.204
   485.6,0.005027,0.002926,0.058538,0.000413,  16.200
   485.8,0.005024,0.002929,0.058521,0.000391,  16.203
   486.0,0.005018,0.002924,0.058497,0.000378,  16.205
   486.2,0.005008,0.002920,0.058477,0.000400,  16.208
   486.4,0.005005,0.002917,0.058434,0.000378,  16.207
   486.6,0.004996,0.002912,0.058460,0.000364,  16.210
   486.8,0.004986,0.002910,0.058514,0.000400,  16.211
   487.0,0.004987,0.002908,0.058567,0.000378,  16.213
   487.2,0.004984,0.002908,0.058560,0.000364,  16.212
   487.4,0.004974,0.002905,0.058544,0.000400,  16.210
   487.6,0.004978,0.002902,0.058497,0.000378,  16.210
   487.8,0.004975,0.002898,0.058417,0.000351,  16.211
   488.0,0.004965,0.002903,0.058286,0.000374,  16.214
   488.2,0.004969,0.002899,0.058125,0.000351,  16.212
   488.4,0.004966,0.002900,0.058072,0.000351,  16.213
   488.6,0.004962,0.002892,0.058035,0.000387,  16.213
   488.8,0.004966,0.002894,0.058015,0.000364,  16.215
   489.0,0.004963,0.002887,0.058006,0.000364,  16.214
   489.2,0.004956,0.002882,0.057989,0.000387,  16.213
   489.4,0.004960,0.002883,0.057969,0.000364,  16.215
   489.6,0.004957,0.002889,0.058022,0.000351,  16.219
   489.8,0.004947,0.002889,0.058126,0.000374,  16.220
   490.0,0.004951,0.002881,0.058217,0.000338,  16.216
   490.2,0.004945,0.002877,0.058307,0.000338,  16.220
   490.4,0.004935,0.002869,0.058421,0.000360,  16.221
   490.6,0.004936,0.002867,0.058518,0.000325,  16.222
   490.8,0.004930,0.002860,0.058555,0.000360,  16.221
   491.0,0.004925,0.002854,0.058538,0.000383,  16.221
   491.2,0.004922,0.002857,0.058501,0.000347,  16.217
   491.4,0.004916,0.002856,0.058494,0.000383,  16.216
   491.6,0.004917,0.002856,0.058494,0.000383,  16.221
   491.8,0.004904,0.002851,0.058484,0.000347,  16.222
   492.0,0.004905,0.002853,0.058460,0.000383,  16.221
   492.2,0.004902,0.002851,0.058434,0.000370,  16.220
   492.4,0.004896,0.002839,0.058380,0.000334,  16.215
   492.6,0.004883,0.002837,0.058319,0.000383,  16.219
   492.8,0.004881,0.002838,0.058249,0.000370,  16.218
   493.0,0.004878,0.002829,0.058159,0.000370,  16.216
   493.2,0.004868,0.002827,0.058196,0.000347,  16.218
   493.4,0.004866,0.002827,0.058249,0.000347,  16.218
   493.6,0.004866,0.002827,0.058356,0.000370,  16.220
   493.8,0.004860,0.002825,0.058410,0.000347,  16.218
   494.0,0.004866,0.002826,0.058456,0.000383,  16.213
   494.2,0.004869,0.002826,0.058517,0.000383,  16.215
   494.4,0.004865,0.002830,0.058537,0.000360,  16.215
   494.6,0.004872,0.002834,0.058459,0.000360,  16.216
   494.8,0.004868,0.002833,0.058335,0.000374,  16.217
   495.0,0.004868,0.002833,0.058151,0.000351,  16.218
   495.2,0.004865,0.002833,0.058083,0.000338,  16.213
   495.4,0.004868,0.002833,0.058057,0.000374,  16.210
   495.6,0.004869,0.002835,0.058066,0.000351,  16.216
   495.8,0.004870,0.002835,0.058113,0.000351,  16.210
   496.0,0.004870,0.002830,0.058203,0.000387,  16.211
   496.2,0.004870,0.002833,0.058337,0.000364,  16.213
   496.4,0.004868,0.002833,0.058293,0.000364,  16.214
   496.6,0.004868,0.002827,0.058136,0.000351,  16.214
   496.8,0.004865,0.002832,0.057922,0.000329,  16.215
   497.0,0.004859,0.002834,0.057915,0.000364,  16.215
   497.2,0.004859,0.002831,0.057944,0.000351,  16.211
   497.4,0.004852,0.002831,0.058058,0.000329,  16.210
   497.6,0.004852,0.002827,0.058032,0.000364,  16.211
   497.8,0.004849,0.002820,0.057920,0.000351,  16.212
   498.0,0.004842,0.002818,0.057787,0.000329,  16.213
   498.2,0.004849,0.002822,0.057760,0.000364,  16.210
   498.4,0.004846,0.002822,0.057736,0.000351,  16.210
   498.6,0.004836,0.002817,0.057719,0.000329,  16.207
   498.8,0.004840,0.002819,0.057712,0.000351,  16.211
   499.0,0.004837,0.002821,0.057722,0.000374,  16.208
   499.2,0.004837,0.002816,0.057715,0.000351,  16.208
   499.4,0.004831,0.002814,0.057675,0.000338,  16.212
   499.6,0.004831,0.002811,0.057648,0.000374,  16.207
   499.8,0.004824,0.002806,0.057581,0.000351,  16.207
   500.0,0.004828,0.002811,0.057567,0.000338,  16.204
   500.2,0.004825,0.002809,0.057593,0.000374,  16.205
   500.4,0.004822,0.002804,0.057620,0.000351,  16.201
   500.6,0.004815,0.002809,0.057586,0.000338,  16.204
   500.8,0.004819,0.002809,0.057519,0.000374,  16.204
   501.0,0.004819,0.002810,0.057415,0.000374,  16.204
   501.2,0.004806,0.002811,0.057442,0.000374,  16.203
   501.4,0.004810,0.002814,0.057478,0.000374,  16.204
   501.6,0.004810,0.002812,0.057535,0.000374,  16.205
   501.8,0.004800,0.002812,0.057501,0.000387,  16.199
   502.0,0.004801,0.002812,0.057440,0.000374,  16.195
   502.2,0.004799,0.002810,0.057337,0.000374,  16.196
   502.4,0.004792,0.002812,0.057196,0.000351,  16.196
   502.6,0.004793,0.002805,0.057189,0.000338,  16.199
   502.8,0.004790,0.002798,0.057192,0.000374,  16.194
   503.0,0.004780,0.002794,0.057229,0.000351,  16.195
   503.2,0.004781,0.002789,0.057205,0.000338,  16.192
   503.4,0.004781,0.002789,0.057154,0.000374,  16.187
   503.6,0.004774,0.002789,0.057067,0.000351,  16.187
   503.8,0.004778,0.002791,0.056990,0.000338,  16.183
   504.0,0.004778,0.002789,0.056896,0.000374,  16.183
   504.2,0.004771,0.002787,0.056783,0.000351,  16.186
   504.4,0.004775,0.002787,0.056769,0.000338,  16.182
   504.6,0.004772,0.002787,0.056832,0.000374,  16.181
   504.8,0.004765,0.002782,0.056898,0.000351,  16.182
   505.0,0.004766,0.002787,0.056673,0.000338,  16.179
   505.2,0.004766,0.002787,0.056326,0.000374,  16.176
   505.4,0.004756,0.002787,0.055829,0.000351,  16.175
   505.6,0.004763,0.002787,0.055752,0.000351,  16.176
   505.8,0.004766,0.002786,0.055832,0.000351,  16.176
   506.0,0.004759,0.002786,0.056039,0.000329,  16.171
   506.2,0.004769,0.002789,0.056092,0.000364,  16.170
   506.4,0.004772,0.002789,0.056129,0.000351,  16.173
   506.6,0.004768,0.002789,0.056172,0.000329,  16.173
   506.8,0.004775,0.002791,0.056225,0.000364,  16.171
   507.0,0.004778,0.002791,0.056278,0.000364,  16.168
   507.2,0.004774,0.002789,0.056322,0.000342,  16.166
   507.4,0.004775,0.002786,0.056182,0.000364,  16.167
   507.6,0.004775,0.002785,0.055929,0.000364,  16.164
   507.8,0.004771,0.002784,0.055539,0.000342,  16.168
   508.0,0.004778,0.002790,0.055488,0.000364,  16.162
   508.2,0.004781,0.002792,0.055548,0.000364,  16.165
   508.4,0.004774,0.002794,0.055722,0.000342,  16.162
   508.6,0.004780,0.002794,0.055801,0.000364,  16.159
   508.8,0.004773,0.002796,0.055891,0.000364,  16.159
   509.0,0.004773,0.002800,0.056021,0.000342,  16.156
   509.2,0.004776,0.002800,0.056047,0.000364,  16.159
   509.4,0.004776,0.002799,0.056031,0.000364,  16.158
   509.6,0.004772,0.002804,0.055994,0.000342,  16.157
   509.8,0.004776,0.002800,0.056047,0.000364,  16.157
   510.0,0.004780,0.002795,0.056094,0.000364,  16.158
   510.2,0.004776,0.002800,0.056173,0.000364,  16.156
   510.4,0.004783,0.002795,0.056183,0.000378,  16.159
   510.6,0.004780,0.002792,0.056166,0.000364,  16.154
   510.8,0.004776,0.002797,0.056130,0.000364,  16.153
   511.0,0.004783,0.002799,0.056096,0.000378,  16.147
   511.2,0.004783,0.002799,0.056080,0.000329,  16.148
   511.4,0.004779,0.002802,0.056053,0.000364,  16.147
   511.6,0.004783,0.002805,0.056043,0.000342,  16.149
   511.8,0.004783,0.002805,0.056046,0.000364,  16.149
   512.0,0.004779,0.002805,0.056089,0.000364,  16.146
   512.2,0.004786,0.002808,0.056143,0.000342,  16.147
   512.4,0.004789,0.002810,0.055839,0.000364,  16.145
   512.6,0.004785,0.002808,0.055363,0.000364,  16.148
   512.8,0.004795,0.002815,0.054718,0.000342,  16.148
   513.0,0.004795,0.002817,0.054658,0.000378,  16.145
   513.2,0.004791,0.002812,0.054824,0.000378,  16.146
   513.4,0.004800,0.002815,0.055190,0.000355,  16.143
   513.6,0.004797,0.002810,0.055336,0.000391,  16.144
   513.8,0.004791,0.002812,0.055432,0.000378,  16.147
   514.0,0.004797,0.002807,0.055529,0.000355,  16.144
   514.2,0.004797,0.002814,0.055659,0.000391,  16.143
   514.4,0.004793,0.002814,0.055772,0.000378,  16.140
   514.6,0.004803,0.002815,0.055869,0.000355,  16.143
   514.8,0.004806,0.002813,0.055755,0.000391,  16.142
   515.0,0.004802,0.002817,0.055546,0.000378,  16.144
   515.2,0.004805,0.002814,0.055190,0.000355,  16.144
   515.4,0.004808,0.002819,0.055190,0.000391,  16.142
   515.6,0.004804,0.002819,0.055276,0.000378,  16.140
   515.8,0.004804,0.002819,0.055483,0.000355,  16.142
   516.0,0.004811,0.002822,0.055606,0.000391,  16.145
   516.2,0.004807,0.002822,0.055736,0.000378,  16.147
   516.4,0.004817,0.002819,0.055866,0.000355,  16.145
   516.6,0.004824,0.002826,0.055945,0.000391,  16.146
   516.8,0.004827,0.002828,0.056039,0.000378,  16.147
   517.0,0.004820,0.002831,0.056099,0.000355,  16.143
   517.2,0.004827,0.002834,0.056152,0.000391,  16.142
   517.4,0.004824,0.002836,0.056186,0.000378,  16.144
   517.6,0.004820,0.002835,0.056203,0.000355,  16.146
   517.8,0.004823,0.002835,0.056273,0.000391,  16.149
   518.0,0.004833,0.002838,0.056326,0.000378,  16.147
   518.2,0.004832,0.002833,0.056379,0.000355,  16.148
   518.4,0.004831,0.002833,0.056396,0.000391,  16.148
   518.6,0.004827,0.002835,0.056379,0.000378,  16.147
   518.8,0.004823,0.002836,0.056333,0.000378,  16.145
   519.0,0.004833,0.002836,0.056290,0.000391,  16.144
   519.2,0.004841,0.002836,0.056260,0.000391,  16.149
   519.4,0.004834,0.002840,0.056197,0.000378,  16.148
   519.6,0.004844,0.002838,0.056214,0.000391,  16.147
   519.8,0.004848,0.002833,0.056234,0.000355,  16.152
   520.0,0.004841,0.002837,0.056301,0.000378,  16.147
   520.2,0.004854,0.002843,0.056364,0.000355,  16.149
   520.4,0.004854,0.002845,0.056397,0.000378,  16.155
   520.6,0.004850,0.002847,0.056388,0.000400,  16.156
   520.8,0.004860,0.002852,0.056385,0.000378,  16.155
   521.0,0.004862,0.002856,0.056428,0.000364,  16.154
   521.2,0.004865,0.002855,0.056479,0.000400,  16.153
   521.4,0.004865,0.002858,0.056539,0.000378,  16.156
   521.6,0.004872,0.002865,0.056572,0.000364,  16.158
   521.8,0.004875,0.002861,0.056563,0.000400,  16.156
   522.0,0.004868,0.002863,0.056526,0.000378,  16.162
   522.2,0.004875,0.002863,0.056516,0.000378,  16.159
   522.4,0.004875,0.002866,0.056490,0.000413,  16.165
   522.6,0.004868,0.002861,0.056460,0.000391,  16.160
   522.8,0.004875,0.002868,0.056424,0.000391,  16.159
   523.0,0.004875,0.002865,0.056371,0.000413,  16.166
   523.2,0.004868,0.002867,0.056324,0.000391,  16.166
   523.4,0.004875,0.002865,0.056334,0.000391,  16.167
   523.6,0.004875,0.002862,0.056344,0.000413,  16.169
   523.8,0.004865,0.002857,0.056387,0.000391,  16.168
   524.0,0.004869,0.002859,0.056458,0.000378,  16.167
   524.2,0.004865,0.002857,0.056554,0.000400,  16.170
   524.4,0.004862,0.002853,0.056658,0.000378,  16.167
   524.6,0.004862,0.002853,0.056544,0.000364,  16.169
   524.8,0.004865,0.002854,0.056334,0.000400,  16.170
   525.0,0.004862,0.002849,0.056004,0.000378,  16.174
   525.2,0.004866,0.002850,0.056047,0.000378,  16.175
   525.4,0.004864,0.002854,0.056214,0.000413,  16.176
   525.6,0.004866,0.002852,0.056508,0.000391,  16.175
   525.8,0.004864,0.002848,0.056612,0.000391,  16.173
   526.0,0.004864,0.002843,0.056682,0.000413,  16.179
   526.2,0.004854,0.002839,0.056708,0.000391,  16.180
   526.4,0.004858,0.002840,0.056795,0.000391,  16.180
   526.6,0.004852,0.002835,0.056882,0.000413,  16.179
   526.8,0.004842,0.002828,0.056996,0.000391,  16.180
   527.0,0.004842,0.002827,0.057022,0.000391,  16.179
   527.2,0.004842,0.002826,0.057003,0.000413,  16.181
   527.4,0.004832,0.002825,0.056956,0.000391,  16.182
   527.6,0.004832,0.002826,0.056973,0.000391,  16.184
   527.8,0.004835,0.002828,0.056956,0.000413,  16.183
   528.0,0.004828,0.002824,0.056963,0.000413,  16.183
   528.2,0.004832,0.002823,0.056997,0.000427,  16.183
   528.4,0.004833,0.002820,0.057017,0.000427,  16.183
   528.6,0.004826,0.002816,0.057067,0.000413,  16.184
   528.8,0.004830,0.002819,0.057084,0.000427,  16.180
   529.0,0.004824,0.002817,0.057084,0.000413,  16.185
   529.2,0.004821,0.002817,0.057067,0.000400,  16.182
   529.4,0.004826,0.002818,0.057031,0.000378,  16.185
   529.6,0.004831,0.002818,0.056987,0.000400,  16.186
   529.8,0.004831,0.002814,0.056934,0.000423,  16.184
   530.0,0.004821,0.002809,0.056881,0.000400,  16.183
   530.2,0.004817,0.002812,0.056881,0.000400,  16.183
   530.4,0.004817,0.002811,0.056864,0.000387,  16.186
   530.6,0.004807,0.002805,0.056874,0.000364,  16.181
   530.8,0.004804,0.002805,0.056883,0.000364,  16.184
   531.0,0.004801,0.002808,0.056883,0.000387,  16.187
   531.2,0.004792,0.002801,0.056900,0.000364,  16.181
   531.4,0.004796,0.002805,0.056947,0.000364,  16.188
   531.6,0.004786,0.002795,0.057017,0.000387,  16.191
   531.8,0.004783,0.002792,0.057121,0.000364,  16.189
   532.0,0.004780,0.002786,0.057130,0.000364,  16.191
   532.2,0.004780,0.002777,0.057087,0.000387,  16.192
   532.4,0.004781,0.002773,0.057024,0.000364,  16.190
   532.6,0.004779,0.002774,0.057007,0.000351,  16.192
   532.8,0.004776,0.002775,0.057007,0.000374,  16.196
   533.0,0.004766,0.002771,0.057024,0.000338,  16.190
   533.2,0.004760,0.002772,0.057050,0.000338,  16.191
   533.4,0.004750,0.002769,0.057101,0.000360,  16.194
   533.6,0.004747,0.002769,0.057144,0.000325,  16.193
   533.8,0.004744,0.002763,0.056944,0.000325,  16.193
   534.0,0.004734,0.002757,0.056593,0.000347,  16.197
   534.2,0.004735,0.002756,0.056106,0.000311,  16.194
   534.4,0.004730,0.002757,0.056089,0.000311,  16.195
   534.6,0.004727,0.002757,0.056219,0.000347,  16.193
   534.8,0.004717,0.002747,0.056499,0.000311,  16.193
   535.0,0.004721,0.002744,0.056569,0.000311,  16.194
   535.2,0.004718,0.002742,0.056593,0.000347,  16.194
   535.4,0.004708,0.002732,0.056567,0.000311,  16.195
   535.6,0.004702,0.002730,0.056647,0.000311,  16.197
   535.8,0.004703,0.002728,0.056743,0.000347,  16.196
   536.0,0.004696,0.002729,0.056850,0.000311,  16.195
   536.2,0.004700,0.002737,0.056790,0.000311,  16.195
   536.4,0.004700,0.002740,0.056640,0.000347,  16.200
   536.6,0.004703,0.002740,0.056410,0.000347,  16.199
   536.8,0.004703,0.002744,0.056456,0.000360,  16.197
   537.0,0.004707,0.002744,0.056582,0.000347,  16.196
   537.2,0.004710,0.002739,0.056805,0.000360,  16.190
   537.4,0.004700,0.002733,0.056842,0.000360,  16.202
   537.6,0.004704,0.002732,0.056835,0.000374,  16.195
   537.8,0.004700,0.002733,0.056781,0.000360,  16.200
   538.0,0.004700,0.002739,0.056764,0.000325,  16.200
   538.2,0.004700,0.002741,0.056764,0.000338,  16.198
   538.4,0.004696,0.002741,0.056731,0.000360,  16.198
   538.6,0.004703,0.002747,0.056721,0.000338,  16.200
   538.8,0.004700,0.002747,0.056711,0.000338,  16.197
   539.0,0.004696,0.002742,0.056694,0.000374,  16.196
   539.2,0.004703,0.002743,0.056678,0.000351,  16.194
   539.4,0.004700,0.002743,0.056684,0.000338,  16.197
   539.6,0.004696,0.002740,0.056668,0.000374,  16.197
   539.8,0.004703,0.002745,0.056624,0.000351,  16.196
   540.0,0.004703,0.002742,0.056614,0.000338,  16.192
   540.2,0.004696,0.002739,0.056581,0.000374,  16.196
   540.4,0.004697,0.002737,0.056523,0.000351,  16.196
   540.6,0.004691,0.002737,0.056463,0.000338,  16.194
   540.8,0.004681,0.002732,0.056369,0.000374,  16.197
   541.0,0.004685,0.002736,0.056273,0.000351,  16.197
   541.2,0.004682,0.002737,0.056276,0.000338,  16.195
   541.4,0.004672,0.002737,0.056295,0.000374,  16.196
   541.6,0.004676,0.002737,0.056365,0.000351,  16.192
   541.8,0.004676,0.002741,0.056365,0.000351,  16.191
   542.0,0.004672,0.002746,0.056305,0.000387,  16.195
   542.2,0.004676,0.002738,0.056235,0.000364,  16.191
   542.4,0.004676,0.002735,0.056218,0.000364,  16.191
   542.6,0.004669,0.002733,0.056201,0.000387,  16.191
   542.8,0.004670,0.002730,0.056178,0.000364,  16.189
   543.0,0.004665,0.002729,0.056180,0.000364,  16.188
   543.2,0.004662,0.002729,0.056200,0.000387,  16.189
   543.4,0.004655,0.002729,0.056227,0.000364,  16.189
   543.6,0.004659,0.002733,0.056229,0.000364,  16.188
   543.8,0.004659,0.002733,0.056206,0.000387,  16.186
   544.0,0.004652,0.002730,0.056189,0.000364,  16.183
   544.2,0.004649,0.002725,0.056025,0.000364,  16.183
   544.4,0.004646,0.002722,0.055748,0.000387,  16.185
   544.6,0.004639,0.002724,0.055385,0.000364,  16.186
   544.8,0.004636,0.002725,0.055458,0.000364,  16.183
   545.0,0.004643,0.002722,0.055677,0.000387,  16.182
   545.2,0.004639,0.002724,0.056077,0.000387,  16.180
   545.4,0.004639,0.002723,0.056113,0.000400,  16.183
   545.6,0.004646,0.002725,0.056046,0.000400,  16.180
   545.8,0.004642,0.002726,0.055897,0.000400,  16.179
   546.0,0.004649,0.002726,0.055783,0.000413,  16.180
   546.2,0.004653,0.002724,0.055634,0.000400,  16.178
   546.4,0.004649,0.002726,0.055474,0.000400,  16.171
   546.6,0.004653,0.002726,0.055414,0.000378,  16.173
   546.8,0.004650,0.002724,0.055407,0.000364,  16.170
   547.0,0.004646,0.002729,0.055444,0.000400,  16.174
   547.2,0.004650,0.002731,0.055540,0.000378,  16.171
   547.4,0.004647,0.002726,0.055506,0.000364,  16.169
   547.6,0.004643,0.002729,0.055480,0.000400,  16.167
   547.8,0.004647,0.002728,0.055420,0.000378,  16.168
   548.0,0.004644,0.002722,0.055379,0.000364,  16.169
   548.2,0.004640,0.002728,0.055336,0.000400,  16.170
   548.4,0.004644,0.002728,0.055276,0.000378,  16.168
   548.6,0.004644,0.002728,0.055036,0.000364,  16.166
   548.8,0.004640,0.002728,0.054700,0.000400,  16.164
   549.0,0.004644,0.002728,0.054285,0.000378,  16.162
   549.2,0.004644,0.002725,0.054182,0.000364,  16.159
   549.4,0.004640,0.002720,0.054192,0.000387,  16.160
   549.6,0.004647,0.002725,0.054352,0.000364,  16.159
   549.8,0.004647,0.002721,0.054474,0.000364,  16.155
   550.0,0.004643,0.002722,0.054650,0.000387,  16.158
   550.2,0.004646,0.002724,0.054885,0.000364,  16.154
   550.4,0.004646,0.002728,0.054982,0.000364,  16.158
   550.6,0.004645,0.002727,0.055035,0.000400,  16.153
   550.8,0.004645,0.002730,0.055018,0.000378,  16.156
   551.0,0.004652,0.002736,0.055081,0.000378,  16.153
   551.2,0.004648,0.002735,0.055167,0.000413,  16.152
   551.4,0.004651,0.002735,0.055230,0.000391,  16.145
   551.6,0.004655,0.002743,0.055223,0.000391,  16.148
   551.8,0.004655,0.002743,0.055203,0.000413,  16.146
   552.0,0.004655,0.002746,0.055124,0.000391,  16.145
   552.2,0.004662,0.002754,0.055150,0.000391,  16.144
   552.4,0.004662,0.002757,0.055187,0.000413,  16.145
   552.6,0.004658,0.002755,0.055273,0.000391,  16.143
   552.8,0.004662,0.002755,0.055300,0.000391,  16.146
   553.0,0.004669,0.002758,0.055293,0.000413,  16.143
   553.2,0.004671,0.002759,0.055293,0.000391,  16.145
   553.4,0.004667,0.002759,0.055303,0.000391,  16.144
   553.6,0.004677,0.002758,0.055303,0.000413,  16.144
   553.8,0.004680,0.002753,0.055310,0.000413,  16.144
   554.0,0.004676,0.002763,0.055336,0.000427,  16.145
   554.2,0.004686,0.002768,0.055353,0.000427,  16.140
   554.4,0.004689,0.002767,0.055360,0.000413,  16.139
   554.6,0.004682,0.002769,0.055213,0.000427,  16.145
   554.8,0.004686,0.002769,0.054987,0.000427,  16.139
   555.0,0.004685,0.002765,0.054658,0.000413,  16.141
   555.2,0.004681,0.002760,0.054615,0.000391,  16.142
   555.4,0.004681,0.002757,0.054668,0.000391,  16.143
   555.6,0.004677,0.002763,0.054781,0.000413,  16.140
   555.8,0.004683,0.002770,0.055007,0.000391,  16.141
   556.0,0.004687,0.002770,0.055093,0.000391,  16.139
   556.2,0.004683,0.002772,0.055170,0.000413,  16.139
   556.4,0.004693,0.002782,0.055206,0.000391,  16.141
   556.6,0.004700,0.002784,0.055249,0.000391,  16.140
   556.8,0.004696,0.002784,0.055290,0.000413,  16.141
   557.0,0.004706,0.002784,0.055297,0.000391,  16.144
   557.2,0.004709,0.002781,0.055323,0.000391,  16.137
   557.4,0.004702,0.002783,0.055357,0.000427,  16.141
   557.6,0.004706,0.002783,0.055374,0.000404,  16.139
   557.8,0.004703,0.002787,0.055330,0.000404,  16.146
   558.0,0.004702,0.002784,0.055284,0.000440,  16.144
   558.2,0.004712,0.002784,0.055162,0.000417,  16.139
   558.4,0.004715,0.002782,0.055145,0.000417,  16.142
   558.6,0.004711,0.002782,0.055169,0.000440,  16.146
   558.8,0.004714,0.002784,0.055195,0.000404,  16.146
   559.0,0.004708,0.002790,0.055224,0.000404,  16.147
   559.2,0.004698,0.002788,0.055284,0.000440,  16.144
   559.4,0.004705,0.002786,0.055347,0.000404,  16.147
   559.6,0.004709,0.002784,0.055357,0.000404,  16.149
   559.8,0.004702,0.002784,0.055357,0.000440,  16.146
   560.0,0.004702,0.002784,0.055354,0.000404,  16.148
   560.2,0.004705,0.002786,0.055371,0.000404,  16.150
   560.4,0.004708,0.002791,0.055381,0.000440,  16.149
   560.6,0.004708,0.002791,0.055404,0.000404,  16.154
   560.8,0.004714,0.002789,0.055378,0.000404,  16.154
   561.0,0.004714,0.002794,0.055325,0.000440,  16.153
   561.2,0.004720,0.002798,0.055229,0.000404,  16.154
   561.4,0.004720,0.002795,0.055229,0.000404,  16.155
   561.6,0.004723,0.002790,0.055252,0.000440,  16.156
   561.8,0.004719,0.002789,0.055296,0.000391,  16.160
   562.0,0.004716,0.002786,0.055322,0.000391,  16.162
   562.2,0.004723,0.002784,0.055363,0.000427,  16.159
   562.4,0.004719,0.002787,0.055379,0.000413,  16.162
   562.6,0.004719,0.002789,0.055416,0.000413,  16.167
   562.8,0.004728,0.002789,0.055466,0.000413,  16.166
   563.0,0.004722,0.002793,0.055509,0.000427,  16.167
   563.2,0.004722,0.002795,0.055543,0.000427,  16.168
   563.4,0.004728,0.002798,0.055569,0.000427,  16.171
   563.6,0.004722,0.002795,0.055576,0.000427,  16.169
   563.8,0.004722,0.002797,0.055576,0.000391,  16.172
   564.0,0.004726,0.002802,0.055629,0.000391,  16.174
   564.2,0.004722,0.002795,0.055690,0.000391,  16.174
   564.4,0.004722,0.002794,0.055743,0.000355,  16.174
   564.6,0.004726,0.002794,0.055813,0.000391,  16.179
   564.8,0.004724,0.002796,0.055873,0.000391,  16.178
   565.0,0.004724,0.002793,0.055933,0.000355,  16.177
   565.2,0.004731,0.002795,0.055950,0.000391,  16.175
   565.4,0.004724,0.002792,0.055940,0.000391,  16.181
   565.6,0.004724,0.002795,0.055910,0.000355,  16.181
   565.8,0.004728,0.002797,0.055727,0.000391,  16.182
   566.0,0.004719,0.002796,0.055431,0.000391,  16.183
   566.2,0.004719,0.002793,0.055065,0.000355,  16.184
   566.4,0.004728,0.002798,0.055056,0.000391,  16.189
   566.6,0.004722,0.002800,0.055169,0.000391,  16.190
   566.8,0.004722,0.002795,0.055412,0.000355,  16.185
   567.0,0.004728,0.002798,0.055505,0.000391,  16.186
   567.2,0.004722,0.002793,0.055558,0.000391,  16.186
   567.4,0.004722,0.002793,0.055602,0.000355,  16.186
   567.6,0.004726,0.002793,0.055698,0.000391,  16.189
   567.8,0.004722,0.002791,0.055811,0.000391,  16.190
   568.0,0.004719,0.002786,0.055931,0.000355,  16.191
   568.2,0.004713,0.002787,0.056028,0.000391,  16.192
   568.4,0.004713,0.002782,0.056081,0.000378,  16.196
   568.6,0.004710,0.002775,0.056151,0.000355,  16.197
   568.8,0.004700,0.002781,0.056202,0.000378,  16.198
   569.0,0.004704,0.002781,0.056202,0.000400,  16.200
   569.2,0.004704,0.002777,0.056182,0.000378,  16.199
   569.4,0.004700,0.002780,0.056199,0.000364,  16.198
   569.6,0.004707,0.002779,0.056215,0.000400,  16.198
   569.8,0.004700,0.002777,0.056232,0.000378,  16.201
   570.0,0.004707,0.002773,0.056242,0.000364,  16.204
   570.2,0.004708,0.002766,0.056259,0.000400,  16.205
   570.4,0.004698,0.002766,0.056266,0.000378,  16.205
   570.6,0.004698,0.002767,0.056232,0.000378,  16.204
   570.8,0.004695,0.002760,0.056186,0.000413,  16.208
   571.0,0.004685,0.002761,0.056096,0.000413,  16.207
   571.2,0.004686,0.002768,0.056070,0.000427,  16.211
   571.4,0.004690,0.002765,0.056053,0.000413,  16.210
   571.6,0.004683,0.002760,0.056060,0.000400,  16.210
   571.8,0.004677,0.002763,0.056070,0.000413,  16.207
   572.0,0.004678,0.002760,0.056096,0.000400,  16.212
   572.2,0.004668,0.002756,0.056140,0.000400,  16.212
   572.4,0.004672,0.002751,0.056176,0.000378,  16.213
   572.6,0.004673,0.002751,0.055926,0.000364,  16.214
   572.8,0.004663,0.002742,0.055562,0.000400,  16.213
   573.0,0.004667,0.002742,0.055127,0.000378,  16.216
   573.2,0.004665,0.002739,0.055120,0.000364,  16.217
   573.4,0.004658,0.002731,0.055310,0.000400,  16.218
   573.6,0.004662,0.002731,0.055656,0.000378,  16.216
   573.8,0.004659,0.002729,0.055690,0.000364,  16.217
   574.0,0.004649,0.002726,0.055670,0.000400,  16.224
   574.2,0.004653,0.002731,0.055561,0.000378,  16.217
   574.4,0.004647,0.002729,0.055595,0.000364,  16.220
   574.6,0.004637,0.002727,0.055664,0.000387,  16.224
   574.8,0.004641,0.002725,0.055761,0.000364,  16.224
   575.0,0.004635,0.002728,0.055787,0.000351,  16.226
   575.2,0.004625,0.002718,0.055821,0.000374,  16.224
   575.4,0.004622,0.002716,0.055814,0.000338,  16.222
   575.6,0.004616,0.002710,0.055840,0.000325,  16.225
   575.8,0.004603,0.002700,0.055840,0.000347,  16.225
   576.0,0.004594,0.002700,0.055824,0.000311,  16.227
   576.2,0.004596,0.002698,0.055834,0.000311,  16.226
   576.4,0.004587,0.002693,0.055827,0.000334,  16.225
   576.6,0.004579,0.002682,0.055827,0.000298,  16.225
   576.8,0.004585,0.002681,0.055863,0.000311,  16.231
   577.0,0.004579,0.002671,0.055909,0.000334,  16.227
   577.2,0.004559,0.002662,0.055965,0.000298,  16.232
   577.4,0.004556,0.002656,0.055985,0.000311,  16.230
   577.6,0.004543,0.002649,0.055994,0.000334,  16.230
   577.8,0.004537,0.002648,0.055994,0.000298,  16.229
   578.0,0.004532,0.002647,0.055987,0.000311,  16.234
   578.2,0.004530,0.002645,0.055964,0.000334,  16.235
   578.4,0.004523,0.002641,0.055930,0.000298,  16.236
   578.6,0.004527,0.002634,0.055899,0.000311,  16.234
   578.8,0.004524,0.002634,0.055866,0.000334,  16.240
   579.0,0.004527,0.002633,0.055849,0.000298,  16.240
   579.2,0.004514,0.002630,0.055929,0.000311,  16.237
   579.4,0.004518,0.002627,0.056011,0.000334,  16.237
   579.6,0.004518,0.002622,0.056151,0.000347,  16.239
   579.8,0.004508,0.002625,0.056118,0.000347,  16.239
   580.0,0.004509,0.002623,0.056024,0.000360,  16.238
   580.2,0.004509,0.002624,0.055867,0.000347,  16.243
   580.4,0.004502,0.002622,0.055764,0.000347,  16.242
   580.6,0.004506,0.002622,0.055643,0.000347,  16.243
   580.8,0.004503,0.002622,0.055554,0.000347,  16.243
   581.0,0.004496,0.002624,0.055424,0.000311,  16.243
   581.2,0.004500,0.002624,0.055367,0.000311,  16.247
   581.4,0.004500,0.002619,0.055343,0.000347,  16.246
   581.6,0.004490,0.002619,0.055336,0.000311,  16.242
   581.8,0.004494,0.002622,0.055249,0.000311,  16.245
   582.0,0.004490,0.002623,0.055120,0.000347,  16.246
   582.2,0.004487,0.002626,0.054954,0.000311,  16.244
   582.4,0.004484,0.002623,0.054827,0.000311,  16.244
   582.6,0.004477,0.002623,0.054740,0.000347,  16.238
   582.8,0.004478,0.002615,0.054654,0.000311,  16.243
   583.0,0.004473,0.002610,0.054604,0.000311,  16.244
   583.2,0.004463,0.002604,0.054570,0.000347,  16.245
   583.4,0.004463,0.002604,0.054553,0.000311,  16.243
   583.6,0.004460,0.002602,0.054546,0.000311,  16.244
   583.8,0.004453,0.002602,0.054556,0.000347,  16.242
   584.0,0.004450,0.002597,0.054532,0.000311,  16.240
   584.2,0.004447,0.002598,0.054509,0.000311,  16.242
   584.4,0.004443,0.002595,0.054492,0.000347,  16.238
   584.6,0.004447,0.002599,0.054459,0.000311,  16.238
   584.8,0.004451,0.002602,0.054435,0.000311,  16.236
   585.0,0.004444,0.002602,0.054401,0.000347,  16.234
   585.2,0.004438,0.002597,0.054361,0.000311,  16.234
   585.4,0.004439,0.002593,0.054364,0.000311,  16.234
   585.6,0.004429,0.002589,0.054383,0.000347,  16.227
   585.8,0.004433,0.002586,0.054386,0.000311,  16.233
   586.0,0.004434,0.002588,0.054329,0.000311,  16.227
   586.2,0.004427,0.002585,0.054252,0.000347,  16.225
   586.4,0.004434,0.002582,0.054156,0.000311,  16.224
   586.6,0.004434,0.002588,0.054063,0.000311,  16.223
   586.8,0.004434,0.002588,0.053977,0.000347,  16.222
   587.0,0.004427,0.002588,0.053881,0.000311,  16.223
   587.2,0.004434,0.002588,0.053837,0.000325,  16.219
   587.4,0.004431,0.002588,0.053787,0.000360,  16.218
   587.6,0.004424,0.002586,0.053744,0.000325,  16.216
   587.8,0.004424,0.002585,0.053787,0.000338,  16.212
   588.0,0.004431,0.002585,0.053823,0.000360,  16.211
   588.2,0.004427,0.002588,0.053893,0.000360,  16.210
   588.4,0.004431,0.002599,0.053903,0.000360,  16.212
   588.6,0.004431,0.002596,0.053886,0.000374,  16.209
   588.8,0.004427,0.002598,0.053836,0.000374,  16.206
   589.0,0.004434,0.002604,0.053802,0.000387,  16.205
   589.2,0.004437,0.002605,0.053743,0.000387,  16.201
   589.4,0.004436,0.002610,0.053690,0.000387,  16.201
   589.6,0.004443,0.002609,0.053630,0.000364,  16.198
   589.8,0.004446,0.002609,0.053587,0.000364,  16.197
   590.0,0.004442,0.002619,0.053534,0.000387,  16.194
   590.2,0.004445,0.002624,0.053481,0.000364,  16.191
   590.4,0.004445,0.002619,0.053465,0.000364,  16.190
   590.6,0.004438,0.002624,0.053465,0.000387,  16.191
   590.8,0.004445,0.002624,0.053481,0.000364,  16.187
   591.0,0.004452,0.002621,0.053508,0.000364,  16.181
   591.2,0.004452,0.002626,0.053527,0.000400,  16.181
   591.4,0.004455,0.002626,0.053556,0.000378,  16.181
   591.6,0.004462,0.002629,0.053583,0.000364,  16.180
   591.8,0.004462,0.002631,0.053583,0.000400,  16.176
   592.0,0.004458,0.002636,0.053559,0.000378,  16.179
   592.2,0.004462,0.002636,0.053463,0.000378,  16.167
   592.4,0.004465,0.002638,0.053288,0.000413,  16.173
   592.6,0.004458,0.002633,0.053061,0.000391,  16.173
   592.8,0.004465,0.002631,0.053070,0.000391,  16.170
   593.0,0.004465,0.002630,0.053126,0.000413,  16.166
   593.2,0.004455,0.002635,0.053291,0.000391,  16.162
   593.4,0.004456,0.002632,0.053308,0.000391,  16.165
   593.6,0.004456,0.002627,0.053224,0.000413,  16.168
   593.8,0.004452,0.002630,0.053128,0.000391,  16.157
   594.0,0.004456,0.002626,0.053095,0.000391,  16.159
   594.2,0.004449,0.002624,0.053069,0.000413,  16.159
   594.4,0.004452,0.002624,0.053042,0.000391,  16.153
   594.6,0.004452,0.002629,0.053071,0.000391,  16.157
   594.8,0.004445,0.002627,0.053141,0.000413,  16.153
   595.0,0.004452,0.002622,0.053220,0.000391,  16.154
   595.2,0.004452,0.002627,0.053249,0.000391,  16.152
   595.4,0.004445,0.002629,0.053259,0.000413,  16.154
   595.6,0.004452,0.002622,0.053218,0.000391,  16.154
   595.8,0.004452,0.002622,0.053218,0.000391,  16.150
   596.0,0.004452,0.002622,0.053185,0.000413,  16.152
   596.2,0.004448,0.002623,0.053142,0.000391,  16.148
   596.4,0.004452,0.002626,0.053089,0.000391,  16.149
   596.6,0.004452,0.002626,0.053003,0.000413,  16.147
   596.8,0.004448,0.002626,0.052884,0.000391,  16.145
   597.0,0.004448,0.002623,0.052705,0.000391,  16.145
   597.2,0.004448,0.002620,0.052516,0.000413,  16.141
   597.4,0.004441,0.002617,0.052268,0.000413,  16.145
   597.6,0.004441,0.002614,0.052288,0.000427,  16.146
   597.8,0.004442,0.002612,0.052443,0.000427,  16.144
   598.0,0.004435,0.002612,0.052687,0.000413,  16.145
   598.2,0.004442,0.002614,0.052577,0.000427,  16.141
   598.4,0.004446,0.002611,0.052326,0.000427,  16.142
   598.6,0.004439,0.002611,0.051947,0.000413,  16.143
   598.8,0.004446,0.002611,0.051897,0.000391,  16.140
   599.0,0.004446,0.002608,0.051976,0.000391,  16.141
   599.2,0.004439,0.002610,0.052148,0.000413,  16.141
   599.4,0.004446,0.002613,0.052431,0.000391,  16.137
   599.6,0.004446,0.002606,0.052517,0.000391,  16.141
   599.8,0.004439,0.002609,0.052570,0.000413,  16.141
   600.0,0.004446,0.002609,0.052580,0.000391,  16.139
   600.2,0.004446,0.002605,0.052596,0.000391,  16.142
   600.4,0.004443,0.002606,0.052587,0.000413,  16.140
   600.6,0.004450,0.002615,0.052534,0.000391,  16.143
   600.8,0.004454,0.002614,0.052346,0.000391,  16.144
   601.0,0.004457,0.002608,0.052062,0.000427,  16.142
   601.2,0.004460,0.002612,0.051709,0.000391,  16.141
   601.4,0.004466,0.002612,0.051726,0.000391,  16.141
   601.6,0.004472,0.002616,0.051881,0.000427,  16.144
   601.8,0.004468,0.002613,0.052164,0.000391,  16.140
   602.0,0.004471,0.002623,0.051650,0.000391,  16.141
   602.2,0.004477,0.002623,0.050794,0.000427,  16.141
   602.4,0.004473,0.002627,0.049599,0.000391,  16.143
   602.6,0.004482,0.002637,0.049659,0.000391,  16.138
   602.8,0.004488,0.002636,0.050134,0.000427,  16.143
   603.0,0.004484,0.002639,0.051055,0.000391,  16.149
   603.2,0.004491,0.002644,0.051440,0.000391,  16.145
   603.4,0.004494,0.002648,0.051766,0.000427,  16.144
   603.6,0.004490,0.002651,0.052016,0.000391,  16.141
   603.8,0.004500,0.002655,0.052204,0.000391,  16.145
   604.0,0.004503,0.002658,0.052331,0.000427,  16.147
   604.2,0.004506,0.002654,0.052371,0.000391,  16.146
   604.4,0.004503,0.002654,0.052552,0.000391,  16.145
   604.6,0.004500,0.002649,0.052770,0.000427,  16.149
   604.8,0.004496,0.002647,0.052995,0.000391,  16.154
   605.0,0.004500,0.002650,0.053097,0.000391,  16.154
   605.2,0.004497,0.002650,0.053140,0.000427,  16.152
   605.4,0.004500,0.002645,0.053121,0.000391,  16.153
   605.6,0.004493,0.002645,0.053138,0.000391,  16.154
   605.8,0.004500,0.002651,0.053138,0.000427,  16.157
   606.0,0.004503,0.002653,0.053128,0.000427,  16.158
   606.2,0.004496,0.002656,0.052877,0.000427,  16.157
   606.4,0.004503,0.002661,0.052530,0.000427,  16.154
   606.6,0.004503,0.002662,0.052046,0.000427,  16.162
   606.8,0.004496,0.002664,0.052020,0.000427,  16.166
   607.0,0.004503,0.002658,0.052172,0.000427,  16.159
   607.2,0.004503,0.002655,0.052482,0.000427,  16.162
   607.4,0.004496,0.002657,0.052611,0.000391,  16.165
   607.6,0.004503,0.002655,0.052733,0.000391,  16.167
   607.8,0.004500,0.002653,0.052852,0.000427,  16.163
   608.0,0.004504,0.002660,0.052964,0.000404,  16.166
   608.2,0.004509,0.002660,0.053077,0.000404,  16.165
   608.4,0.004512,0.002657,0.053173,0.000440,  16.167
   608.6,0.004508,0.002664,0.053275,0.000404,  16.170
   608.8,0.004511,0.002664,0.053325,0.000404,  16.169
   609.0,0.004514,0.002662,0.053359,0.000427,  16.174
   609.2,0.004504,0.002660,0.053349,0.000378,  16.175
   609.4,0.004508,0.002655,0.053402,0.000378,  16.175
   609.6,0.004508,0.002650,0.053462,0.000427,  16.178
   609.8,0.004501,0.002644,0.053528,0.000391,  16.178
   610.0,0.004495,0.002640,0.053588,0.000391,  16.175
   610.2,0.004495,0.002643,0.053608,0.000427,  16.181
   610.4,0.004495,0.002644,0.053648,0.000391,  16.177
   610.6,0.004499,0.002648,0.053708,0.000391,  16.182
   610.8,0.004499,0.002648,0.053761,0.000413,  16.183
   611.0,0.004492,0.002648,0.053797,0.000391,  16.185
   611.2,0.004496,0.002645,0.053813,0.000391,  16.183
   611.4,0.004493,0.002642,0.053804,0.000413,  16.185
   611.6,0.004486,0.002637,0.053744,0.000391,  16.187
   611.8,0.004483,0.002639,0.053684,0.000391,  16.189
   612.0,0.004481,0.002634,0.053602,0.000413,  16.189
   612.2,0.004471,0.002625,0.053470,0.000391,  16.190
   612.4,0.004471,0.002630,0.053480,0.000391,  16.192
   612.6,0.004471,0.002633,0.053540,0.000413,  16.193
   612.8,0.004461,0.002622,0.053652,0.000391,  16.193
   613.0,0.004462,0.002625,0.053695,0.000378,  16.193
   613.2,0.004459,0.002622,0.053698,0.000400,  16.194
   613.4,0.004459,0.002616,0.053715,0.000378,  16.198
   613.6,0.004456,0.002619,0.053715,0.000364,  16.195
   613.8,0.004453,0.002617,0.053708,0.000400,  16.199
   614.0,0.004443,0.002609,0.053681,0.000378,  16.197
   614.2,0.004447,0.002607,0.053353,0.000364,  16.200
   614.4,0.004441,0.002605,0.052844,0.000387,  16.203
   614.6,0.004438,0.002606,0.052188,0.000364,  16.204
   614.8,0.004438,0.002602,0.052283,0.000364,  16.204
   615.0,0.004442,0.002602,0.052689,0.000387,  16.205
   615.2,0.004442,0.002594,0.053363,0.000387,  16.205
   615.4,0.004442,0.002592,0.053562,0.000387,  16.205
   615.6,0.004436,0.002589,0.053641,0.000400,  16.206
   615.8,0.004433,0.002579,0.053631,0.000387,  16.210
   616.0,0.004423,0.002574,0.053665,0.000400,  16.206
   616.2,0.004414,0.002570,0.053648,0.000400,  16.212
   616.4,0.004405,0.002565,0.053622,0.000387,  16.212
   616.6,0.004402,0.002566,0.053542,0.000364,  16.214
   616.8,0.004399,0.002564,0.053542,0.000351,  16.216
   617.0,0.004389,0.002565,0.053533,0.000374,  16.218
   617.2,0.004393,0.002568,0.053516,0.000351,  16.216
   617.4,0.004387,0.002563,0.053562,0.000338,  16.218
   617.6,0.004377,0.002568,0.053631,0.000374,  16.216
   617.8,0.004381,0.002563,0.053734,0.000338,  16.218
   618.0,0.004375,0.002556,0.053495,0.000338,  16.218
   618.2,0.004365,0.002559,0.053131,0.000360,  16.218
   618.4,0.004366,0.002559,0.052596,0.000325,  16.221
   618.6,0.004357,0.002559,0.052536,0.000325,  16.222
   618.8,0.004351,0.002550,0.052646,0.000347,  16.226
   619.0,0.004343,0.002554,0.052894,0.000311,  16.224
   619.2,0.004344,0.002545,0.053083,0.000311,  16.224
   619.4,0.004338,0.002538,0.053308,0.000347,  16.225
   619.6,0.004332,0.002536,0.053559,0.000311,  16.223
   619.8,0.004333,0.002534,0.053636,0.000311,  16.226
   620.0,0.004333,0.002535,0.053626,0.000347,  16.228
   620.2,0.004333,0.002530,0.053506,0.000311,  16.228
   620.4,0.004330,0.002528,0.053526,0.000311,  16.228
   620.6,0.004330,0.002528,0.053578,0.000347,  16.227
   620.8,0.004326,0.002530,0.053615,0.000311,  16.231
   621.0,0.004323,0.002527,0.053419,0.000325,  16.228
   621.2,0.004323,0.002527,0.053134,0.000360,  16.229
   621.4,0.004319,0.002523,0.052711,0.000325,  16.234
   621.6,0.004323,0.002526,0.052661,0.000338,  16.231
   621.8,0.004323,0.002528,0.052756,0.000360,  16.231
   622.0,0.004319,0.002520,0.052948,0.000325,  16.231
   622.2,0.004320,0.002523,0.052981,0.000338,  16.227
   622.4,0.004310,0.002520,0.052964,0.000360,  16.227
   622.6,0.004303,0.002518,0.052905,0.000338,  16.232
   622.8,0.004303,0.002518,0.052948,0.000338,  16.232
   623.0,0.004310,0.002518,0.053010,0.000374,  16.230
   623.2,0.004310,0.002524,0.053092,0.000374,  16.231
   623.4,0.004310,0.002530,0.053154,0.000374,  16.236
   623.6,0.004314,0.002534,0.053207,0.000374,  16.236
   623.8,0.004317,0.002531,0.053260,0.000374,  16.230
   624.0,0.004310,0.002535,0.053246,0.000387,  16.231
   624.2,0.004314,0.002539,0.053226,0.000387,  16.229
   624.4,0.004317,0.002534,0.053124,0.000387,  16.230
   624.6,0.004310,0.002539,0.053064,0.000364,  16.227
   624.8,0.004314,0.002539,0.053028,0.000364,  16.233
   625.0,0.004317,0.002535,0.052959,0.000387,  16.224
   625.2,0.004307,0.002535,0.052896,0.000364,  16.228
   625.4,0.004311,0.002535,0.052896,0.000364,  16.227
   625.6,0.004307,0.002535,0.052906,0.000387,  16.226
   625.8,0.004304,0.002535,0.052909,0.000364,  16.226
   626.0,0.004301,0.002535,0.052945,0.000364,  16.222
   626.2,0.004294,0.002530,0.052964,0.000387,  16.223
   626.4,0.004301,0.002530,0.053017,0.000364,  16.218
   626.6,0.004295,0.002530,0.053019,0.000364,  16.220
   626.8,0.004288,0.002527,0.053003,0.000400,  16.222
   627.0,0.004292,0.002522,0.052976,0.000378,  16.219
   627.2,0.004287,0.002524,0.052867,0.000364,  16.217
   627.4,0.004284,0.002519,0.052735,0.000400,  16.216
   627.6,0.004281,0.002524,0.052553,0.000378,  16.215
   627.8,0.004285,0.002527,0.052513,0.000364,  16.216
   628.0,0.004285,0.002526,0.052549,0.000400,  16.212
   628.2,0.004275,0.002527,0.052645,0.000378,  16.211
   628.4,0.004285,0.002524,0.052654,0.000364,  16.213
   628.6,0.004288,0.002526,0.052621,0.000400,  16.210
   628.8,0.004282,0.002526,0.052568,0.000378,  16.213
   629.0,0.004286,0.002526,0.052499,0.000378,  16.212
   629.2,0.004286,0.002528,0.052387,0.000413,  16.210
   629.4,0.004286,0.002531,0.052248,0.000391,  16.204
   629.6,0.004283,0.002531,0.052222,0.000378,  16.208
   629.8,0.004283,0.002529,0.052199,0.000400,  16.207
   630.0,0.004283,0.002531,0.052218,0.000378,  16.200
   630.2,0.004280,0.002533,0.052192,0.000364,  16.204
   630.4,0.004277,0.002525,0.052132,0.000400,  16.201
   630.6,0.004270,0.002527,0.052039,0.000378,  16.201
   630.8,0.004267,0.002530,0.052023,0.000364,  16.201
   631.0,0.004274,0.002529,0.052023,0.000400,  16.199
   631.2,0.004267,0.002526,0.052032,0.000378,  16.195
   631.4,0.004264,0.002526,0.051682,0.000364,  16.196
   631.6,0.004264,0.002523,0.051178,0.000400,  16.194
   631.8,0.004254,0.002521,0.050501,0.000378,  16.192
   632.0,0.004254,0.002514,0.050458,0.000378,  16.188
   632.2,0.004254,0.002511,0.050615,0.000378,  16.186
   632.4,0.004250,0.002510,0.051002,0.000378,  16.189
   632.6,0.004254,0.002508,0.051140,0.000355,  16.185
   632.8,0.004248,0.002508,0.051245,0.000378,  16.186
   633.0,0.004244,0.002505,0.051317,0.000364,  16.185
   633.2,0.004248,0.002509,0.051353,0.000378,  16.183
   633.4,0.004245,0.002504,0.051369,0.000329,  16.179
   633.6,0.004238,0.002504,0.051319,0.000364,  16.178
   633.8,0.004242,0.002502,0.051250,0.000342,  16.180
   634.0,0.004239,0.002501,0.051296,0.000364,  16.178
   634.2,0.004232,0.002502,0.051374,0.000364,  16.178
   634.4,0.004236,0.002501,0.051472,0.000342,  16.174
   634.6,0.004233,0.002506,0.051446,0.000364,  16.174
   634.8,0.004227,0.002504,0.051334,0.000364,  16.174
   635.0,0.004238,0.002499,0.051160,0.000342,  16.169
   635.2,0.004243,0.002501,0.051101,0.000378,  16.164
   635.4,0.004241,0.002501,0.051058,0.000378,  16.166
   635.6,0.004237,0.002501,0.051015,0.000355,  16.165
   635.8,0.004237,0.002498,0.051008,0.000391,  16.163
   636.0,0.004237,0.002498,0.051044,0.000378,  16.160
   636.2,0.004233,0.002497,0.051106,0.000355,  16.162
   636.4,0.004230,0.002496,0.051125,0.000391,  16.158
   636.6,0.004233,0.002496,0.051128,0.000413,  16.157
   636.8,0.004229,0.002494,0.051147,0.000391,  16.154
   637.0,0.004229,0.002492,0.051183,0.000391,  16.157
   637.2,0.004231,0.002490,0.051186,0.000413,  16.154
   637.4,0.004225,0.002492,0.051195,0.000391,  16.149
   637.6,0.004231,0.002493,0.051024,0.000378,  16.155
   637.8,0.004234,0.002493,0.050758,0.000400,  16.149
   638.0,0.004227,0.002493,0.050380,0.000378,  16.149
   638.2,0.004234,0.002493,0.050347,0.000364,  16.146
   638.4,0.004233,0.002493,0.050409,0.000400,  16.149
   638.6,0.004236,0.002491,0.050613,0.000378,  16.150
   638.8,0.004239,0.002496,0.050727,0.000378,  16.143
   639.0,0.004242,0.002493,0.050858,0.000413,  16.144
   639.2,0.004235,0.002498,0.051022,0.000391,  16.142
   639.4,0.004245,0.002502,0.051075,0.000391,  16.146
   639.6,0.004242,0.002505,0.051068,0.000413,  16.142
   639.8,0.004238,0.002505,0.051032,0.000391,  16.139
   640.0,0.004235,0.002510,0.050894,0.000391,  16.140
   640.2,0.004242,0.002512,0.050654,0.000413,  16.138
   640.4,0.004238,0.002507,0.050336,0.000391,  16.140
   640.6,0.004245,0.002510,0.050379,0.000391,  16.141
   640.8,0.004245,0.002512,0.050542,0.000427,  16.140
   641.0,0.004248,0.002514,0.050844,0.000427,  16.135
   641.2,0.004248,0.002524,0.050460,0.000427,  16.142
   641.4,0.004258,0.002530,0.049774,0.000427,  16.139
   641.6,0.004264,0.002536,0.048802,0.000427,  16.139
   641.8,0.004260,0.002543,0.048802,0.000427,  16.137
   642.0,0.004273,0.002547,0.049116,0.000391,  16.137
   642.2,0.004279,0.002548,0.049772,0.000391,  16.140
   642.4,0.004272,0.002547,0.050020,0.000355,  16.137
   642.6,0.004279,0.002543,0.050234,0.000391,  16.133
   642.8,0.004275,0.002545,0.050414,0.000391,  16.141
   643.0,0.004275,0.002547,0.050535,0.000355,  16.139
   643.2,0.004278,0.002546,0.050657,0.000391,  16.142
   643.4,0.004274,0.002541,0.050775,0.000391,  16.142
   643.6,0.004278,0.002544,0.050868,0.000355,  16.140
   643.8,0.004278,0.002546,0.050920,0.000391,  16.139
   644.0,0.004274,0.002544,0.050920,0.000391,  16.134
   644.2,0.004281,0.002546,0.050918,0.000368,  16.136
   644.4,0.004281,0.002548,0.050944,0.000404,  16.143
   644.6,0.004277,0.002542,0.050960,0.000404,  16.142
   644.8,0.004284,0.002535,0.050984,0.000382,  16.140
   645.0,0.004281,0.002530,0.050994,0.000417,  16.144
   645.2,0.004277,0.002527,0.050984,0.000404,  16.144
   645.4,0.004281,0.002529,0.050991,0.000368,  16.144
   645.6,0.004278,0.002537,0.050494,0.000404,  16.145
   645.8,0.004274,0.002529,0.049726,0.000404,  16.146
   646.0,0.004278,0.002530,0.048712,0.000355,  16.144
   646.2,0.004275,0.002533,0.048670,0.000391,  16.150
   646.4,0.004271,0.002533,0.048974,0.000391,  16.145
   646.6,0.004281,0.002529,0.049619,0.000342,  16.148
   646.8,0.004281,0.002539,0.049927,0.000378,  16.152
   647.0,0.004277,0.002536,0.050236,0.000391,  16.151
   647.2,0.004277,0.002533,0.050528,0.000355,  16.152
   647.4,0.004274,0.002536,0.050741,0.000391,  16.152
   647.6,0.004270,0.002533,0.050872,0.000391,  16.152
   647.8,0.004274,0.002531,0.050948,0.000355,  16.152
   648.0,0.004278,0.002531,0.051008,0.000391,  16.157
   648.2,0.004281,0.002531,0.051024,0.000391,  16.156
   648.4,0.004277,0.002535,0.050962,0.000355,  16.152
   648.6,0.004284,0.002542,0.051048,0.000391,  16.157
   648.8,0.004287,0.002542,0.051186,0.000391,  16.156
   649.0,0.004280,0.002545,0.051357,0.000355,  16.158
   649.2,0.004277,0.002546,0.051407,0.000391,  16.159
   649.4,0.004281,0.002544,0.051414,0.000427,  16.160
   649.6,0.004278,0.002544,0.051361,0.000391,  16.161
   649.8,0.004275,0.002542,0.051421,0.000391,  16.162
   650.0,0.004276,0.002539,0.051516,0.000427,  16.162
   650.2,0.004276,0.002538,0.051614,0.000427,  16.165
   650.4,0.004269,0.002531,0.051667,0.000391,  16.164
   650.6,0.004273,0.002525,0.051683,0.000427,  16.163
   650.8,0.004270,0.002526,0.051693,0.000391,  16.161
   651.0,0.004260,0.002524,0.051650,0.000391,  16.164
   651.2,0.004264,0.002517,0.051598,0.000391,  16.166
   651.4,0.004261,0.002515,0.051519,0.000413,  16.164
   651.6,0.004251,0.002518,0.051430,0.000391,  16.164
   651.8,0.004258,0.002513,0.051430,0.000391,  16.169
   652.0,0.004261,0.002509,0.051440,0.000413,  16.171
   652.2,0.004248,0.002512,0.051493,0.000391,  16.169
   652.4,0.004252,0.002512,0.051545,0.000391,  16.172
   652.6,0.004252,0.002509,0.051588,0.000413,  16.173
   652.8,0.004242,0.002514,0.051640,0.000391,  16.177
   653.0,0.004246,0.002517,0.051614,0.000378,  16.175
   653.2,0.004239,0.002516,0.051545,0.000400,  16.177
   653.4,0.004242,0.002515,0.051447,0.000378,  16.183
   653.6,0.004242,0.002513,0.051428,0.000364,  16.183
   653.8,0.004235,0.002505,0.051395,0.000400,  16.185
   654.0,0.004242,0.002504,0.051385,0.000378,  16.184
   654.2,0.004239,0.002500,0.051411,0.000364,  16.185
   654.4,0.004239,0.002492,0.051444,0.000400,  16.189
   654.6,0.004236,0.002495,0.051487,0.000378,  16.193
   654.8,0.004240,0.002498,0.051487,0.000364,  16.191
   655.0,0.004237,0.002496,0.051478,0.000400,  16.196
   655.2,0.004230,0.002491,0.051442,0.000378,  16.193
   655.4,0.004234,0.002494,0.051442,0.000364,  16.195
   655.6,0.004234,0.002492,0.051449,0.000400,  16.197
   655.8,0.004225,0.002490,0.051449,0.000378,  16.194
   656.0,0.004229,0.002490,0.051494,0.000364,  16.199
   656.2,0.004226,0.002490,0.051556,0.000400,  16.203
   656.4,0.004223,0.002483,0.051619,0.000378,  16.201
   656.6,0.004223,0.002481,0.051595,0.000364,  16.203
   656.8,0.004217,0.002475,0.051542,0.000364,  16.201
   657.0,0.004207,0.002475,0.051437,0.000342,  16.205
   657.2,0.004208,0.002471,0.051447,0.000364,  16.205
   657.4,0.004205,0.002469,0.051483,0.000364,  16.207
   657.6,0.004202,0.002469,0.051569,0.000342,  16.207
   657.8,0.004196,0.002465,0.051595,0.000364,  16.210
   658.0,0.004200,0.002462,0.051602,0.000364,  16.211
   658.2,0.004193,0.002461,0.051576,0.000364,  16.213
   658.4,0.004193,0.002459,0.051566,0.000364,  16.216
   658.6,0.004183,0.002457,0.051497,0.000364,  16.216
   658.8,0.004173,0.002455,0.051418,0.000351,  16.220
   659.0,0.004177,0.002452,0.051409,0.000364,  16.217
   659.2,0.004168,0.002445,0.051435,0.000315,  16.215
   659.4,0.004166,0.002451,0.051461,0.000338,  16.221
   659.6,0.004160,0.002446,0.051507,0.000302,  16.219
   659.8,0.004161,0.002442,0.051507,0.000338,  16.224
   660.0,0.004158,0.002442,0.051514,0.000325,  16.220
   660.2,0.004148,0.002436,0.051504,0.000289,  16.222
   660.4,0.004149,0.002429,0.051494,0.000325,  16.221
   660.6,0.004146,0.002427,0.051478,0.000311,  16.224
   660.8,0.004136,0.002426,0.051435,0.000276,  16.229
   661.0,0.004137,0.002420,0.051478,0.000311,  16.223
   661.2,0.004134,0.002418,0.051530,0.000311,  16.224
   661.4,0.004124,0.002417,0.051616,0.000276,  16.226
   661.6,0.004122,0.002412,0.051635,0.000311,  16.225
   661.8,0.004116,0.002412,0.051668,0.000298,  16.227
   662.0,0.004104,0.002407,0.051659,0.000262,  16.222
   662.2,0.004105,0.002408,0.051626,0.000311,  16.222
   662.4,0.004102,0.002403,0.051599,0.000298,  16.224
   662.6,0.004095,0.002401,0.051530,0.000262,  16.232
   662.8,0.004102,0.002404,0.051487,0.000311,  16.220
   663.0,0.004105,0.002404,0.051461,0.000311,  16.222
   663.2,0.004098,0.002399,0.051409,0.000276,  16.225
   663.4,0.004102,0.002404,0.051340,0.000325,  16.222
   663.6,0.004102,0.002404,0.051244,0.000325,  16.222
   663.8,0.004099,0.002402,0.051109,0.000289,  16.221
   664.0,0.004104,0.002400,0.051066,0.000338,  16.219
   664.2,0.004104,0.002398,0.051033,0.000360,  16.218
   664.4,0.004097,0.002396,0.051026,0.000325,  16.219
   664.6,0.004098,0.002396,0.051002,0.000338,  16.216
   664.8,0.004095,0.002394,0.050962,0.000360,  16.218
   665.0,0.004088,0.002389,0.050939,0.000325,  16.219
   665.2,0.004092,0.002391,0.050915,0.000338,  16.217
   665.4,0.004089,0.002391,0.050891,0.000360,  16.218
   665.6,0.004082,0.002392,0.050865,0.000325,  16.214
   665.8,0.004082,0.002392,0.050858,0.000374,  16.215
   666.0,0.004082,0.002395,0.050851,0.000396,  16.216
   666.2,0.004075,0.002392,0.050851,0.000374,  16.215
   666.4,0.004072,0.002396,0.050913,0.000374,  16.218
   666.6,0.004069,0.002396,0.050975,0.000374,  16.213
   666.8,0.004069,0.002389,0.051070,0.000338,  16.215
   667.0,0.004059,0.002387,0.051047,0.000374,  16.214
   667.2,0.004057,0.002386,0.050954,0.000338,  16.211
   667.4,0.004054,0.002381,0.050826,0.000374,  16.211
   667.6,0.004047,0.002378,0.050767,0.000387,  16.213
   667.8,0.004051,0.002375,0.050707,0.000374,  16.211
   668.0,0.004049,0.002375,0.050648,0.000374,  16.210
