Run Name,Run 5
Run Date,07:38:47 PM   03-06-15
Method Name,12% C
Export Format Version, 1.00
Method ID, 2241
Points/Second, 5.00
Number of Records,   3077
Offset from Run Start Time,00:00:00
Run End Time,00:10:18
Time,Second
QuadTec 1, (280.0 nm), AU
QuadTec 2, (260.0 nm), AU
Gradient Pump,<Not Selected>
QuadTec 3, (214.0 nm), AU
QuadTec 4, (405.0 nm), AU
Conductivity,mS/cm
Trace 6,<Not Available>
GP Pressure,<Not Selected>
Volume,<Not Selected>
Fraction,<Not Available>
Time,QuadTec 1,QuadTec 2,QuadTec 3,QuadTec 4,Conductivity
     0.0,0.001356,0.000000,0.014077,0.000771,  40.301
     0.2,0.001359,0.000000,0.014107,0.000749,  40.301
     0.4,0.001349,0.000000,0.014123,0.000771,  40.302
     0.6,0.001356,0.000000,0.014137,0.000771,  40.293
     0.8,0.001359,0.000000,0.014191,0.000749,  40.297
     1.0,0.001356,0.000000,0.014246,0.000771,  40.296
     1.2,0.001379,0.000000,0.014324,0.000771,  40.291
     1.4,0.001418,0.000000,0.014135,0.000749,  40.285
     1.6,0.001503,0.000000,0.013830,0.000771,  40.268
     1.8,0.001485,0.000000,0.014216,0.000771,  40.260
     2.0,0.000000,0.000000,0.014216,0.000758,  40.202
     2.2,0.000000,0.000000,0.014216,0.000803,  40.153
     2.4,0.000000,0.000000,0.014216,0.000000,  40.077
     2.6,0.000000,0.000000,0.000000,0.000000,  40.044
     2.8,0.000000,0.000000,0.000000,0.000000,  40.025
     3.0,0.000000,0.000000,0.000000,0.000000,  40.001
     3.2,0.000000,0.000000,0.000000,0.000000,  39.996
     3.4,0.000000,0.000000,0.000000,0.000000,  39.988
     3.6,0.000000,0.000000,0.000000,0.000000,  39.983
     3.8,0.000000,0.000000,0.000000,0.000000,  39.976
     4.0,0.000000,0.000086,0.000000,0.000000,  39.974
     4.2,0.000000,0.000094,0.000000,0.000000,  39.976
     4.4,0.000000,0.000097,0.000000,0.000000,  39.972
     4.6,0.000000,0.000108,0.000000,0.000000,  39.972
     4.8,0.000000,0.000121,0.000000,0.000000,  39.974
     5.0,0.000014,0.000136,0.000000,0.000000,  39.972
     5.2,0.000024,0.000158,0.000000,0.000000,  39.974
     5.4,0.000042,0.000176,0.000000,0.000000,  39.973
     5.6,0.000056,0.000191,0.000000,0.000000,  39.969
     5.8,0.000068,0.000209,-0.000317,0.000000,  39.972
     6.0,0.000081,0.000232,-0.000416,0.000000,  39.964
     6.2,0.000091,0.000249,-0.000478,0.000044,  39.954
     6.4,0.000112,0.000272,-0.000539,0.000008,  39.956
     6.6,0.000135,0.000299,-0.000562,0.000070,  39.951
     6.8,0.000155,0.000321,-0.000584,0.000070,  39.953
     7.0,0.000188,0.000338,-0.000584,0.000061,  39.954
     7.2,0.000217,0.000354,-0.000592,0.000074,  39.954
     7.4,0.000237,0.000363,-0.000607,0.000087,  39.953
     7.6,0.000264,0.000380,-0.000630,0.000078,  39.957
     7.8,0.000285,0.000385,-0.000653,0.000105,  39.954
     8.0,0.000295,0.000389,-0.000706,0.000118,  39.957
     8.2,0.000310,0.000394,-0.000759,0.000109,  39.955
     8.4,0.000312,0.000399,-0.000766,0.000122,  39.958
     8.6,0.000316,0.000402,-0.000766,0.000184,  39.952
     8.8,0.000329,0.000402,-0.000744,0.000175,  39.963
     9.0,0.000339,0.000402,-0.000713,0.000188,  39.962
     9.2,0.000344,0.000399,-0.000682,0.000224,  39.959
     9.4,0.000360,0.000394,-0.000629,0.000201,  39.958
     9.6,0.000372,0.000386,-0.000636,0.000201,  39.961
     9.8,0.000375,0.000383,-0.000696,0.000201,  39.963
    10.0,0.000375,0.000383,-0.000787,0.000179,  39.966
    10.2,0.000372,0.000386,-0.000863,0.000201,  39.960
    10.4,0.000367,0.000379,-0.000969,0.000201,  39.960
    10.6,0.000367,0.000380,-0.001098,0.000179,  39.965
    10.8,0.000361,0.000376,-0.001166,0.000166,  39.968
    11.0,0.000358,0.000368,-0.001210,0.000152,  39.966
    11.2,0.000348,0.000366,-0.001232,0.000130,  39.963
    11.4,0.000345,0.000362,-0.001239,0.000166,  39.963
    11.6,0.000339,0.000359,-0.001238,0.000188,  39.959
    11.8,0.000329,0.000363,-0.001222,0.000166,  39.966
    12.0,0.000326,0.000371,-0.001259,0.000201,  39.963
    12.2,0.000327,0.000363,-0.001335,0.000188,  39.962
    12.4,0.000317,0.000362,-0.001441,0.000166,  39.966
    12.6,0.000315,0.000355,-0.001447,0.000201,  39.966
    12.8,0.000316,0.000351,-0.001416,0.000188,  39.963
    13.0,0.000309,0.000344,-0.001354,0.000166,  39.968
    13.2,0.000303,0.000343,-0.001384,0.000201,  39.968
    13.4,0.000310,0.000339,-0.001475,0.000188,  39.969
    13.6,0.000303,0.000340,-0.001597,0.000211,  39.966
    13.8,0.000297,0.000334,-0.001634,0.000211,  39.964
    14.0,0.000298,0.000341,-0.001671,0.000197,  39.966
    14.2,0.000288,0.000333,-0.001678,0.000233,  39.964
    14.4,0.000288,0.000332,-0.001670,0.000197,  39.965
    14.6,0.000292,0.000333,-0.001723,0.000184,  39.960
    14.8,0.000285,0.000333,-0.001821,0.000197,  39.969
    15.0,0.000282,0.000328,-0.001941,0.000162,  39.965
    15.2,0.000286,0.000333,-0.001956,0.000162,  39.965
    15.4,0.000282,0.000336,-0.001948,0.000184,  39.967
    15.6,0.000282,0.000329,-0.001896,0.000148,  39.967
    15.8,0.000286,0.000330,-0.001963,0.000162,  39.968
    16.0,0.000282,0.000326,-0.002092,0.000197,  39.966
    16.2,0.000282,0.000326,-0.002266,0.000162,  39.965
    16.4,0.000289,0.000325,-0.002507,0.000175,  39.961
    16.6,0.000285,0.000317,-0.002793,0.000197,  39.965
    16.8,0.000282,0.000320,-0.003124,0.000162,  39.960
    17.0,0.000289,0.000322,-0.003131,0.000175,  39.964
    17.2,0.000285,0.000321,-0.003009,0.000162,  39.961
    17.4,0.000282,0.000331,-0.002722,0.000126,  39.961
    17.6,0.000289,0.000340,-0.003114,0.000175,  39.958
    17.8,0.000282,0.000337,-0.003761,0.000162,  39.961
    18.0,0.000283,0.000332,-0.004678,0.000126,  39.965
    18.2,0.000282,0.000330,-0.004701,0.000175,  39.964
    18.4,0.000279,0.000323,-0.004445,0.000162,  39.960
    18.6,0.000282,0.000321,-0.003867,0.000126,  39.958
    18.8,0.000286,0.000321,-0.003649,0.000175,  39.962
    19.0,0.000286,0.000316,-0.003476,0.000162,  39.966
    19.2,0.000289,0.000316,-0.003340,0.000126,  39.964
    19.4,0.000286,0.000316,-0.003242,0.000175,  39.966
    19.6,0.000289,0.000316,-0.003166,0.000162,  39.966
    19.8,0.000286,0.000314,-0.003151,0.000139,  39.969
    20.0,0.000279,0.000312,-0.003104,0.000175,  39.976
    20.2,0.000280,0.000305,-0.003022,0.000175,  39.972
    20.4,0.000280,0.000303,-0.002931,0.000139,  39.978
    20.6,0.000270,0.000303,-0.002863,0.000175,  39.977
    20.8,0.000274,0.000296,-0.002810,0.000162,  39.981
    21.0,0.000270,0.000291,-0.002757,0.000126,  39.986
    21.2,0.000270,0.000294,-0.002757,0.000162,  39.984
    21.4,0.000267,0.000285,-0.002795,0.000148,  39.989
    21.6,0.000260,0.000286,-0.002879,0.000113,  39.987
    21.8,0.000264,0.000285,-0.002818,0.000148,  39.991
    22.0,0.000255,0.000280,-0.002712,0.000171,  39.991
    22.2,0.000242,0.000281,-0.002583,0.000171,  39.996
    22.4,0.000246,0.000282,-0.002507,0.000193,  39.998
    22.6,0.000235,0.000282,-0.002468,0.000158,  40.001
    22.8,0.000229,0.000280,-0.002423,0.000144,  40.005
    23.0,0.000230,0.000282,-0.002409,0.000144,  40.002
    23.2,0.000231,0.000288,-0.002401,0.000144,  40.004
    23.4,0.000238,0.000285,-0.002423,0.000144,  40.003
    23.6,0.000242,0.000285,-0.002431,0.000109,  40.008
    23.8,0.000252,0.000282,-0.002477,0.000109,  40.011
    24.0,0.000258,0.000282,-0.002569,0.000109,  40.005
    24.2,0.000261,0.000280,-0.002683,0.000073,  40.007
    24.4,0.000260,0.000283,-0.002706,0.000109,  40.014
    24.6,0.000256,0.000283,-0.002683,0.000095,  40.014
    24.8,0.000246,0.000281,-0.002645,0.000073,  40.020
    25.0,0.000240,0.000276,-0.002615,0.000109,  40.019
    25.2,0.000237,0.000280,-0.002584,0.000095,  40.023
    25.4,0.000230,0.000282,-0.002540,0.000073,  40.022
    25.6,0.000230,0.000290,-0.002456,0.000095,  40.025
    25.8,0.000230,0.000284,-0.002342,0.000118,  40.028
    26.0,0.000223,0.000289,-0.002212,0.000095,  40.028
    26.2,0.000233,0.000291,-0.002174,0.000082,  40.030
    26.4,0.000236,0.000293,-0.002144,0.000118,  40.030
    26.6,0.000229,0.000291,-0.002152,0.000095,  40.034
    26.8,0.000233,0.000294,-0.002144,0.000082,  40.036
    27.0,0.000233,0.000298,-0.002144,0.000105,  40.035
    27.2,0.000226,0.000300,-0.002137,0.000082,  40.039
    27.4,0.000233,0.000301,-0.002319,0.000082,  40.052
    27.6,0.000233,0.000304,-0.002598,0.000105,  40.055
    27.8,0.000223,0.000306,-0.002999,0.000082,  40.057
    28.0,0.000227,0.000315,-0.003059,0.000082,  40.057
    28.2,0.000221,0.000317,-0.003022,0.000105,  40.056
    28.4,0.000224,0.000322,-0.002864,0.000082,  40.061
    28.6,0.000223,0.000323,-0.002765,0.000082,  40.060
    28.8,0.000229,0.000325,-0.002652,0.000118,  40.069
    29.0,0.000228,0.000332,-0.002516,0.000095,  40.071
    29.2,0.000244,0.000348,-0.002493,0.000082,  40.063
    29.4,0.000249,0.000345,-0.002532,0.000118,  40.066
    29.6,0.000245,0.000355,-0.002623,0.000095,  40.065
    29.8,0.000255,0.000363,-0.002548,0.000095,  40.068
    30.0,0.000255,0.000360,-0.002441,0.000131,  40.072
    30.2,0.000254,0.000366,-0.002267,0.000109,  40.074
    30.4,0.000270,0.000366,-0.002275,0.000095,  40.077
    30.6,0.000273,0.000367,-0.002374,0.000118,  40.080
    30.8,0.000275,0.000376,-0.002533,0.000095,  40.083
    31.0,0.000285,0.000385,-0.002570,0.000095,  40.083
    31.2,0.000290,0.000385,-0.002600,0.000131,  40.088
    31.4,0.000292,0.000389,-0.002622,0.000131,  40.087
    31.6,0.000305,0.000391,-0.002606,0.000144,  40.091
    31.8,0.000308,0.000396,-0.002561,0.000158,  40.090
    32.0,0.000307,0.000400,-0.002492,0.000158,  40.095
    32.2,0.000320,0.000405,-0.002409,0.000171,  40.097
    32.4,0.000323,0.000412,-0.002453,0.000184,  40.096
    32.6,0.000331,0.000421,-0.002545,0.000184,  40.102
    32.8,0.000337,0.000425,-0.002674,0.000148,  40.099
    33.0,0.000353,0.000431,-0.002689,0.000162,  40.102
    33.2,0.000359,0.000437,-0.002674,0.000162,  40.103
    33.4,0.000362,0.000446,-0.002621,0.000126,  40.106
    33.6,0.000369,0.000455,-0.003157,0.000175,  40.108
    33.8,0.000375,0.000459,-0.003992,0.000162,  40.108
    34.0,0.000383,0.000462,-0.005095,0.000126,  40.107
    34.2,0.000395,0.000469,-0.005079,0.000175,  40.111
    34.4,0.000404,0.000469,-0.004622,0.000162,  40.113
    34.6,0.000413,0.000479,-0.003765,0.000139,  40.113
    34.8,0.000418,0.000497,-0.003456,0.000175,  40.125
    35.0,0.000430,0.000501,-0.003223,0.000175,  40.125
    35.2,0.000433,0.000502,-0.003050,0.000152,  40.120
    35.4,0.000436,0.000508,-0.002862,0.000188,  40.129
    35.6,0.000445,0.000512,-0.002696,0.000188,  40.131
    35.8,0.000448,0.000519,-0.002583,0.000166,  40.130
    36.0,0.000451,0.000524,-0.002801,0.000201,  40.135
    36.2,0.000457,0.000523,-0.003172,0.000188,  40.138
    36.4,0.000462,0.000528,-0.003730,0.000166,  40.147
    36.6,0.000468,0.000530,-0.003745,0.000201,  40.151
    36.8,0.000471,0.000525,-0.003579,0.000188,  40.157
    37.0,0.000474,0.000523,-0.003203,0.000166,  40.160
    37.2,0.000477,0.000518,-0.003075,0.000215,  40.160
    37.4,0.000477,0.000511,-0.003000,0.000215,  40.166
    37.6,0.000481,0.000517,-0.002955,0.000192,  40.165
    37.8,0.000478,0.000518,-0.002857,0.000228,  40.170
    38.0,0.000472,0.000511,-0.002765,0.000250,  40.174
    38.2,0.000472,0.000511,-0.002667,0.000228,  40.174
    38.4,0.000458,0.000507,-0.002637,0.000215,  40.176
    38.6,0.000458,0.000499,-0.002660,0.000237,  40.183
    38.8,0.000458,0.000494,-0.002728,0.000215,  40.185
    39.0,0.000455,0.000489,-0.002683,0.000201,  40.187
    39.2,0.000454,0.000478,-0.002614,0.000237,  40.184
    39.4,0.000448,0.000467,-0.002515,0.000215,  40.192
    39.6,0.000445,0.000465,-0.002431,0.000201,  40.192
    39.8,0.000440,0.000456,-0.002371,0.000237,  40.199
    40.0,0.000434,0.000447,-0.002310,0.000215,  40.199
    40.2,0.000412,0.000443,-0.002287,0.000201,  40.197
    40.4,0.000403,0.000444,-0.002295,0.000201,  40.204
    40.6,0.000397,0.000447,-0.002349,0.000201,  40.201
    40.8,0.000385,0.000454,-0.002402,0.000166,  40.202
    41.0,0.000383,0.000457,-0.002447,0.000188,  40.206
    41.2,0.000380,0.000453,-0.002546,0.000175,  40.201
    41.4,0.000380,0.000460,-0.002591,0.000175,  40.211
    41.6,0.000380,0.000459,-0.002636,0.000162,  40.210
    41.8,0.000380,0.000460,-0.002667,0.000197,  40.212
    42.0,0.000383,0.000457,-0.002712,0.000162,  40.213
    42.2,0.000387,0.000467,-0.002818,0.000162,  40.212
    42.4,0.000390,0.000469,-0.002977,0.000184,  40.209
    42.6,0.000389,0.000466,-0.003165,0.000148,  40.213
    42.8,0.000392,0.000465,-0.003143,0.000162,  40.216
    43.0,0.000398,0.000460,-0.003067,0.000197,  40.216
    43.2,0.000398,0.000458,-0.002930,0.000175,  40.215
    43.4,0.000398,0.000452,-0.002892,0.000175,  40.214
    43.6,0.000401,0.000445,-0.002854,0.000211,  40.213
    43.8,0.000397,0.000446,-0.002861,0.000188,  40.213
    44.0,0.000397,0.000446,-0.002815,0.000175,  40.216
    44.2,0.000397,0.000439,-0.002755,0.000211,  40.215
    44.4,0.000387,0.000442,-0.002694,0.000188,  40.214
    44.6,0.000391,0.000437,-0.002868,0.000188,  40.212
    44.8,0.000388,0.000430,-0.003170,0.000224,  40.215
    45.0,0.000381,0.000431,-0.003614,0.000201,  40.213
    45.2,0.000385,0.000426,-0.003832,0.000201,  40.214
    45.4,0.000385,0.000421,-0.003997,0.000237,  40.215
    45.6,0.000372,0.000421,-0.004103,0.000215,  40.218
    45.8,0.000376,0.000416,-0.004020,0.000201,  40.218
    46.0,0.000373,0.000409,-0.003817,0.000237,  40.212
    46.2,0.000373,0.000410,-0.003478,0.000215,  40.216
    46.4,0.000373,0.000409,-0.003334,0.000201,  40.215
    46.6,0.000377,0.000407,-0.003222,0.000224,  40.214
    46.8,0.000377,0.000400,-0.003170,0.000201,  40.210
    47.0,0.000375,0.000402,-0.003117,0.000201,  40.214
    47.2,0.000369,0.000401,-0.003102,0.000224,  40.211
    47.4,0.000366,0.000399,-0.003118,0.000201,  40.214
    47.6,0.000363,0.000401,-0.003080,0.000201,  40.211
    47.8,0.000360,0.000400,-0.003028,0.000224,  40.211
    48.0,0.000363,0.000402,-0.002960,0.000201,  40.211
    48.2,0.000363,0.000401,-0.002900,0.000188,  40.209
    48.4,0.000360,0.000401,-0.002862,0.000211,  40.204
    48.6,0.000363,0.000397,-0.002824,0.000175,  40.209
    48.8,0.000359,0.000395,-0.002695,0.000197,  40.203
    49.0,0.000359,0.000390,-0.002543,0.000220,  40.204
    49.2,0.000362,0.000390,-0.002346,0.000184,  40.203
    49.4,0.000352,0.000393,-0.002278,0.000220,  40.207
    49.6,0.000353,0.000385,-0.002293,0.000220,  40.207
    49.8,0.000353,0.000383,-0.002332,0.000220,  40.200
    50.0,0.000343,0.000384,-0.002332,0.000184,  40.201
    50.2,0.000344,0.000382,-0.002340,0.000197,  40.198
    50.4,0.000344,0.000377,-0.002363,0.000233,  40.198
    50.6,0.000337,0.000377,-0.002363,0.000211,  40.199
    50.8,0.000344,0.000370,-0.002348,0.000233,  40.197
    51.0,0.000341,0.000360,-0.002325,0.000233,  40.198
    51.2,0.000331,0.000356,-0.002295,0.000211,  40.194
    51.4,0.000335,0.000354,-0.002364,0.000211,  40.195
    51.6,0.000330,0.000350,-0.002470,0.000211,  40.195
    51.8,0.000320,0.000345,-0.002607,0.000188,  40.190
    52.0,0.000321,0.000346,-0.002607,0.000175,  40.193
    52.2,0.000318,0.000338,-0.002584,0.000211,  40.191
    52.4,0.000308,0.000336,-0.002494,0.000175,  40.190
    52.6,0.000309,0.000337,-0.002471,0.000175,  40.188
    52.8,0.000306,0.000327,-0.002486,0.000197,  40.185
    53.0,0.000296,0.000333,-0.002509,0.000162,  40.187
    53.2,0.000300,0.000332,-0.002501,0.000162,  40.186
    53.4,0.000303,0.000325,-0.002501,0.000184,  40.186
    53.6,0.000293,0.000321,-0.002516,0.000148,  40.182
    53.8,0.000297,0.000317,-0.002492,0.000148,  40.186
    54.0,0.000294,0.000312,-0.002439,0.000184,  40.185
    54.2,0.000282,0.000305,-0.002386,0.000148,  40.187
    54.4,0.000283,0.000306,-0.002415,0.000148,  40.184
    54.6,0.000277,0.000301,-0.002461,0.000184,  40.187
    54.8,0.000267,0.000291,-0.002553,0.000148,  40.185
    55.0,0.000268,0.000289,-0.002583,0.000148,  40.183
    55.2,0.000265,0.000280,-0.002590,0.000171,  40.191
    55.4,0.000261,0.000269,-0.002605,0.000135,  40.185
    55.6,0.000265,0.000264,-0.002831,0.000148,  40.185
    55.8,0.000268,0.000253,-0.003133,0.000171,  40.190
    56.0,0.000265,0.000235,-0.003518,0.000135,  40.193
    56.2,0.000253,0.000224,-0.003518,0.000135,  40.198
    56.4,0.000242,0.000214,-0.003397,0.000158,  40.198
    56.6,0.000230,0.000199,-0.003111,0.000122,  40.198
    56.8,0.000211,0.000189,-0.003006,0.000122,  40.203
    57.0,0.000204,0.000179,-0.002953,0.000158,  40.202
    57.2,0.000182,0.000175,-0.002930,0.000109,  40.205
    57.4,0.000167,0.000173,-0.002832,0.000109,  40.208
    57.6,0.000150,0.000164,-0.002689,0.000131,  40.205
    57.8,0.000131,0.000158,-0.002553,0.000082,  40.201
    58.0,0.000129,0.000162,-0.002469,0.000069,  40.205
    58.2,0.000115,0.000153,-0.002379,0.000078,  40.205
    58.4,0.000106,0.000148,-0.002319,0.000029,  40.204
    58.6,0.000097,0.000146,-0.002319,0.000016,  40.200
    58.8,0.000095,0.000143,-0.002365,-0.000011,  40.206
    59.0,0.000093,0.000148,-0.002449,-0.000024,  40.205
    59.2,0.000084,0.000145,-0.002449,-0.000060,  40.206
    59.4,0.000082,0.000149,-0.002403,-0.000024,  40.200
    59.6,0.000079,0.000156,-0.002336,-0.000037,  40.197
    59.8,0.000072,0.000165,-0.002222,-0.000050,  40.205
    60.0,0.000072,0.000182,-0.002230,-0.000086,  40.194
    60.2,0.000072,0.000193,-0.002276,-0.000050,  40.192
    60.4,0.000068,0.000204,-0.002353,-0.000073,  40.192
    60.6,0.000078,0.000218,-0.002383,-0.000050,  40.182
    60.8,0.000093,0.000232,-0.002444,-0.000064,  40.179
    61.0,0.000103,0.000236,-0.002482,-0.000086,  40.179
    61.2,0.000128,0.000250,-0.002475,-0.000064,  40.174
    61.4,0.000145,0.000256,-0.002490,-0.000064,  40.175
    61.6,0.000156,0.000269,-0.002482,-0.000086,  40.171
    61.8,0.000180,0.000280,-0.002428,-0.000050,  40.173
    62.0,0.000195,0.000284,-0.002360,-0.000037,  40.173
    62.2,0.000203,0.000291,-0.002253,-0.000046,  40.168
    62.4,0.000224,0.000296,-0.002230,0.000003,  40.166
    62.6,0.000236,0.000297,-0.002245,0.000016,  40.169
    62.8,0.000235,0.000299,-0.002291,0.000007,  40.173
    63.0,0.000248,0.000297,-0.002238,0.000056,  40.171
    63.2,0.000253,0.000295,-0.002163,0.000056,  40.168
    63.4,0.000249,0.000306,-0.002086,0.000033,  40.168
    63.6,0.000256,0.000308,-0.002101,0.000069,  40.167
    63.8,0.000259,0.000303,-0.002170,0.000082,  40.171
    64.0,0.000252,0.000298,-0.002269,0.000060,  40.169
    64.2,0.000259,0.000296,-0.002307,0.000095,  40.165
    64.4,0.000259,0.000291,-0.002345,0.000095,  40.166
    64.6,0.000256,0.000283,-0.002346,0.000073,  40.165
    64.8,0.000253,0.000278,-0.002292,0.000109,  40.166
    65.0,0.000255,0.000273,-0.002208,0.000109,  40.166
    65.2,0.000252,0.000274,-0.002072,0.000073,  40.166
    65.4,0.000249,0.000267,-0.002041,0.000109,  40.161
    65.6,0.000243,0.000260,-0.002019,0.000144,  40.161
    65.8,0.000240,0.000263,-0.002057,0.000109,  40.163
    66.0,0.000237,0.000258,-0.002064,0.000109,  40.165
    66.2,0.000231,0.000258,-0.002057,0.000144,  40.162
    66.4,0.000231,0.000261,-0.002072,0.000109,  40.162
    66.6,0.000225,0.000266,-0.002041,0.000144,  40.162
    66.8,0.000225,0.000264,-0.001980,0.000167,  40.158
    67.0,0.000225,0.000264,-0.001905,0.000144,  40.150
    67.2,0.000219,0.000261,-0.001905,0.000167,  40.145
    67.4,0.000214,0.000258,-0.001950,0.000154,  40.152
    67.6,0.000211,0.000251,-0.002018,0.000154,  40.150
    67.8,0.000211,0.000247,-0.002041,0.000118,  40.153
    68.0,0.000208,0.000245,-0.002071,0.000118,  40.147
    68.2,0.000208,0.000241,-0.002079,0.000154,  40.153
    68.4,0.000202,0.000240,-0.002094,0.000131,  40.145
    68.6,0.000206,0.000237,-0.002321,0.000154,  40.146
    68.8,0.000206,0.000235,-0.002631,0.000154,  40.146
    69.0,0.000196,0.000232,-0.003016,0.000131,  40.148
    69.2,0.000193,0.000221,-0.003325,0.000154,  40.149
    69.4,0.000190,0.000223,-0.003597,0.000154,  40.146
    69.6,0.000181,0.000221,-0.003868,0.000131,  40.147
    69.8,0.000173,0.000219,-0.004289,0.000154,  40.149
    70.0,0.000170,0.000220,-0.004769,0.000140,  40.148
    70.2,0.000167,0.000224,-0.005346,0.000118,  40.142
    70.4,0.000167,0.000232,-0.005144,0.000140,  40.138
    70.6,0.000171,0.000229,-0.004604,0.000127,  40.139
    70.8,0.000172,0.000236,-0.003739,0.000091,  40.136
    71.0,0.000180,0.000240,-0.003393,0.000091,  40.134
    71.2,0.000179,0.000242,-0.003160,0.000078,  40.135
    71.4,0.000185,0.000245,-0.003040,0.000042,  40.133
    71.6,0.000192,0.000241,-0.002866,0.000042,  40.135
    71.8,0.000194,0.000244,-0.002722,0.000065,  40.133
    72.0,0.000190,0.000243,-0.002631,0.000029,  40.132
    72.2,0.000190,0.000248,-0.002480,0.000042,  40.126
    72.4,0.000193,0.000245,-0.002344,0.000078,  40.125
    72.6,0.000199,0.000242,-0.002222,0.000056,  40.126
    72.8,0.000196,0.000244,-0.002177,0.000069,  40.126
    73.0,0.000196,0.000244,-0.002177,0.000105,  40.119
    73.2,0.000196,0.000242,-0.002222,0.000082,  40.124
    73.4,0.000199,0.000244,-0.002260,0.000082,  40.116
    73.6,0.000199,0.000244,-0.002291,0.000118,  40.115
    73.8,0.000202,0.000243,-0.002352,0.000095,  40.121
    74.0,0.000199,0.000243,-0.002306,0.000082,  40.114
    74.2,0.000199,0.000246,-0.002215,0.000118,  40.114
    74.4,0.000199,0.000250,-0.002094,0.000095,  40.109
    74.6,0.000199,0.000252,-0.002071,0.000082,  40.109
    74.8,0.000196,0.000249,-0.002064,0.000118,  40.102
    75.0,0.000196,0.000250,-0.002118,0.000095,  40.107
    75.2,0.000196,0.000252,-0.002080,0.000082,  40.104
    75.4,0.000190,0.000251,-0.002049,0.000105,  40.099
    75.6,0.000190,0.000248,-0.001988,0.000082,  40.099
    75.8,0.000190,0.000244,-0.001980,0.000082,  40.097
    76.0,0.000187,0.000238,-0.001981,0.000118,  40.099
    76.2,0.000187,0.000238,-0.002027,0.000131,  40.096
    76.4,0.000180,0.000236,-0.002027,0.000131,  40.091
    76.6,0.000180,0.000236,-0.002012,0.000131,  40.081
    76.8,0.000180,0.000231,-0.001990,0.000118,  40.077
    77.0,0.000176,0.000226,-0.001983,0.000131,  40.073
    77.2,0.000186,0.000227,-0.001998,0.000118,  40.073
    77.4,0.000186,0.000226,-0.002006,0.000118,  40.065
    77.6,0.000179,0.000228,-0.002044,0.000095,  40.065
    77.8,0.000183,0.000228,-0.001998,0.000095,  40.063
    78.0,0.000180,0.000225,-0.001923,0.000131,  40.057
    78.2,0.000180,0.000228,-0.001817,0.000109,  40.058
    78.4,0.000181,0.000228,-0.001983,0.000109,  40.057
    78.6,0.000181,0.000220,-0.002256,0.000131,  40.053
    78.8,0.000178,0.000224,-0.002642,0.000109,  40.051
    79.0,0.000178,0.000222,-0.002665,0.000109,  40.044
    79.2,0.000182,0.000218,-0.002581,0.000131,  40.046
    79.4,0.000181,0.000218,-0.002341,0.000109,  40.041
    79.6,0.000183,0.000217,-0.002288,0.000109,  40.037
    79.8,0.000179,0.000217,-0.002281,0.000131,  40.038
    80.0,0.000179,0.000216,-0.002304,0.000109,  40.030
    80.2,0.000175,0.000216,-0.002220,0.000095,  40.034
    80.4,0.000171,0.000213,-0.002122,0.000105,  40.031
    80.6,0.000164,0.000216,-0.001992,0.000082,  40.028
    80.8,0.000168,0.000216,-0.001894,0.000082,  40.028
    81.0,0.000168,0.000213,-0.001833,0.000105,  40.019
    81.2,0.000164,0.000219,-0.001780,0.000082,  40.018
    81.4,0.000164,0.000220,-0.001764,0.000082,  40.017
    81.6,0.000164,0.000220,-0.001757,0.000105,  40.011
    81.8,0.000164,0.000213,-0.001788,0.000082,  40.012
    82.0,0.000161,0.000213,-0.001841,0.000069,  40.003
    82.2,0.000161,0.000215,-0.001903,0.000091,  39.990
    82.4,0.000161,0.000210,-0.002009,0.000069,  39.991
    82.6,0.000161,0.000215,-0.001986,0.000056,  39.986
    82.8,0.000161,0.000217,-0.001896,0.000091,  39.978
    83.0,0.000161,0.000217,-0.001774,0.000069,  39.977
    83.2,0.000161,0.000223,-0.001766,0.000056,  39.975
    83.4,0.000161,0.000225,-0.001781,0.000091,  39.972
    83.6,0.000158,0.000222,-0.001842,0.000069,  39.972
    83.8,0.000158,0.000217,-0.001850,0.000069,  39.966
    84.0,0.000158,0.000219,-0.001895,0.000105,  39.964
    84.2,0.000155,0.000221,-0.001925,0.000082,  39.957
    84.4,0.000155,0.000224,-0.001880,0.000082,  39.953
    84.6,0.000158,0.000226,-0.001789,0.000105,  39.952
    84.8,0.000161,0.000221,-0.001682,0.000082,  39.951
    85.0,0.000157,0.000225,-0.001697,0.000082,  39.943
    85.2,0.000157,0.000225,-0.001736,0.000105,  39.942
    85.4,0.000160,0.000220,-0.001806,0.000105,  39.938
    85.6,0.000156,0.000223,-0.001829,0.000118,  39.935
    85.8,0.000157,0.000218,-0.001829,0.000118,  39.931
    86.0,0.000157,0.000218,-0.001814,0.000105,  39.922
    86.2,0.000153,0.000219,-0.001769,0.000105,  39.912
    86.4,0.000157,0.000215,-0.001823,0.000105,  39.910
    86.6,0.000154,0.000212,-0.001922,0.000091,  39.905
    86.8,0.000147,0.000213,-0.002067,0.000069,  39.900
    87.0,0.000148,0.000210,-0.002006,0.000056,  39.890
    87.2,0.000148,0.000207,-0.001847,0.000091,  39.892
    87.4,0.000145,0.000212,-0.001618,0.000069,  39.886
    87.6,0.000149,0.000210,-0.001566,0.000056,  39.881
    87.8,0.000152,0.000207,-0.001551,0.000091,  39.881
    88.0,0.000149,0.000210,-0.001618,0.000056,  39.877
    88.2,0.000146,0.000205,-0.001618,0.000091,  39.869
    88.4,0.000149,0.000200,-0.001612,0.000114,  39.870
    88.6,0.000142,0.000208,-0.001634,0.000078,  39.866
    88.8,0.000142,0.000207,-0.001604,0.000091,  39.861
    89.0,0.000145,0.000204,-0.001543,0.000078,  39.857
    89.2,0.000138,0.000208,-0.001467,0.000042,  39.855
    89.4,0.000145,0.000210,-0.001413,0.000056,  39.852
    89.6,0.000148,0.000209,-0.001352,0.000078,  39.848
    89.8,0.000135,0.000211,-0.001284,0.000042,  39.842
    90.0,0.000139,0.000211,-0.001307,0.000056,  39.828
    90.2,0.000139,0.000206,-0.001391,0.000078,  39.826
    90.4,0.000132,0.000213,-0.001536,0.000042,  39.820
    90.6,0.000142,0.000211,-0.001597,0.000056,  39.818
    90.8,0.000142,0.000208,-0.001642,0.000078,  39.816
    91.0,0.000145,0.000208,-0.001695,0.000042,  39.809
    91.2,0.000145,0.000209,-0.001710,0.000056,  39.810
    91.4,0.000152,0.000211,-0.001718,0.000078,  39.808
    91.6,0.000155,0.000208,-0.001710,0.000042,  39.805
    91.8,0.000155,0.000213,-0.001695,0.000042,  39.800
    92.0,0.000155,0.000215,-0.001710,0.000065,  39.798
    92.2,0.000158,0.000214,-0.001703,0.000029,  39.791
    92.4,0.000158,0.000218,-0.001703,0.000029,  39.788
    92.6,0.000155,0.000217,-0.001718,0.000065,  39.784
    92.8,0.000158,0.000217,-0.001741,0.000029,  39.784
    93.0,0.000158,0.000215,-0.001672,0.000029,  39.776
    93.2,0.000162,0.000214,-0.001544,0.000065,  39.779
    93.4,0.000168,0.000217,-0.001414,0.000065,  39.770
    93.6,0.000161,0.000224,-0.001429,0.000065,  39.758
    93.8,0.000168,0.000226,-0.001483,0.000078,  39.759
    94.0,0.000171,0.000226,-0.001634,0.000078,  39.751
    94.2,0.000164,0.000232,-0.001619,0.000078,  39.748
    94.4,0.000161,0.000234,-0.001559,0.000078,  39.737
    94.6,0.000157,0.000239,-0.001490,0.000078,  39.734
    94.8,0.000163,0.000243,-0.001368,0.000042,  39.728
    95.0,0.000162,0.000248,-0.001322,0.000056,  39.727
    95.2,0.000165,0.000248,-0.001291,0.000078,  39.722
    95.4,0.000167,0.000258,-0.001283,0.000042,  39.716
    95.6,0.000177,0.000263,-0.001290,0.000056,  39.712
    95.8,0.000183,0.000265,-0.001320,0.000078,  39.703
    96.0,0.000179,0.000265,-0.001358,0.000042,  39.700
    96.2,0.000192,0.000265,-0.001449,0.000056,  39.695
    96.4,0.000198,0.000275,-0.001563,0.000078,  39.690
    96.6,0.000194,0.000279,-0.001699,0.000056,  39.675
    96.8,0.000201,0.000284,-0.001752,0.000056,  39.670
    97.0,0.000211,0.000293,-0.001782,0.000091,  39.665
    97.2,0.000215,0.000296,-0.001782,0.000069,  39.657
    97.4,0.000226,0.000297,-0.001744,0.000069,  39.658
    97.6,0.000234,0.000301,-0.001705,0.000105,  39.651
    97.8,0.000237,0.000305,-0.001644,0.000082,  39.649
    98.0,0.000239,0.000312,-0.001651,0.000082,  39.644
    98.2,0.000238,0.000312,-0.001697,0.000105,  39.644
    98.4,0.000234,0.000316,-0.001773,0.000082,  39.639
    98.6,0.000244,0.000319,-0.002144,0.000082,  39.632
    98.8,0.000250,0.000319,-0.002695,0.000118,  39.628
    99.0,0.000246,0.000319,-0.003405,0.000095,  39.623
    99.2,0.000252,0.000325,-0.003435,0.000082,  39.620
    99.4,0.000257,0.000325,-0.003202,0.000118,  39.618
    99.6,0.000253,0.000320,-0.002719,0.000095,  39.609
    99.8,0.000263,0.000325,-0.002522,0.000082,  39.609
   100.0,0.000259,0.000327,-0.002319,0.000118,  39.608
   100.2,0.000262,0.000321,-0.002138,0.000095,  39.588
   100.4,0.000262,0.000328,-0.001917,0.000082,  39.587
   100.6,0.000262,0.000333,-0.001652,0.000118,  39.580
   100.8,0.000265,0.000336,-0.001387,0.000095,  39.578
   101.0,0.000261,0.000344,-0.001334,0.000118,  39.572
   101.2,0.000271,0.000349,-0.001381,0.000154,  39.568
   101.4,0.000274,0.000351,-0.001549,0.000131,  39.569
   101.6,0.000270,0.000350,-0.001595,0.000131,  39.569
   101.8,0.000280,0.000349,-0.001618,0.000144,  39.561
   102.0,0.000286,0.000348,-0.001679,0.000109,  39.560
   102.2,0.000282,0.000352,-0.001618,0.000109,  39.556
   102.4,0.000291,0.000351,-0.001513,0.000144,  39.552
   102.6,0.000297,0.000351,-0.001368,0.000109,  39.545
   102.8,0.000300,0.000354,-0.001292,0.000109,  39.540
   103.0,0.000307,0.000355,-0.001240,0.000144,  39.537
   103.2,0.000313,0.000355,-0.001233,0.000144,  39.537
   103.4,0.000322,0.000364,-0.001241,0.000144,  39.536
   103.6,0.000328,0.000363,-0.001257,0.000144,  39.528
   103.8,0.000334,0.000365,-0.001303,0.000144,  39.513
   104.0,0.000336,0.000365,-0.001350,0.000144,  39.510
   104.2,0.000336,0.000363,-0.001266,0.000144,  39.506
   104.4,0.000342,0.000365,-0.001116,0.000144,  39.503
   104.6,0.000338,0.000370,-0.000919,0.000109,  39.499
   104.8,0.000344,0.000378,-0.000874,0.000109,  39.495
   105.0,0.000353,0.000379,-0.000846,0.000109,  39.491
   105.2,0.000355,0.000396,-0.000871,0.000073,  39.487
   105.4,0.000368,0.000402,-0.000750,0.000109,  39.486
   105.6,0.000379,0.000406,-0.000592,0.000095,  39.480
   105.8,0.000384,0.000423,-0.000410,0.000073,  39.475
   106.0,0.000403,0.000439,-0.000335,0.000095,  39.466
   106.2,0.000420,0.000448,-0.000292,0.000118,  39.470
   106.4,0.000428,0.000459,-0.000302,0.000095,  39.460
   106.6,0.000455,0.000478,-0.000174,0.000082,  39.462
   106.8,0.000476,0.000494,-0.000008,0.000105,  39.457
   107.0,0.000487,0.000502,0.000204,0.000082,  39.438
   107.2,0.000514,0.000521,0.000149,0.000082,  39.438
   107.4,0.000537,0.000536,-0.000043,0.000082,  39.438
   107.6,0.000554,0.000546,-0.000358,0.000060,  39.436
   107.8,0.000584,0.000560,-0.000185,0.000095,  39.433
   108.0,0.000608,0.000578,0.000164,0.000095,  39.429
   108.2,0.000624,0.000592,0.000695,0.000073,  39.428
   108.4,0.000652,0.000605,0.000959,0.000109,  39.426
   108.6,0.000672,0.000625,0.001193,0.000131,  39.423
   108.8,0.000689,0.000645,0.001351,0.000109,  39.419
   109.0,0.000713,0.000673,0.001562,0.000109,  39.422
   109.2,0.000734,0.000693,0.001795,0.000131,  39.423
   109.4,0.000760,0.000721,0.002005,0.000109,  39.414
   109.6,0.000789,0.000752,0.002276,0.000109,  39.415
   109.8,0.000819,0.000777,0.002534,0.000144,  39.412
   110.0,0.000854,0.000804,0.002836,0.000109,  39.410
   110.2,0.000885,0.000840,0.003185,0.000109,  39.413
   110.4,0.000936,0.000873,0.003572,0.000144,  39.407
   110.6,0.000984,0.000901,0.003982,0.000109,  39.408
   110.8,0.001032,0.000939,0.004353,0.000109,  39.405
   111.0,0.001087,0.000971,0.004701,0.000144,  39.405
   111.2,0.001140,0.001004,0.005054,0.000109,  39.401
   111.4,0.001195,0.001037,0.005564,0.000109,  39.399
   111.6,0.001244,0.001073,0.006114,0.000144,  39.399
   111.8,0.001296,0.001106,0.006734,0.000109,  39.396
   112.0,0.001350,0.001147,0.007277,0.000109,  39.395
   112.2,0.001416,0.001189,0.007796,0.000144,  39.392
   112.4,0.001481,0.001227,0.008315,0.000144,  39.390
   112.6,0.001528,0.001277,0.008789,0.000144,  39.385
   112.8,0.001590,0.001318,0.009234,0.000158,  39.382
   113.0,0.001651,0.001352,0.009648,0.000158,  39.386
   113.2,0.001718,0.001384,0.010023,0.000158,  39.386
   113.4,0.001786,0.001416,0.010592,0.000171,  39.382
   113.6,0.001852,0.001459,0.011215,0.000158,  39.383
   113.8,0.001932,0.001506,0.011885,0.000122,  39.380
   114.0,0.002008,0.001558,0.012398,0.000122,  39.374
   114.2,0.002080,0.001602,0.012849,0.000158,  39.374
   114.4,0.002160,0.001662,0.013214,0.000122,  39.376
   114.6,0.002249,0.001716,0.013950,0.000122,  39.367
   114.8,0.002327,0.001769,0.014829,0.000158,  39.355
   115.0,0.002420,0.001833,0.015876,0.000122,  39.354
   115.2,0.002512,0.001897,0.016765,0.000122,  39.348
   115.4,0.002602,0.001960,0.017656,0.000158,  39.350
   115.6,0.002703,0.002026,0.018523,0.000122,  39.348
   115.8,0.002800,0.002090,0.019474,0.000122,  39.343
   116.0,0.002902,0.002153,0.020475,0.000158,  39.341
   116.2,0.003018,0.002231,0.021487,0.000122,  39.343
   116.4,0.003133,0.002303,0.022515,0.000122,  39.335
   116.6,0.003244,0.002371,0.023553,0.000158,  39.333
   116.8,0.003369,0.002443,0.024623,0.000122,  39.332
   117.0,0.003490,0.002516,0.025739,0.000122,  39.334
   117.2,0.003593,0.002590,0.026857,0.000158,  39.328
   117.4,0.003696,0.002668,0.028020,0.000122,  39.328
   117.6,0.003782,0.002750,0.029158,0.000122,  39.328
   117.8,0.003864,0.002829,0.030249,0.000158,  39.330
   118.0,0.003982,0.002912,0.031350,0.000122,  39.327
   118.2,0.004109,0.002996,0.032520,0.000122,  39.330
   118.4,0.004248,0.003077,0.033701,0.000158,  39.330
   118.6,0.004387,0.003165,0.034894,0.000122,  39.329
   118.8,0.004529,0.003255,0.036139,0.000122,  39.327
   119.0,0.004681,0.003336,0.037387,0.000158,  39.324
   119.2,0.004825,0.003422,0.038663,0.000122,  39.325
   119.4,0.004966,0.003508,0.040062,0.000122,  39.322
   119.6,0.005124,0.003593,0.041533,0.000158,  39.317
   119.8,0.005268,0.003683,0.043060,0.000122,  39.320
   120.0,0.005416,0.003776,0.044464,0.000122,  39.314
   120.2,0.005570,0.003859,0.045861,0.000158,  39.318
   120.4,0.005724,0.003957,0.047236,0.000122,  39.315
   120.6,0.005873,0.004046,0.048667,0.000122,  39.316
   120.8,0.006028,0.004132,0.050104,0.000158,  39.321
   121.0,0.006185,0.004220,0.051579,0.000158,  39.318
   121.2,0.006338,0.004312,0.052866,0.000158,  39.321
   121.4,0.006503,0.004389,0.054054,0.000158,  39.314
   121.6,0.006666,0.004456,0.055171,0.000144,  39.315
   121.8,0.006819,0.004526,0.056195,0.000144,  39.316
   122.0,0.006987,0.004584,0.057625,0.000144,  39.315
   122.2,0.007150,0.004670,0.059171,0.000144,  39.314
   122.4,0.007308,0.004766,0.060825,0.000109,  39.315
   122.6,0.007476,0.004863,0.062382,0.000109,  39.311
   122.8,0.007639,0.004956,0.063934,0.000131,  39.311
   123.0,0.007803,0.005054,0.065499,0.000109,  39.310
   123.2,0.007967,0.005152,0.067094,0.000095,  39.307
   123.4,0.008137,0.005252,0.068719,0.000118,  39.307
   123.6,0.008307,0.005346,0.070368,0.000095,  39.308
   123.8,0.008477,0.005443,0.071960,0.000082,  39.303
   124.0,0.008653,0.005537,0.073539,0.000105,  39.301
   124.2,0.008822,0.005639,0.075103,0.000082,  39.300
   124.4,0.008995,0.005737,0.076741,0.000069,  39.296
   124.6,0.009167,0.005830,0.078374,0.000091,  39.284
   124.8,0.009343,0.005923,0.080043,0.000069,  39.282
   125.0,0.009517,0.006020,0.081717,0.000056,  39.277
   125.2,0.009686,0.006117,0.083381,0.000091,  39.275
   125.4,0.009870,0.006221,0.085064,0.000069,  39.276
   125.6,0.010043,0.006329,0.086718,0.000056,  39.270
   125.8,0.010217,0.006433,0.088334,0.000091,  39.271
   126.0,0.010388,0.006537,0.089926,0.000069,  39.262
   126.2,0.010566,0.006635,0.091565,0.000056,  39.271
   126.4,0.010718,0.006727,0.093211,0.000091,  39.264
   126.6,0.010862,0.006831,0.094849,0.000069,  39.263
   126.8,0.011000,0.006924,0.096470,0.000056,  39.252
   127.0,0.011123,0.007018,0.098081,0.000091,  39.254
   127.2,0.011291,0.007123,0.099666,0.000056,  39.257
   127.4,0.011472,0.007229,0.101400,0.000078,  39.253
   127.6,0.011664,0.007334,0.103203,0.000101,  39.249
   127.8,0.011841,0.007436,0.105045,0.000065,  39.246
   128.0,0.012012,0.007543,0.106699,0.000114,  39.240
   128.2,0.012190,0.007654,0.108271,0.000114,  39.241
   128.4,0.012370,0.007767,0.109727,0.000078,  39.232
   128.6,0.012548,0.007883,0.111417,0.000127,  39.234
   128.8,0.012743,0.008003,0.113185,0.000114,  39.228
   129.0,0.012935,0.008129,0.115019,0.000078,  39.226
   129.2,0.013124,0.008254,0.116783,0.000114,  39.222
   129.4,0.013330,0.008376,0.118496,0.000101,  39.210
   129.6,0.013538,0.008507,0.120229,0.000065,  39.207
   129.8,0.013740,0.008632,0.121969,0.000101,  39.200
   130.0,0.013951,0.008756,0.123723,0.000087,  39.192
   130.2,0.014172,0.008882,0.125464,0.000087,  39.193
   130.4,0.014385,0.009011,0.127359,0.000052,  39.189
   130.6,0.014612,0.009111,0.129343,0.000052,  39.184
   130.8,0.014836,0.009213,0.131410,0.000074,  39.179
   131.0,0.015053,0.009298,0.133154,0.000038,  39.173
   131.2,0.015281,0.009378,0.134761,0.000074,  39.170
   131.4,0.015506,0.009487,0.136231,0.000074,  39.163
   131.6,0.015723,0.009603,0.137575,0.000038,  39.160
   131.8,0.015951,0.009728,0.139440,0.000087,  39.158
   132.0,0.016173,0.009846,0.141432,0.000087,  39.152
   132.2,0.016391,0.009968,0.143544,0.000052,  39.150
   132.4,0.016613,0.010092,0.145505,0.000065,  39.140
   132.6,0.016829,0.010213,0.147475,0.000052,  39.134
   132.8,0.017038,0.010340,0.149432,0.000016,  39.126
   133.0,0.017255,0.010472,0.151519,0.000029,  39.118
   133.2,0.017474,0.010596,0.153617,0.000052,  39.115
   133.4,0.017687,0.010719,0.155746,0.000016,  39.110
   133.6,0.017911,0.010845,0.157785,0.000029,  39.103
   133.8,0.018139,0.010973,0.159783,0.000052,  39.097
   134.0,0.018371,0.011100,0.161738,0.000003,  39.094
   134.2,0.018606,0.011224,0.163835,0.000003,  39.088
   134.4,0.018838,0.011343,0.165956,0.000025,  39.083
   134.6,0.019064,0.011457,0.168146,-0.000024,  39.078
   134.8,0.019288,0.011569,0.170400,-0.000037,  39.071
   135.0,0.019511,0.011681,0.172703,-0.000015,  39.059
   135.2,0.019728,0.011804,0.175026,-0.000037,  39.054
   135.4,0.019939,0.011922,0.177073,-0.000050,  39.044
   135.6,0.020123,0.012033,0.179015,-0.000028,  39.043
   135.8,0.020289,0.012138,0.180804,-0.000064,  39.040
   136.0,0.020436,0.012249,0.182996,-0.000064,  39.027
   136.2,0.020565,0.012350,0.185307,-0.000041,  39.019
   136.4,0.020755,0.012445,0.187742,-0.000077,  39.012
   136.6,0.020957,0.012540,0.189893,-0.000077,  39.009
   136.8,0.021175,0.012639,0.191983,-0.000068,  39.004
   137.0,0.021372,0.012734,0.193973,-0.000117,  38.990
   137.2,0.021555,0.012830,0.196029,-0.000117,  38.992
   137.4,0.021737,0.012922,0.198040,-0.000094,  38.984
   137.6,0.021911,0.013018,0.200014,-0.000143,  38.964
   137.8,0.022090,0.013108,0.201938,-0.000143,  38.957
   138.0,0.022265,0.013194,0.203800,-0.000107,  38.945
   138.2,0.022431,0.013282,0.205604,-0.000130,  38.943
   138.4,0.022607,0.013370,0.207301,-0.000156,  38.930
   138.6,0.022770,0.013453,0.208971,-0.000147,  38.923
   138.8,0.022930,0.013531,0.210546,-0.000183,  38.921
   139.0,0.023100,0.013612,0.212182,-0.000196,  38.912
   139.2,0.023258,0.013691,0.213842,-0.000173,  38.895
   139.4,0.023412,0.013766,0.215495,-0.000187,  38.886
   139.6,0.023564,0.013850,0.216828,-0.000187,  38.881
   139.8,0.023713,0.013929,0.218006,-0.000200,  38.869
   140.0,0.023858,0.014002,0.219014,-0.000200,  38.856
   140.2,0.023991,0.014081,0.219845,-0.000187,  38.850
   140.4,0.024123,0.014155,0.221277,-0.000200,  38.842
   140.6,0.024260,0.014238,0.222808,-0.000213,  38.831
   140.8,0.024386,0.014322,0.224457,-0.000262,  38.805
   141.0,0.024523,0.014407,0.225775,-0.000262,  38.787
   141.2,0.024674,0.014484,0.226965,-0.000226,  38.782
   141.4,0.024825,0.014555,0.228086,-0.000249,  38.767
   141.6,0.024999,0.014629,0.229422,-0.000262,  38.757
   141.8,0.025145,0.014701,0.230773,-0.000253,  38.730
   142.0,0.025278,0.014767,0.232154,-0.000275,  38.714
   142.2,0.025412,0.014835,0.233602,-0.000275,  38.703
   142.4,0.025539,0.014905,0.235075,-0.000253,  38.689
   142.6,0.025653,0.014975,0.236564,-0.000275,  38.670
   142.8,0.025775,0.015040,0.237853,-0.000275,  38.648
   143.0,0.025893,0.015094,0.239049,-0.000253,  38.625
   143.2,0.025994,0.015145,0.240184,-0.000275,  38.614
   143.4,0.026104,0.015192,0.241334,-0.000275,  38.594
   143.6,0.026213,0.015243,0.242479,-0.000253,  38.570
   143.8,0.026305,0.015289,0.243576,-0.000275,  38.552
   144.0,0.026408,0.015345,0.244603,-0.000275,  38.528
   144.2,0.026492,0.015396,0.245560,-0.000253,  38.509
   144.4,0.026557,0.015451,0.246434,-0.000289,  38.483
   144.6,0.026623,0.015502,0.247428,-0.000289,  38.462
   144.8,0.026673,0.015550,0.248416,-0.000279,  38.446
   145.0,0.026753,0.015608,0.249420,-0.000315,  38.406
   145.2,0.026834,0.015662,0.250313,-0.000315,  38.388
   145.4,0.026925,0.015701,0.251149,-0.000306,  38.369
   145.6,0.027012,0.015738,0.251940,-0.000355,  38.337
   145.8,0.027090,0.015776,0.252406,-0.000355,  38.314
   146.0,0.027171,0.015808,0.252698,-0.000346,  38.285
   146.2,0.027255,0.015844,0.252845,-0.000381,  38.258
   146.4,0.027333,0.015882,0.253638,-0.000395,  38.231
   146.6,0.027411,0.015920,0.254729,-0.000359,  38.202
   146.8,0.027480,0.015955,0.256051,-0.000395,  38.180
   147.0,0.027542,0.015992,0.257092,-0.000421,  38.142
   147.2,0.027598,0.016029,0.258109,-0.000412,  38.119
   147.4,0.027654,0.016069,0.259040,-0.000461,  38.090
   147.6,0.027704,0.016103,0.259878,-0.000474,  38.063
   147.8,0.027751,0.016128,0.260670,-0.000451,  38.028
   148.0,0.027798,0.016153,0.261341,-0.000465,  37.988
   148.2,0.027837,0.016176,0.261930,-0.000465,  37.961
   148.4,0.027878,0.016199,0.262458,-0.000478,  37.928
   148.6,0.027922,0.016212,0.262864,-0.000491,  37.892
   148.8,0.027958,0.016226,0.263221,-0.000491,  37.862
   149.0,0.028009,0.016241,0.263669,-0.000504,  37.813
   149.2,0.028046,0.016259,0.264069,-0.000504,  37.791
   149.4,0.028067,0.016283,0.264455,-0.000540,  37.751
   149.6,0.028093,0.016307,0.264890,-0.000540,  37.718
   149.8,0.028118,0.016330,0.265298,-0.000518,  37.686
   150.0,0.028133,0.016352,0.265692,-0.000553,  37.638
   150.2,0.028159,0.016379,0.266010,-0.000553,  37.605
   150.4,0.028177,0.016392,0.266259,-0.000531,  37.570
   150.6,0.028186,0.016403,0.266481,-0.000567,  37.528
   150.8,0.028205,0.016408,0.266703,-0.000580,  37.496
   151.0,0.028224,0.016415,0.266856,-0.000557,  37.439
   151.2,0.028230,0.016420,0.266981,-0.000606,  37.414
   151.4,0.028246,0.016431,0.267147,-0.000606,  37.366
   151.6,0.028249,0.016438,0.267286,-0.000570,  37.333
   151.8,0.028242,0.016440,0.267369,-0.000619,  37.284
   152.0,0.028240,0.016442,0.267404,-0.000619,  37.228
   152.2,0.028237,0.016441,0.267411,-0.000584,  37.203
   152.4,0.028224,0.016451,0.267342,-0.000606,  37.153
   152.6,0.028224,0.016459,0.267099,-0.000619,  37.114
   152.8,0.028218,0.016457,0.266732,-0.000597,  37.064
   153.0,0.028202,0.016450,0.266275,-0.000619,  37.006
   153.2,0.028192,0.016449,0.266261,-0.000633,  36.966
   153.4,0.028177,0.016442,0.266434,-0.000610,  36.921
   153.6,0.028161,0.016425,0.266724,-0.000646,  36.869
   153.8,0.028142,0.016414,0.266655,-0.000646,  36.826
   154.0,0.028121,0.016404,0.266523,-0.000637,  36.767
   154.2,0.028099,0.016393,0.266239,-0.000672,  36.724
   154.4,0.028071,0.016381,0.266066,-0.000672,  36.671
   154.6,0.028046,0.016375,0.265865,-0.000663,  36.627
   154.8,0.028015,0.016366,0.265630,-0.000699,  36.570
   155.0,0.027977,0.016364,0.265422,-0.000699,  36.509
   155.2,0.027947,0.016352,0.265208,-0.000676,  36.465
   155.4,0.027915,0.016335,0.264966,-0.000725,  36.419
   155.6,0.027881,0.016320,0.264682,-0.000725,  36.364
   155.8,0.027851,0.016310,0.264372,-0.000690,  36.315
   156.0,0.027819,0.016294,0.264027,-0.000739,  36.249
   156.2,0.027782,0.016292,0.263628,-0.000729,  36.211
   156.4,0.027748,0.016288,0.263146,-0.000707,  36.159
   156.6,0.027713,0.016278,0.262631,-0.000684,  36.110
   156.8,0.027676,0.016277,0.262281,-0.000742,  36.054
   157.0,0.027635,0.016274,0.261972,-0.000707,  35.989
   157.2,0.027601,0.016269,0.261684,-0.000707,  35.955
   157.4,0.027573,0.016273,0.261478,-0.000729,  35.893
   157.6,0.027545,0.016275,0.261067,-0.000707,  35.848
   157.8,0.027520,0.016278,0.260636,-0.000720,  35.788
   158.0,0.027495,0.016269,0.260131,-0.000756,  35.723
   158.2,0.027473,0.016260,0.259782,-0.000707,  35.680
   158.4,0.027448,0.016248,0.259461,-0.000720,  35.629
   158.6,0.027417,0.016236,0.259187,-0.000742,  35.579
   158.8,0.027383,0.016231,0.258771,-0.000693,  35.526
   159.0,0.027352,0.016224,0.258288,-0.000693,  35.452
   159.2,0.027318,0.016224,0.257738,-0.000716,  35.413
   159.4,0.027290,0.016224,0.257229,-0.000667,  35.362
   159.6,0.027259,0.016212,0.256667,-0.000667,  35.306
   159.8,0.027221,0.016210,0.256112,-0.000690,  35.251
   160.0,0.027190,0.016200,0.255591,-0.000654,  35.183
   160.2,0.027162,0.016186,0.255104,-0.000654,  35.135
   160.4,0.027140,0.016175,0.254611,-0.000676,  35.077
   160.6,0.027112,0.016154,0.254139,-0.000663,  35.018
   160.8,0.027075,0.016135,0.253701,-0.000650,  34.955
   161.0,0.027031,0.016124,0.253236,-0.000659,  34.884
   161.2,0.026978,0.016108,0.252772,-0.000659,  34.839
   161.4,0.026941,0.016087,0.252228,-0.000623,  34.787
   161.6,0.026907,0.016075,0.251685,-0.000646,  34.723
   161.8,0.026879,0.016060,0.251123,-0.000646,  34.665
   162.0,0.026851,0.016038,0.250468,-0.000597,  34.591
   162.2,0.026820,0.016019,0.249802,-0.000619,  34.544
   162.4,0.026777,0.015998,0.249195,-0.000633,  34.485
   162.6,0.026730,0.015972,0.248590,-0.000597,  34.419
   162.8,0.026690,0.015951,0.248019,-0.000619,  34.357
   163.0,0.026645,0.015931,0.247500,-0.000597,  34.278
   163.2,0.026608,0.015908,0.247009,-0.000561,  34.228
   163.4,0.026564,0.015883,0.246557,-0.000584,  34.169
   163.6,0.026521,0.015870,0.246020,-0.000548,  34.102
   163.8,0.026468,0.015848,0.245439,-0.000535,  34.030
   164.0,0.026428,0.015829,0.244800,-0.000557,  33.950
   164.2,0.026386,0.015813,0.244201,-0.000521,  33.903
   164.4,0.026340,0.015784,0.243576,-0.000521,  33.838
   164.6,0.026299,0.015761,0.242966,-0.000544,  33.764
   164.8,0.026255,0.015734,0.242389,-0.000508,  33.700
   165.0,0.026214,0.015703,0.241793,-0.000521,  33.611
   165.2,0.026164,0.015673,0.241224,-0.000570,  33.547
   165.4,0.026110,0.015651,0.240687,-0.000535,  33.472
   165.6,0.026067,0.015627,0.240132,-0.000535,  33.399
   165.8,0.026018,0.015607,0.239603,-0.000535,  33.315
   166.0,0.025965,0.015599,0.239108,-0.000584,  33.224
   166.2,0.025912,0.015584,0.238640,-0.000570,  33.159
   166.4,0.025862,0.015562,0.238172,-0.000548,  33.078
   166.6,0.025817,0.015559,0.237718,-0.000570,  33.004
   166.8,0.025769,0.015547,0.237238,-0.000548,  32.918
   167.0,0.025728,0.015528,0.236713,-0.000574,  32.823
   167.2,0.025704,0.015512,0.236214,-0.000597,  32.758
   167.4,0.025677,0.015501,0.235678,-0.000574,  32.679
   167.6,0.025642,0.015486,0.235105,-0.000588,  32.602
   167.8,0.025614,0.015475,0.234522,-0.000623,  32.516
   168.0,0.025593,0.015468,0.234084,-0.000588,  32.420
   168.2,0.025564,0.015461,0.233691,-0.000601,  32.354
   168.4,0.025540,0.015457,0.233388,-0.000637,  32.269
   168.6,0.025519,0.015460,0.233059,-0.000623,  32.191
   168.8,0.025496,0.015458,0.232685,-0.000637,  32.104
   169.0,0.025484,0.015463,0.232350,-0.000672,  32.007
   169.2,0.025475,0.015465,0.231649,-0.000659,  31.944
   169.4,0.025469,0.015469,0.230768,-0.000637,  31.863
   169.6,0.025466,0.015481,0.229696,-0.000672,  31.779
   169.8,0.025480,0.015495,0.229416,-0.000659,  31.700
   170.0,0.025486,0.015496,0.229406,-0.000637,  31.597
   170.2,0.025488,0.015509,0.229667,-0.000672,  31.531
   170.4,0.025508,0.015518,0.229628,-0.000659,  31.444
   170.6,0.025520,0.015523,0.229595,-0.000637,  31.367
   170.8,0.025526,0.015530,0.229482,-0.000659,  31.279
   171.0,0.025548,0.015550,0.229424,-0.000646,  31.181
   171.2,0.025561,0.015559,0.229385,-0.000610,  31.118
   171.4,0.025569,0.015568,0.229345,-0.000633,  31.030
   171.6,0.025588,0.015581,0.229257,-0.000619,  30.953
   171.8,0.025601,0.015592,0.229126,-0.000584,  30.864
   172.0,0.025619,0.015606,0.228976,-0.000593,  30.764
   172.2,0.025641,0.015619,0.229056,-0.000593,  30.700
   172.4,0.025676,0.015635,0.229225,-0.000557,  30.618
   172.6,0.025701,0.015644,0.229475,-0.000580,  30.538
   172.8,0.025729,0.015661,0.229574,-0.000553,  30.462
   173.0,0.025757,0.015671,0.229650,-0.000518,  30.368
   173.2,0.025778,0.015685,0.229708,-0.000540,  30.302
   173.4,0.025806,0.015695,0.229810,-0.000527,  30.227
   173.6,0.025830,0.015703,0.229861,-0.000478,  30.144
   173.8,0.025861,0.015715,0.229901,-0.000487,  30.069
   174.0,0.025889,0.015733,0.230065,-0.000487,  29.979
   174.2,0.025921,0.015742,0.230230,-0.000438,  29.918
   174.4,0.025948,0.015761,0.230406,-0.000461,  29.839
   174.6,0.025976,0.015781,0.230519,-0.000434,  29.767
   174.8,0.026014,0.015793,0.230661,-0.000398,  29.701
   175.0,0.026045,0.015800,0.230726,-0.000398,  29.605
   175.2,0.026072,0.015815,0.230854,-0.000385,  29.545
   175.4,0.026113,0.015825,0.231000,-0.000372,  29.480
   175.6,0.026144,0.015836,0.231153,-0.000359,  29.406
   175.8,0.026165,0.015838,0.231307,-0.000332,  29.340
   176.0,0.026200,0.015849,0.231435,-0.000332,  29.251
   176.2,0.026228,0.015853,0.231570,-0.000319,  29.191
   176.4,0.026249,0.015852,0.231705,-0.000342,  29.115
   176.6,0.026278,0.015855,0.231928,-0.000315,  29.043
   176.8,0.026303,0.015854,0.232119,-0.000279,  28.965
   177.0,0.026314,0.015861,0.232343,-0.000302,  28.874
   177.2,0.026340,0.015866,0.232515,-0.000289,  28.815
   177.4,0.026359,0.015863,0.232643,-0.000240,  28.739
   177.6,0.026370,0.015868,0.232753,-0.000262,  28.662
   177.8,0.026393,0.015868,0.232856,-0.000226,  28.584
   178.0,0.026401,0.015863,0.232947,-0.000191,  28.492
   178.2,0.026417,0.015861,0.233019,-0.000200,  28.430
   178.4,0.026436,0.015859,0.233147,-0.000164,  28.355
   178.6,0.026447,0.015851,0.233327,-0.000164,  28.276
   178.8,0.026464,0.015842,0.233507,-0.000187,  28.200
   179.0,0.026473,0.015835,0.233680,-0.000124,  28.107
   179.2,0.026475,0.015823,0.233879,-0.000124,  28.053
   179.4,0.026491,0.015821,0.234045,-0.000111,  27.976
   179.6,0.026495,0.015815,0.234173,-0.000111,  27.905
   179.8,0.026498,0.015803,0.234239,-0.000075,  27.833
   180.0,0.026504,0.015796,0.234279,-0.000062,  27.741
   180.2,0.026507,0.015787,0.234077,-0.000098,  27.689
   180.4,0.026510,0.015772,0.233640,-0.000062,  27.621
   180.6,0.026513,0.015758,0.233084,-0.000049,  27.552
   180.8,0.026523,0.015749,0.233186,-0.000085,  27.479
   181.0,0.026523,0.015733,0.233537,-0.000062,  27.400
   181.2,0.026526,0.015719,0.234109,-0.000085,  27.347
   181.4,0.026523,0.015712,0.234360,-0.000071,  27.285
   181.6,0.026530,0.015696,0.234540,-0.000071,  27.221
   181.8,0.026526,0.015679,0.234638,-0.000081,  27.159
   182.0,0.026523,0.015663,0.234838,-0.000045,  27.082
   182.2,0.026516,0.015645,0.235044,-0.000045,  27.033
   182.4,0.026509,0.015626,0.235243,-0.000068,  26.972
   182.6,0.026506,0.015609,0.235435,-0.000019,  26.915
   182.8,0.026497,0.015583,0.235628,-0.000032,  26.854
   183.0,0.026481,0.015564,0.235821,-0.000068,  26.786
   183.2,0.026478,0.015548,0.235955,-0.000054,  26.741
   183.4,0.026467,0.015527,0.236103,-0.000054,  26.685
   183.6,0.026447,0.015508,0.236211,-0.000090,  26.630
   183.8,0.026436,0.015487,0.236308,-0.000041,  26.572
   184.0,0.026417,0.015461,0.236333,-0.000064,  26.514
   184.2,0.026391,0.015434,0.236296,-0.000028,  26.468
   184.4,0.026376,0.015400,0.236347,-0.000001,  26.420
   184.6,0.026349,0.015375,0.236411,-0.000001,  26.375
   184.8,0.026320,0.015344,0.236456,-0.000001,  26.325
   185.0,0.026302,0.015318,0.236519,-0.000024,  26.266
   185.2,0.026277,0.015298,0.236545,-0.000024,  26.231
   185.4,0.026239,0.015263,0.236538,0.000012,  26.179
   185.6,0.026212,0.015223,0.236505,-0.000011,  26.139
   185.8,0.026168,0.015187,0.236428,-0.000011,  26.088
   186.0,0.026121,0.015142,0.236306,0.000025,  26.038
   186.2,0.026087,0.015107,0.236145,0.000003,  26.006
   186.4,0.026041,0.015069,0.236061,0.000003,  25.962
   186.6,0.025997,0.015024,0.235950,0.000038,  25.923
   186.8,0.025951,0.014983,0.235859,0.000016,  25.887
   187.0,0.025908,0.014942,0.235786,0.000016,  25.838
   187.2,0.025865,0.014903,0.235681,0.000038,  25.805
   187.4,0.025808,0.014859,0.235589,0.000003,  25.764
   187.6,0.025765,0.014820,0.235472,0.000003,  25.728
   187.8,0.025713,0.014773,0.235303,0.000038,  25.693
   188.0,0.025650,0.014730,0.235123,-0.000011,  25.647
   188.2,0.025595,0.014681,0.234846,-0.000011,  25.619
   188.4,0.025532,0.014630,0.234480,0.000025,  25.590
   188.6,0.025476,0.014591,0.234077,-0.000024,  25.554
   188.8,0.025414,0.014542,0.233750,-0.000024,  25.513
   189.0,0.025364,0.014489,0.233449,0.000025,  25.473
   189.2,0.025314,0.014445,0.233147,-0.000011,  25.447
   189.4,0.025274,0.014399,0.232865,-0.000011,  25.416
   189.6,0.025237,0.014350,0.232538,0.000012,  25.384
   189.8,0.025181,0.014304,0.232186,-0.000011,  25.357
   190.0,0.025126,0.014257,0.231905,0.000012,  25.320
   190.2,0.025058,0.014213,0.231584,0.000034,  25.294
   190.4,0.024996,0.014176,0.231244,0.000012,  25.267
   190.6,0.024924,0.014135,0.230905,0.000034,  25.236
   190.8,0.024860,0.014084,0.230522,0.000034,  25.207
   191.0,0.024795,0.014040,0.230088,0.000012,  25.170
   191.2,0.024729,0.013997,0.229687,0.000034,  25.155
   191.4,0.024674,0.013950,0.229268,0.000034,  25.133
   191.6,0.024605,0.013909,0.228799,0.000012,  25.101
   191.8,0.024543,0.013869,0.228450,0.000034,  25.078
   192.0,0.024478,0.013823,0.228069,0.000034,  25.046
   192.2,0.024417,0.013786,0.227707,0.000012,  25.031
   192.4,0.024352,0.013742,0.227364,0.000034,  25.006
   192.6,0.024294,0.013696,0.227046,0.000021,  24.982
   192.8,0.024235,0.013661,0.226728,-0.000001,  24.959
   193.0,0.024163,0.013625,0.226291,0.000021,  24.927
   193.2,0.024108,0.013582,0.225818,0.000008,  24.908
   193.4,0.024046,0.013551,0.225316,0.000008,  24.896
   193.6,0.023981,0.013511,0.224938,-0.000028,  24.868
   193.8,0.023923,0.013477,0.224654,-0.000015,  24.846
   194.0,0.023861,0.013444,0.224388,0.000008,  24.823
   194.2,0.023792,0.013407,0.224198,-0.000015,  24.801
   194.4,0.023734,0.013382,0.223796,0.000021,  24.780
   194.6,0.023672,0.013346,0.223300,0.000008,  24.758
   194.8,0.023604,0.013297,0.222744,-0.000015,  24.732
   195.0,0.023549,0.013257,0.222232,0.000008,  24.704
   195.2,0.023477,0.013217,0.221702,0.000008,  24.687
   195.4,0.023409,0.013171,0.221137,-0.000015,  24.666
   195.6,0.023341,0.013137,0.220706,0.000008,  24.646
   195.8,0.023276,0.013095,0.220304,0.000008,  24.629
   196.0,0.023221,0.013058,0.219945,-0.000015,  24.596
   196.2,0.023159,0.013021,0.219515,0.000021,  24.575
   196.4,0.023090,0.012976,0.219000,0.000021,  24.555
   196.6,0.023036,0.012940,0.218442,-0.000001,  24.534
   196.8,0.022968,0.012899,0.217971,-0.000001,  24.516
   197.0,0.022899,0.012854,0.217493,-0.000001,  24.486
   197.2,0.022844,0.012810,0.217023,-0.000024,  24.467
   197.4,0.022783,0.012767,0.216535,-0.000024,  24.444
   197.6,0.022718,0.012725,0.215999,0.000012,  24.425
   197.8,0.022650,0.012684,0.215494,-0.000011,  24.404
   198.0,0.022583,0.012646,0.215026,-0.000011,  24.380
   198.2,0.022525,0.012604,0.214509,0.000012,  24.362
   198.4,0.022479,0.012569,0.214011,-0.000011,  24.338
   198.6,0.022430,0.012532,0.213488,-0.000011,  24.318
   198.8,0.022394,0.012490,0.212955,0.000012,  24.300
   199.0,0.022335,0.012448,0.212375,-0.000011,  24.273
   199.2,0.022271,0.012401,0.211854,-0.000011,  24.250
   199.4,0.022203,0.012357,0.211372,0.000012,  24.229
   199.6,0.022138,0.012312,0.210884,-0.000011,  24.209
   199.8,0.022067,0.012267,0.210431,-0.000011,  24.186
   200.0,0.022002,0.012220,0.209968,0.000012,  24.150
   200.2,0.021928,0.012171,0.209499,-0.000011,  24.139
   200.4,0.021860,0.012125,0.208940,-0.000011,  24.114
   200.6,0.021779,0.012082,0.208323,0.000012,  24.083
   200.8,0.021701,0.012034,0.207641,-0.000011,  24.062
   201.0,0.021635,0.011994,0.207071,-0.000011,  24.029
   201.2,0.021555,0.011948,0.206549,0.000012,  24.010
   201.4,0.021474,0.011899,0.206032,-0.000011,  23.985
   201.6,0.021407,0.011865,0.205453,-0.000011,  23.956
   201.8,0.021330,0.011819,0.204769,0.000025,  23.931
   202.0,0.021250,0.011768,0.204052,0.000038,  23.905
   202.2,0.021186,0.011722,0.203524,0.000038,  23.883
   202.4,0.021112,0.011677,0.203109,0.000038,  23.859
   202.6,0.021042,0.011643,0.202712,0.000025,  23.831
   202.8,0.020968,0.011606,0.202411,0.000025,  23.803
   203.0,0.020904,0.011573,0.201844,0.000025,  23.772
   203.2,0.020824,0.011527,0.201166,0.000025,  23.752
   203.4,0.020747,0.011489,0.200471,-0.000011,  23.725
   203.6,0.020670,0.011439,0.199853,-0.000011,  23.699
   203.8,0.020594,0.011391,0.199242,0.000025,  23.676
   204.0,0.020517,0.011344,0.198641,0.000003,  23.643
   204.2,0.020444,0.011298,0.197503,0.000003,  23.625
   204.4,0.020371,0.011249,0.196118,0.000038,  23.598
   204.6,0.020284,0.011208,0.194444,0.000016,  23.571
   204.8,0.020214,0.011165,0.193795,0.000016,  23.543
   205.0,0.020141,0.011118,0.193511,0.000038,  23.515
   205.2,0.020057,0.011085,0.193585,-0.000011,  23.495
   205.4,0.019988,0.011045,0.193215,-0.000011,  23.476
   205.6,0.019914,0.011004,0.192799,0.000025,  23.450
   205.8,0.019841,0.010962,0.192319,-0.000024,  23.420
   206.0,0.019774,0.010921,0.191848,-0.000024,  23.394
   206.2,0.019704,0.010875,0.191353,0.000025,  23.376
   206.4,0.019623,0.010833,0.190826,-0.000011,  23.347
   206.6,0.019553,0.010790,0.190300,-0.000011,  23.321
   206.8,0.019483,0.010748,0.189759,0.000025,  23.297
   207.0,0.019405,0.010707,0.189155,-0.000011,  23.264
   207.2,0.019342,0.010668,0.188591,-0.000011,  23.251
   207.4,0.019281,0.010624,0.188012,0.000025,  23.228
   207.6,0.019219,0.010583,0.187434,-0.000011,  23.202
   207.8,0.019174,0.010539,0.186827,-0.000011,  23.179
   208.0,0.019128,0.010496,0.186250,0.000025,  23.150
   208.2,0.019064,0.010455,0.185628,-0.000011,  23.129
   208.4,0.018990,0.010419,0.184968,-0.000011,  23.102
   208.6,0.018917,0.010378,0.184307,0.000025,  23.080
   208.8,0.018847,0.010339,0.183579,-0.000011,  23.063
   209.0,0.018773,0.010297,0.183038,-0.000011,  23.032
   209.2,0.018712,0.010253,0.182560,0.000025,  23.011
   209.4,0.018642,0.010217,0.182130,-0.000011,  22.987
   209.6,0.018568,0.010184,0.181537,-0.000011,  22.967
   209.8,0.018505,0.010144,0.180897,0.000025,  22.942
   210.0,0.018441,0.010105,0.180204,-0.000011,  22.914
   210.2,0.018377,0.010074,0.179690,-0.000011,  22.897
   210.4,0.018313,0.010041,0.179193,0.000025,  22.880
   210.6,0.018249,0.010006,0.178757,-0.000011,  22.852
   210.8,0.018188,0.009981,0.178236,0.000025,  22.834
   211.0,0.018124,0.009944,0.177671,0.000061,  22.806
   211.2,0.018063,0.009910,0.177068,0.000097,  22.789
   211.4,0.018002,0.009874,0.176594,0.000038,  22.770
   211.6,0.017944,0.009842,0.176173,0.000061,  22.744
   211.8,0.017883,0.009812,0.175775,0.000061,  22.715
   212.0,0.017809,0.009782,0.175422,0.000025,  22.685
   212.2,0.017742,0.009754,0.174512,0.000061,  22.667
   212.4,0.017678,0.009717,0.173386,0.000061,  22.641
   212.6,0.017604,0.009679,0.172069,0.000025,  22.616
   212.8,0.017538,0.009639,0.171483,0.000061,  22.593
   213.0,0.017471,0.009597,0.171144,0.000061,  22.564
   213.2,0.017400,0.009563,0.171031,0.000038,  22.541
   213.4,0.017337,0.009524,0.170550,0.000074,  22.517
   213.6,0.017270,0.009477,0.169995,0.000074,  22.493
   213.8,0.017200,0.009441,0.169351,0.000052,  22.470
   214.0,0.017137,0.009398,0.168827,0.000101,  22.436
   214.2,0.017070,0.009349,0.168326,0.000087,  22.414
   214.4,0.017000,0.009308,0.167855,0.000052,  22.392
   214.6,0.016927,0.009267,0.167371,0.000101,  22.365
   214.8,0.016857,0.009221,0.166865,0.000087,  22.344
   215.0,0.016784,0.009177,0.166351,0.000052,  22.313
   215.2,0.016708,0.009134,0.165853,0.000101,  22.286
   215.4,0.016639,0.009086,0.165327,0.000101,  22.263
   215.6,0.016556,0.009042,0.164815,0.000065,  22.240
   215.8,0.016480,0.009002,0.164032,0.000101,  22.219
   216.0,0.016404,0.008953,0.163096,0.000101,  22.186
   216.2,0.016332,0.008913,0.162038,0.000065,  22.161
   216.4,0.016264,0.008874,0.161392,0.000114,  22.137
   216.6,0.016197,0.008831,0.160878,0.000114,  22.116
   216.8,0.016135,0.008790,0.160509,0.000078,  22.089
   217.0,0.016081,0.008755,0.160026,0.000114,  22.060
   217.2,0.016028,0.008709,0.159564,0.000101,  22.043
   217.4,0.015961,0.008666,0.159103,0.000065,  22.018
   217.6,0.015889,0.008630,0.158606,0.000065,  21.995
   217.8,0.015817,0.008594,0.158088,0.000065,  21.967
   218.0,0.015750,0.008560,0.157505,0.000029,  21.937
   218.2,0.015673,0.008528,0.156901,0.000029,  21.917
   218.4,0.015610,0.008494,0.156262,0.000065,  21.895
   218.6,0.015544,0.008450,0.155574,0.000029,  21.873
   218.8,0.015467,0.008408,0.154952,0.000029,  21.849
   219.0,0.015401,0.008366,0.154330,0.000052,  21.823
   219.2,0.015335,0.008328,0.153738,0.000016,  21.811
   219.4,0.015258,0.008289,0.152868,0.000029,  21.784
   219.6,0.015198,0.008245,0.151851,0.000052,  21.759
   219.8,0.015129,0.008206,0.150730,0.000016,  21.739
   220.0,0.015052,0.008170,0.150207,0.000029,  21.709
   220.2,0.014979,0.008129,0.149876,0.000052,  21.692
   220.4,0.014910,0.008090,0.149799,0.000052,  21.669
   220.6,0.014833,0.008055,0.149326,0.000065,  21.651
   220.8,0.014764,0.008024,0.148762,0.000052,  21.627
   221.0,0.014690,0.007992,0.148114,0.000052,  21.599
   221.2,0.014620,0.007960,0.147664,0.000065,  21.581
   221.4,0.014551,0.007939,0.147285,0.000065,  21.562
   221.6,0.014474,0.007902,0.146955,0.000065,  21.536
   221.8,0.014412,0.007862,0.146681,0.000029,  21.515
   222.0,0.014336,0.007820,0.146051,0.000029,  21.490
   222.2,0.014260,0.007783,0.145330,0.000065,  21.472
   222.4,0.014200,0.007743,0.144520,0.000029,  21.446
   222.6,0.014134,0.007713,0.143948,0.000029,  21.426
   222.8,0.014060,0.007678,0.143453,0.000052,  21.407
   223.0,0.014001,0.007644,0.143022,0.000016,  21.378
   223.2,0.013934,0.007618,0.142466,0.000029,  21.364
   223.4,0.013861,0.007581,0.141904,0.000052,  21.337
   223.6,0.013801,0.007541,0.141308,0.000016,  21.318
   223.8,0.013732,0.007506,0.140781,0.000029,  21.296
   224.0,0.013666,0.007470,0.140221,0.000065,  21.265
   224.2,0.013602,0.007438,0.139669,0.000029,  21.249
   224.4,0.013549,0.007409,0.138815,0.000029,  21.228
   224.6,0.013485,0.007374,0.137825,0.000065,  21.205
   224.8,0.013422,0.007339,0.136681,0.000029,  21.185
   225.0,0.013363,0.007306,0.135513,0.000042,  21.153
   225.2,0.013305,0.007271,0.134308,0.000078,  21.141
   225.4,0.013238,0.007237,0.133019,0.000042,  21.119
   225.6,0.013175,0.007203,0.132679,0.000056,  21.096
   225.8,0.013123,0.007170,0.132765,0.000078,  21.076
   226.0,0.013075,0.007138,0.133236,0.000042,  21.052
   226.2,0.013033,0.007102,0.133105,0.000056,  21.035
   226.4,0.012995,0.007068,0.132920,0.000078,  21.011
   226.6,0.012938,0.007034,0.132594,0.000042,  20.991
   226.8,0.012877,0.006997,0.132240,0.000056,  20.972
   227.0,0.012807,0.006965,0.131833,0.000078,  20.952
   227.2,0.012743,0.006932,0.131352,0.000042,  20.931
   227.4,0.012686,0.006907,0.130449,0.000056,  20.911
   227.6,0.012625,0.006882,0.129279,0.000078,  20.893
   227.8,0.012568,0.006852,0.127893,0.000042,  20.874
   228.0,0.012514,0.006825,0.127483,0.000042,  20.848
   228.2,0.012461,0.006795,0.127434,0.000065,  20.837
   228.4,0.012410,0.006765,0.127723,0.000029,  20.815
   228.6,0.012351,0.006736,0.127580,0.000029,  20.797
   228.8,0.012310,0.006708,0.127417,0.000052,  20.776
   229.0,0.012262,0.006684,0.127181,0.000016,  20.754
   229.2,0.012201,0.006657,0.126839,0.000052,  20.741
   229.4,0.012154,0.006632,0.126450,0.000074,  20.719
   229.6,0.012103,0.006605,0.125968,0.000110,  20.699
   229.8,0.012045,0.006583,0.125573,0.000038,  20.678
   230.0,0.012000,0.006560,0.125166,0.000074,  20.655
   230.2,0.011955,0.006536,0.124731,0.000074,  20.642
   230.4,0.011900,0.006514,0.124384,0.000038,  20.627
   230.6,0.011862,0.006498,0.124078,0.000074,  20.603
   230.8,0.011820,0.006480,0.123771,0.000074,  20.583
   231.0,0.011768,0.006460,0.123532,0.000038,  20.565
   231.2,0.011730,0.006447,0.123219,0.000074,  20.550
   231.4,0.011691,0.006427,0.122886,0.000074,  20.530
   231.6,0.011639,0.006404,0.122526,0.000038,  20.507
   231.8,0.011601,0.006384,0.122121,0.000087,  20.488
   232.0,0.011562,0.006361,0.121691,0.000087,  20.464
   232.2,0.011513,0.006339,0.121216,0.000052,  20.452
   232.4,0.011478,0.006324,0.120832,0.000101,  20.435
   232.6,0.011436,0.006303,0.120481,0.000087,  20.416
   232.8,0.011384,0.006278,0.120110,0.000052,  20.396
   233.0,0.011348,0.006263,0.119682,0.000101,  20.369
   233.2,0.011309,0.006244,0.119209,0.000101,  20.359
   233.4,0.011263,0.006220,0.118684,0.000065,  20.344
   233.6,0.011231,0.006196,0.118290,0.000101,  20.318
   233.8,0.011192,0.006177,0.117935,0.000101,  20.303
   234.0,0.011150,0.006159,0.117613,0.000065,  20.283
   234.2,0.011109,0.006137,0.117232,0.000114,  20.262
   234.4,0.011070,0.006111,0.116871,0.000114,  20.247
   234.6,0.011027,0.006095,0.116518,0.000091,  20.230
   234.8,0.010988,0.006076,0.115945,0.000127,  20.213
   235.0,0.010958,0.006054,0.115269,0.000127,  20.189
   235.2,0.010924,0.006028,0.114517,0.000105,  20.169
   235.4,0.010904,0.006008,0.114114,0.000127,  20.148
   235.6,0.010880,0.005990,0.113815,0.000127,  20.129
   235.8,0.010844,0.005965,0.113638,0.000105,  20.114
   236.0,0.010802,0.005941,0.113376,0.000127,  20.087
   236.2,0.010760,0.005923,0.113107,0.000127,  20.069
   236.4,0.010718,0.005898,0.112858,0.000105,  20.048
   236.6,0.010669,0.005882,0.112193,0.000140,  20.027
   236.8,0.010634,0.005865,0.111338,0.000140,  20.007
   237.0,0.010595,0.005843,0.110288,0.000118,  19.981
   237.2,0.010550,0.005826,0.109894,0.000118,  19.964
   237.4,0.010515,0.005805,0.109736,0.000118,  19.942
   237.6,0.010479,0.005788,0.109821,0.000095,  19.921
   237.8,0.010436,0.005764,0.109556,0.000082,  19.900
   238.0,0.010407,0.005741,0.109240,0.000118,  19.875
   238.2,0.010374,0.005720,0.108842,0.000095,  19.859
   238.4,0.010328,0.005701,0.108589,0.000095,  19.841
   238.6,0.010293,0.005683,0.108357,0.000131,  19.819
   238.8,0.010257,0.005660,0.108110,0.000109,  19.800
   239.0,0.010214,0.005647,0.107819,0.000109,  19.771
   239.2,0.010179,0.005626,0.107505,0.000131,  19.756
   239.4,0.010143,0.005607,0.107132,0.000131,  19.737
   239.6,0.010107,0.005587,0.106825,0.000144,  19.719
   239.8,0.010075,0.005573,0.106530,0.000131,  19.697
   240.0,0.010039,0.005557,0.106250,0.000131,  19.675
   240.2,0.009999,0.005548,0.105988,0.000144,  19.658
   240.4,0.009964,0.005544,0.105644,0.000144,  19.638
   240.6,0.009931,0.005528,0.105287,0.000131,  19.620
   240.8,0.009894,0.005515,0.104924,0.000109,  19.601
   241.0,0.009871,0.005500,0.104585,0.000109,  19.580
   241.2,0.009841,0.005486,0.104279,0.000131,  19.563
   241.4,0.009804,0.005468,0.103974,0.000109,  19.543
   241.6,0.009784,0.005454,0.103693,0.000109,  19.526
   241.8,0.009757,0.005441,0.103412,0.000131,  19.508
   242.0,0.009727,0.005422,0.103158,0.000109,  19.482
   242.2,0.009708,0.005406,0.102896,0.000109,  19.469
   242.4,0.009684,0.005395,0.102623,0.000144,  19.449
   242.6,0.009650,0.005379,0.102350,0.000122,  19.428
   242.8,0.009623,0.005370,0.102046,0.000122,  19.411
   243.0,0.009600,0.005356,0.101692,0.000158,  19.389
   243.2,0.009570,0.005338,0.101334,0.000135,  19.374
   243.4,0.009543,0.005325,0.101038,0.000171,  19.353
   243.6,0.009519,0.005311,0.100742,0.000193,  19.340
   243.8,0.009489,0.005296,0.100427,0.000158,  19.319
   244.0,0.009462,0.005279,0.100131,0.000193,  19.299
   244.2,0.009438,0.005266,0.099843,0.000193,  19.285
   244.4,0.009417,0.005253,0.099517,0.000158,  19.269
   244.6,0.009399,0.005239,0.099296,0.000193,  19.249
   244.8,0.009381,0.005220,0.099112,0.000193,  19.237
   245.0,0.009360,0.005202,0.098971,0.000158,  19.214
   245.2,0.009336,0.005194,0.098787,0.000193,  19.207
   245.4,0.009303,0.005189,0.098554,0.000193,  19.188
   245.6,0.009282,0.005176,0.098335,0.000180,  19.175
   245.8,0.009248,0.005175,0.097424,0.000180,  19.155
   246.0,0.009228,0.005162,0.096192,0.000216,  19.138
   246.2,0.009200,0.005153,0.094592,0.000203,  19.127
   246.4,0.009179,0.005140,0.094391,0.000167,  19.107
   246.6,0.009155,0.005121,0.094718,0.000216,  19.095
   246.8,0.009127,0.005108,0.095570,0.000180,  19.079
   247.0,0.009110,0.005102,0.095671,0.000180,  19.058
   247.2,0.009087,0.005087,0.095643,0.000180,  19.047
   247.4,0.009066,0.005076,0.095482,0.000144,  19.033
   247.6,0.009045,0.005067,0.095417,0.000180,  19.018
   247.8,0.009028,0.005052,0.095363,0.000180,  18.999
   248.0,0.009007,0.005038,0.095260,0.000158,  18.977
   248.2,0.008976,0.005026,0.095127,0.000193,  18.964
   248.4,0.008959,0.005010,0.094982,0.000193,  18.949
   248.6,0.008935,0.004998,0.094814,0.000193,  18.933
   248.8,0.008907,0.004985,0.094646,0.000171,  18.918
   249.0,0.008887,0.004979,0.094460,0.000184,  18.899
   249.2,0.008864,0.004961,0.094280,0.000220,  18.888
   249.4,0.008836,0.004954,0.094089,0.000197,  18.872
   249.6,0.008822,0.004937,0.093884,0.000233,  18.860
   249.8,0.008795,0.004923,0.093649,0.000233,  18.844
   250.0,0.008761,0.004912,0.093395,0.000197,  18.825
   250.2,0.008741,0.004893,0.093141,0.000246,  18.814
   250.4,0.008714,0.004876,0.092876,0.000233,  18.803
   250.6,0.008681,0.004865,0.092600,0.000197,  18.784
   250.8,0.008658,0.004849,0.091995,0.000246,  18.770
   251.0,0.008634,0.004835,0.091215,0.000233,  18.754
   251.2,0.008600,0.004815,0.090254,0.000197,  18.744
   251.4,0.008577,0.004797,0.090067,0.000246,  18.732
   251.6,0.008553,0.004774,0.090177,0.000233,  18.717
   251.8,0.008519,0.004759,0.090571,0.000197,  18.701
   252.0,0.008497,0.004751,0.090585,0.000246,  18.687
   252.2,0.008473,0.004732,0.090520,0.000233,  18.678
   252.4,0.008436,0.004718,0.090395,0.000197,  18.665
   252.6,0.008413,0.004709,0.090270,0.000246,  18.649
   252.8,0.008389,0.004688,0.090123,0.000233,  18.637
   253.0,0.008352,0.004675,0.089908,0.000197,  18.621
   253.2,0.008333,0.004660,0.089746,0.000246,  18.607
   253.4,0.008309,0.004642,0.089622,0.000233,  18.598
   253.6,0.008284,0.004627,0.089497,0.000197,  18.580
   253.8,0.008270,0.004614,0.089365,0.000233,  18.570
   254.0,0.008252,0.004599,0.089252,0.000220,  18.553
   254.2,0.008228,0.004585,0.089150,0.000184,  18.542
   254.4,0.008201,0.004571,0.088941,0.000220,  18.529
   254.6,0.008169,0.004556,0.088660,0.000220,  18.520
   254.8,0.008145,0.004542,0.088327,0.000184,  18.507
   255.0,0.008118,0.004529,0.088106,0.000220,  18.492
   255.2,0.008095,0.004515,0.087897,0.000220,  18.482
   255.4,0.008071,0.004501,0.087738,0.000184,  18.467
   255.6,0.008044,0.004489,0.087536,0.000220,  18.456
   255.8,0.008018,0.004475,0.087327,0.000220,  18.443
   256.0,0.007994,0.004464,0.087126,0.000184,  18.426
   256.2,0.007967,0.004446,0.086912,0.000220,  18.419
   256.4,0.007940,0.004430,0.086645,0.000220,  18.406
   256.6,0.007919,0.004419,0.086365,0.000184,  18.393
   256.8,0.007888,0.004405,0.086127,0.000220,  18.383
   257.0,0.007862,0.004394,0.085915,0.000220,  18.368
   257.2,0.007838,0.004378,0.085702,0.000220,  18.362
   257.4,0.007807,0.004370,0.085508,0.000184,  18.349
   257.6,0.007784,0.004358,0.085307,0.000197,  18.334
   257.8,0.007760,0.004344,0.085150,0.000220,  18.326
   258.0,0.007733,0.004338,0.084981,0.000197,  18.312
   258.2,0.007719,0.004329,0.084512,0.000233,  18.300
   258.4,0.007695,0.004315,0.083908,0.000220,  18.289
   258.6,0.007668,0.004306,0.083203,0.000184,  18.278
   258.8,0.007648,0.004292,0.082802,0.000233,  18.266
   259.0,0.007624,0.004273,0.082471,0.000233,  18.255
   259.2,0.007601,0.004264,0.082224,0.000211,  18.243
   259.4,0.007574,0.004249,0.081853,0.000246,  18.236
   259.6,0.007550,0.004231,0.081483,0.000246,  18.226
   259.8,0.007522,0.004220,0.081066,0.000224,  18.209
   260.0,0.007493,0.004206,0.081002,0.000246,  18.196
   260.2,0.007462,0.004192,0.081116,0.000246,  18.191
   260.4,0.007438,0.004181,0.081389,0.000224,  18.180
   260.6,0.007414,0.004170,0.081449,0.000246,  18.168
   260.8,0.007383,0.004155,0.081480,0.000246,  18.153
   261.0,0.007364,0.004146,0.081506,0.000211,  18.140
   261.2,0.007337,0.004138,0.081496,0.000246,  18.139
   261.4,0.007309,0.004124,0.081443,0.000233,  18.127
   261.6,0.007292,0.004110,0.081368,0.000197,  18.118
   261.8,0.007268,0.004101,0.081281,0.000246,  18.102
   262.0,0.007248,0.004084,0.081177,0.000233,  18.089
   262.2,0.007233,0.004071,0.081014,0.000197,  18.081
   262.4,0.007222,0.004060,0.080862,0.000246,  18.070
   262.6,0.007207,0.004041,0.080700,0.000233,  18.061
   262.8,0.007189,0.004035,0.080490,0.000197,  18.045
   263.0,0.007158,0.004027,0.080331,0.000246,  18.032
   263.2,0.007135,0.004010,0.080216,0.000233,  18.026
   263.4,0.007114,0.004006,0.080083,0.000197,  18.016
   263.6,0.007093,0.003995,0.079942,0.000246,  18.005
   263.8,0.007076,0.003981,0.079809,0.000233,  17.998
   264.0,0.007051,0.003975,0.079658,0.000197,  17.983
   264.2,0.007030,0.003963,0.079495,0.000246,  17.975
   264.4,0.007013,0.003948,0.079311,0.000233,  17.970
   264.6,0.006988,0.003945,0.079073,0.000197,  17.957
   264.8,0.006974,0.003935,0.078911,0.000233,  17.951
   265.0,0.006950,0.003926,0.078760,0.000207,  17.932
   265.2,0.006928,0.003910,0.078634,0.000171,  17.929
   265.4,0.006911,0.003902,0.078414,0.000220,  17.919
   265.6,0.006893,0.003890,0.078147,0.000220,  17.910
   265.8,0.006868,0.003879,0.077841,0.000220,  17.895
   266.0,0.006854,0.003868,0.077686,0.000197,  17.889
   266.2,0.006840,0.003864,0.077547,0.000197,  17.885
   266.4,0.006815,0.003852,0.077479,0.000220,  17.870
   266.6,0.006798,0.003850,0.077451,0.000197,  17.863
   266.8,0.006780,0.003841,0.077329,0.000220,  17.857
   267.0,0.006755,0.003832,0.077190,0.000207,  17.846
   267.2,0.006737,0.003823,0.077047,0.000171,  17.841
   267.4,0.006723,0.003812,0.076687,0.000220,  17.827
   267.6,0.006699,0.003796,0.076224,0.000207,  17.817
   267.8,0.006684,0.003790,0.075615,0.000171,  17.803
   268.0,0.006670,0.003777,0.075407,0.000220,  17.798
   268.2,0.006645,0.003763,0.075322,0.000207,  17.788
   268.4,0.006634,0.003759,0.075376,0.000171,  17.781
   268.6,0.006620,0.003750,0.075284,0.000220,  17.772
   268.8,0.006596,0.003740,0.075192,0.000207,  17.763
   269.0,0.006585,0.003729,0.075095,0.000171,  17.749
   269.2,0.006567,0.003719,0.074946,0.000220,  17.741
   269.4,0.006542,0.003709,0.074767,0.000207,  17.733
   269.6,0.006534,0.003698,0.074550,0.000171,  17.728
   269.8,0.006519,0.003698,0.074371,0.000220,  17.719
   270.0,0.006498,0.003691,0.074200,0.000220,  17.704
   270.2,0.006490,0.003686,0.073994,0.000184,  17.697
   270.4,0.006475,0.003688,0.073844,0.000220,  17.682
   270.6,0.006456,0.003683,0.073724,0.000220,  17.674
   270.8,0.006447,0.003680,0.073603,0.000184,  17.665
   271.0,0.006435,0.003671,0.073414,0.000220,  17.648
   271.2,0.006426,0.003666,0.073197,0.000207,  17.638
   271.4,0.006415,0.003662,0.072916,0.000171,  17.629
   271.6,0.006402,0.003658,0.072710,0.000220,  17.616
   271.8,0.006397,0.003653,0.072497,0.000220,  17.608
   272.0,0.006381,0.003647,0.072302,0.000184,  17.591
   272.2,0.006372,0.003645,0.072157,0.000233,  17.582
   272.4,0.006363,0.003644,0.072048,0.000233,  17.570
   272.6,0.006347,0.003633,0.071949,0.000197,  17.559
   272.8,0.006342,0.003633,0.071811,0.000246,  17.547
   273.0,0.006330,0.003626,0.071652,0.000233,  17.535
   273.2,0.006318,0.003619,0.071446,0.000211,  17.525
   273.4,0.006310,0.003616,0.071085,0.000246,  17.513
   273.6,0.006298,0.003606,0.070622,0.000246,  17.499
   273.8,0.006282,0.003601,0.070074,0.000224,  17.487
   274.0,0.006284,0.003598,0.069887,0.000246,  17.472
   274.2,0.006276,0.003593,0.069802,0.000246,  17.464
   274.4,0.006260,0.003593,0.069873,0.000224,  17.455
   274.6,0.006258,0.003596,0.069828,0.000246,  17.440
   274.8,0.006246,0.003599,0.069789,0.000246,  17.431
   275.0,0.006228,0.003594,0.069768,0.000211,  17.418
   275.2,0.006226,0.003592,0.069694,0.000224,  17.407
   275.4,0.006217,0.003593,0.069617,0.000188,  17.395
   275.6,0.006201,0.003594,0.069504,0.000224,  17.383
   275.8,0.006198,0.003585,0.069409,0.000224,  17.375
   276.0,0.006195,0.003588,0.069349,0.000224,  17.363
   276.2,0.006185,0.003578,0.069261,0.000237,  17.352
   276.4,0.006179,0.003582,0.069208,0.000215,  17.344
   276.6,0.006177,0.003582,0.069103,0.000201,  17.332
   276.8,0.006167,0.003582,0.068951,0.000237,  17.321
   277.0,0.006158,0.003574,0.068824,0.000215,  17.301
   277.2,0.006159,0.003572,0.068828,0.000215,  17.297
   277.4,0.006149,0.003565,0.068881,0.000250,  17.286
   277.6,0.006146,0.003563,0.068998,0.000228,  17.279
   277.8,0.006147,0.003561,0.068903,0.000228,  17.266
   278.0,0.006135,0.003552,0.068751,0.000264,  17.251
   278.2,0.006129,0.003550,0.068505,0.000228,  17.247
   278.4,0.006130,0.003543,0.068343,0.000228,  17.237
   278.6,0.006114,0.003532,0.068153,0.000264,  17.226
   278.8,0.006105,0.003531,0.067963,0.000228,  17.215
   279.0,0.006103,0.003522,0.067865,0.000264,  17.206
   279.2,0.006087,0.003512,0.067795,0.000299,  17.196
   279.4,0.006082,0.003510,0.067753,0.000277,  17.187
   279.6,0.006077,0.003503,0.067118,0.000313,  17.180
   279.8,0.006061,0.003493,0.066183,0.000313,  17.170
   280.0,0.006057,0.003488,0.065004,0.000290,  17.160
   280.2,0.006042,0.003485,0.064294,0.000326,  17.155
   280.4,0.006026,0.003477,0.063673,0.000313,  17.141
   280.6,0.006027,0.003469,0.063160,0.000264,  17.139
   280.8,0.006015,0.003467,0.063336,0.000299,  17.127
   281.0,0.006009,0.003463,0.063909,0.000299,  17.123
   281.2,0.005993,0.003466,0.064872,0.000250,  17.116
   281.4,0.005987,0.003463,0.065237,0.000286,  17.106
   281.6,0.005971,0.003463,0.065485,0.000299,  17.101
   281.8,0.005963,0.003457,0.065632,0.000264,  17.092
   282.0,0.005961,0.003455,0.065817,0.000299,  17.080
   282.2,0.005952,0.003453,0.065991,0.000299,  17.072
   282.4,0.005939,0.003450,0.066114,0.000264,  17.068
   282.6,0.005940,0.003448,0.066145,0.000299,  17.058
   282.8,0.005941,0.003441,0.066128,0.000299,  17.052
   283.0,0.005931,0.003441,0.066037,0.000264,  17.042
   283.2,0.005935,0.003438,0.066033,0.000299,  17.040
   283.4,0.005929,0.003434,0.066037,0.000299,  17.031
   283.6,0.005926,0.003427,0.066033,0.000277,  17.025
   283.8,0.005920,0.003426,0.065974,0.000313,  17.016
   284.0,0.005918,0.003414,0.065859,0.000313,  17.002
   284.2,0.005905,0.003415,0.065740,0.000313,  17.003
   284.4,0.005899,0.003412,0.065715,0.000290,  16.997
   284.6,0.005896,0.003409,0.065666,0.000277,  16.984
   284.8,0.005884,0.003404,0.065670,0.000313,  16.976
   285.0,0.005885,0.003401,0.065645,0.000290,  16.968
   285.2,0.005876,0.003403,0.065638,0.000313,  16.964
   285.4,0.005873,0.003398,0.065597,0.000313,  16.961
   285.6,0.005867,0.003402,0.065572,0.000277,  16.957
   285.8,0.005865,0.003396,0.065631,0.000313,  16.949
   286.0,0.005859,0.003388,0.065743,0.000313,  16.937
   286.2,0.005843,0.003389,0.065876,0.000277,  16.933
   286.4,0.005841,0.003384,0.065796,0.000313,  16.928
   286.6,0.005835,0.003377,0.065604,0.000313,  16.924
   286.8,0.005816,0.003369,0.065321,0.000277,  16.917
   287.0,0.005811,0.003363,0.065261,0.000313,  16.907
   287.2,0.005806,0.003355,0.065237,0.000313,  16.903
   287.4,0.005787,0.003344,0.065286,0.000277,  16.902
   287.6,0.005785,0.003345,0.065251,0.000313,  16.893
   287.8,0.005772,0.003343,0.065181,0.000313,  16.889
   288.0,0.005766,0.003335,0.065101,0.000277,  16.881
   288.2,0.005760,0.003336,0.065056,0.000313,  16.873
   288.4,0.005747,0.003334,0.065021,0.000313,  16.867
   288.6,0.005745,0.003330,0.064961,0.000277,  16.867
   288.8,0.005736,0.003325,0.064446,0.000326,  16.863
   289.0,0.005727,0.003317,0.063705,0.000326,  16.856
   289.2,0.005722,0.003315,0.062738,0.000290,  16.851
   289.4,0.005716,0.003307,0.062679,0.000339,  16.846
   289.6,0.005707,0.003300,0.062963,0.000326,  16.838
   289.8,0.005701,0.003291,0.063604,0.000290,  16.832
   290.0,0.005692,0.003284,0.063750,0.000339,  16.826
   290.2,0.005673,0.003280,0.063788,0.000326,  16.820
   290.4,0.005660,0.003268,0.063750,0.000290,  16.817
   290.6,0.005648,0.003259,0.063823,0.000339,  16.815
   290.8,0.005643,0.003257,0.063879,0.000326,  16.808
   291.0,0.005631,0.003247,0.063934,0.000290,  16.801
   291.2,0.005623,0.003243,0.063993,0.000339,  16.794
   291.4,0.005618,0.003237,0.064070,0.000326,  16.791
   291.6,0.005606,0.003231,0.064104,0.000290,  16.782
   291.8,0.005599,0.003226,0.064063,0.000326,  16.778
   292.0,0.005592,0.003217,0.063955,0.000313,  16.775
   292.2,0.005583,0.003215,0.063802,0.000277,  16.769
   292.4,0.005565,0.003213,0.063778,0.000313,  16.764
   292.6,0.005559,0.003210,0.063764,0.000313,  16.759
   292.8,0.005553,0.003201,0.063784,0.000277,  16.755
   293.0,0.005537,0.003197,0.063743,0.000313,  16.749
   293.2,0.005528,0.003190,0.063652,0.000313,  16.746
   293.4,0.005519,0.003185,0.063527,0.000313,  16.742
   293.6,0.005510,0.003181,0.063475,0.000290,  16.737
   293.8,0.005495,0.003181,0.063433,0.000277,  16.729
   294.0,0.005483,0.003171,0.063381,0.000313,  16.725
   294.2,0.005474,0.003169,0.063364,0.000290,  16.722
   294.4,0.005458,0.003166,0.063301,0.000313,  16.717
   294.6,0.005442,0.003164,0.063204,0.000313,  16.714
   294.8,0.005437,0.003155,0.063079,0.000277,  16.709
   295.0,0.005422,0.003144,0.063003,0.000313,  16.700
   295.2,0.005410,0.003132,0.062961,0.000313,  16.699
   295.4,0.005402,0.003130,0.062919,0.000277,  16.693
   295.6,0.005394,0.003126,0.062833,0.000313,  16.688
   295.8,0.005385,0.003112,0.062746,0.000313,  16.688
   296.0,0.005366,0.003108,0.062614,0.000277,  16.685
   296.2,0.005361,0.003104,0.062528,0.000290,  16.680
   296.4,0.005352,0.003095,0.062451,0.000290,  16.678
   296.6,0.005333,0.003085,0.062389,0.000254,  16.668
   296.8,0.005326,0.003080,0.062264,0.000268,  16.664
   297.0,0.005317,0.003069,0.062077,0.000290,  16.655
   297.2,0.005298,0.003063,0.061894,0.000254,  16.651
   297.4,0.005293,0.003053,0.061455,0.000254,  16.645
   297.6,0.005281,0.003039,0.060876,0.000277,  16.645
   297.8,0.005268,0.003037,0.060153,0.000241,  16.640
   298.0,0.005259,0.003032,0.060049,0.000241,  16.633
   298.2,0.005251,0.003026,0.060197,0.000277,  16.629
   298.4,0.005239,0.003026,0.060603,0.000228,  16.628
   298.6,0.005234,0.003019,0.060651,0.000228,  16.615
   298.8,0.005219,0.003015,0.060671,0.000264,  16.614
   299.0,0.005210,0.003008,0.060637,0.000215,  16.610
   299.2,0.005194,0.003004,0.060657,0.000215,  16.605
   299.4,0.005192,0.002991,0.060650,0.000264,  16.604
   299.6,0.005177,0.002989,0.060619,0.000228,  16.600
   299.8,0.005168,0.002989,0.060616,0.000228,  16.589
   300.0,0.005159,0.002982,0.060619,0.000264,  16.584
   300.2,0.005143,0.002974,0.060622,0.000228,  16.581
   300.4,0.005141,0.002975,0.060636,0.000215,  16.576
   300.6,0.005129,0.002971,0.060649,0.000237,  16.573
   300.8,0.005113,0.002963,0.060646,0.000215,  16.562
   301.0,0.005114,0.002960,0.060649,0.000201,  16.558
   301.2,0.005105,0.002955,0.060645,0.000237,  16.556
   301.4,0.005097,0.002953,0.060597,0.000237,  16.551
   301.6,0.005088,0.002948,0.060538,0.000250,  16.545
   301.8,0.005083,0.002944,0.060469,0.000237,  16.544
   302.0,0.005074,0.002942,0.060372,0.000237,  16.537
   302.2,0.005061,0.002941,0.060097,0.000237,  16.532
   302.4,0.005059,0.002936,0.059715,0.000237,  16.521
   302.6,0.005050,0.002936,0.059258,0.000237,  16.523
   302.8,0.005037,0.002932,0.058661,0.000215,  16.515
   303.0,0.005035,0.002932,0.058603,0.000201,  16.513
   303.2,0.005030,0.002927,0.058695,0.000237,  16.507
   303.4,0.005017,0.002923,0.058904,0.000215,  16.501
   303.6,0.005015,0.002916,0.058918,0.000201,  16.496
   303.8,0.005009,0.002911,0.058904,0.000237,  16.490
   304.0,0.004993,0.002908,0.058842,0.000215,  16.486
   304.2,0.004991,0.002913,0.058811,0.000237,  16.479
   304.4,0.004988,0.002908,0.058769,0.000260,  16.473
   304.6,0.004972,0.002908,0.058711,0.000237,  16.467
   304.8,0.004973,0.002907,0.058652,0.000273,  16.459
   305.0,0.004970,0.002904,0.058576,0.000260,  16.454
   305.2,0.004960,0.002901,0.058515,0.000237,  16.450
   305.4,0.004962,0.002902,0.058473,0.000273,  16.439
   305.6,0.004959,0.002899,0.058442,0.000260,  16.435
   305.8,0.004949,0.002906,0.058411,0.000237,  16.433
   306.0,0.004953,0.002910,0.058353,0.000273,  16.419
   306.2,0.004946,0.002913,0.058284,0.000260,  16.417
   306.4,0.004946,0.002915,0.058181,0.000237,  16.412
   306.6,0.004946,0.002920,0.058126,0.000273,  16.402
   306.8,0.004946,0.002923,0.058095,0.000260,  16.401
   307.0,0.004942,0.002924,0.058063,0.000237,  16.392
   307.2,0.004942,0.002927,0.057926,0.000273,  16.384
   307.4,0.004945,0.002927,0.057758,0.000260,  16.375
   307.6,0.004948,0.002925,0.057553,0.000237,  16.368
   307.8,0.004948,0.002933,0.057488,0.000286,  16.363
   308.0,0.004955,0.002935,0.057457,0.000286,  16.360
   308.2,0.004951,0.002932,0.057463,0.000264,  16.356
   308.4,0.004958,0.002934,0.056988,0.000299,  16.348
   308.6,0.004955,0.002934,0.056316,0.000299,  16.339
   308.8,0.004951,0.002932,0.055439,0.000264,  16.331
   309.0,0.004955,0.002930,0.055337,0.000299,  16.326
   309.2,0.004952,0.002933,0.055517,0.000299,  16.320
   309.4,0.004949,0.002934,0.056013,0.000277,  16.316
   309.6,0.004954,0.002932,0.056105,0.000326,  16.308
   309.8,0.004956,0.002937,0.056132,0.000326,  16.304
   310.0,0.004959,0.002933,0.056087,0.000303,  16.294
   310.2,0.004955,0.002934,0.056108,0.000352,  16.292
   310.4,0.004954,0.002934,0.056128,0.000326,  16.289
   310.6,0.004957,0.002934,0.056131,0.000326,  16.279
   310.8,0.004960,0.002942,0.056141,0.000339,  16.273
   311.0,0.004957,0.002943,0.056117,0.000362,  16.265
   311.2,0.004957,0.002942,0.056110,0.000375,  16.262
   311.4,0.004953,0.002943,0.056147,0.000339,  16.259
   311.6,0.004953,0.002940,0.056212,0.000388,  16.254
   311.8,0.004949,0.002942,0.056276,0.000375,  16.245
   312.0,0.004949,0.002940,0.056368,0.000339,  16.241
   312.2,0.004952,0.002939,0.056351,0.000375,  16.234
   312.4,0.004948,0.002933,0.056279,0.000375,  16.231
   312.6,0.004948,0.002933,0.056146,0.000375,  16.222
   312.8,0.004941,0.002928,0.056031,0.000352,  16.220
   313.0,0.004937,0.002924,0.055881,0.000388,  16.212
   313.2,0.004941,0.002927,0.055694,0.000352,  16.208
   313.4,0.004945,0.002930,0.055670,0.000366,  16.207
   313.6,0.004938,0.002925,0.055697,0.000352,  16.198
   313.8,0.004935,0.002924,0.055789,0.000317,  16.193
   314.0,0.004936,0.002916,0.055863,0.000366,  16.191
   314.2,0.004926,0.002914,0.055928,0.000352,  16.181
   314.4,0.004923,0.002912,0.056009,0.000317,  16.178
   314.6,0.004924,0.002913,0.055958,0.000366,  16.171
   314.8,0.004917,0.002911,0.055825,0.000352,  16.170
   315.0,0.004911,0.002909,0.055611,0.000352,  16.165
   315.2,0.004918,0.002901,0.055604,0.000352,  16.160
   315.4,0.004908,0.002892,0.055651,0.000375,  16.156
   315.6,0.004899,0.002885,0.055750,0.000339,  16.152
   315.8,0.004897,0.002883,0.055760,0.000339,  16.149
   316.0,0.004891,0.002883,0.055743,0.000339,  16.143
   316.2,0.004891,0.002878,0.055689,0.000303,  16.144
   316.4,0.004879,0.002878,0.055699,0.000339,  16.143
   316.6,0.004885,0.002883,0.055726,0.000339,  16.138
   316.8,0.004883,0.002886,0.055746,0.000303,  16.128
   317.0,0.004877,0.002890,0.055756,0.000339,  16.124
   317.2,0.004871,0.002895,0.055790,0.000326,  16.121
   317.4,0.004864,0.002898,0.055800,0.000290,  16.118
   317.6,0.004861,0.002898,0.055800,0.000326,  16.111
   317.8,0.004871,0.002896,0.055766,0.000313,  16.111
   318.0,0.004867,0.002891,0.055688,0.000264,  16.106
   318.2,0.004867,0.002897,0.055647,0.000299,  16.104
   318.4,0.004877,0.002899,0.055602,0.000299,  16.097
   318.6,0.004870,0.002894,0.055558,0.000250,  16.096
   318.8,0.004870,0.002903,0.055480,0.000286,  16.094
   319.0,0.004877,0.002902,0.055371,0.000299,  16.088
   319.2,0.004873,0.002904,0.055229,0.000277,  16.085
   319.4,0.004883,0.002904,0.055232,0.000326,  16.080
   319.6,0.004889,0.002901,0.055303,0.000326,  16.077
   319.8,0.004885,0.002907,0.055388,0.000339,  16.075
   320.0,0.004895,0.002907,0.055371,0.000317,  16.070
   320.2,0.004889,0.002909,0.055326,0.000317,  16.067
   320.4,0.004883,0.002901,0.055245,0.000352,  16.066
   320.6,0.004892,0.002908,0.055144,0.000317,  16.060
   320.8,0.004889,0.002910,0.055137,0.000366,  16.061
   321.0,0.004883,0.002910,0.055171,0.000352,  16.056
   321.2,0.004892,0.002906,0.055225,0.000317,  16.053
   321.4,0.004889,0.002901,0.055262,0.000366,  16.050
   321.6,0.004883,0.002896,0.055323,0.000352,  16.049
   321.8,0.004892,0.002892,0.055367,0.000317,  16.051
   322.0,0.004889,0.002897,0.055385,0.000366,  16.046
   322.2,0.004880,0.002890,0.055381,0.000352,  16.044
   322.4,0.004887,0.002890,0.055344,0.000330,  16.045
   322.6,0.004881,0.002891,0.055371,0.000366,  16.041
   322.8,0.004874,0.002886,0.055426,0.000366,  16.038
   323.0,0.004875,0.002885,0.055497,0.000343,  16.033
   323.2,0.004872,0.002883,0.055524,0.000366,  16.035
   323.4,0.004865,0.002881,0.055541,0.000366,  16.037
   323.6,0.004869,0.002881,0.055565,0.000343,  16.029
   323.8,0.004863,0.002881,0.055592,0.000366,  16.032
   324.0,0.004853,0.002873,0.055609,0.000366,  16.031
   324.2,0.004857,0.002873,0.055644,0.000330,  16.028
   324.4,0.004851,0.002868,0.055141,0.000366,  16.029
   324.6,0.004841,0.002866,0.054388,0.000352,  16.024
   324.8,0.004842,0.002864,0.053374,0.000317,  16.024
   325.0,0.004839,0.002863,0.053367,0.000366,  16.022
   325.2,0.004836,0.002863,0.053762,0.000352,  16.024
   325.4,0.004833,0.002857,0.054537,0.000330,  16.025
   325.6,0.004827,0.002853,0.054768,0.000366,  16.023
   325.8,0.004824,0.002851,0.054907,0.000366,  16.017
   326.0,0.004824,0.002856,0.054951,0.000343,  16.020
   326.2,0.004821,0.002852,0.055103,0.000366,  16.021
   326.4,0.004816,0.002848,0.055246,0.000366,  16.018
   326.6,0.004809,0.002843,0.055406,0.000330,  16.018
   326.8,0.004806,0.002840,0.055477,0.000366,  16.019
   327.0,0.004800,0.002833,0.055460,0.000352,  16.019
   327.2,0.004791,0.002831,0.055413,0.000330,  16.016
   327.4,0.004793,0.002832,0.055447,0.000366,  16.016
   327.6,0.004799,0.002830,0.055464,0.000366,  16.012
   327.8,0.004796,0.002825,0.055498,0.000343,  16.011
   328.0,0.004783,0.002822,0.055525,0.000366,  16.012
   328.2,0.004779,0.002817,0.055569,0.000366,  16.012
   328.4,0.004779,0.002816,0.055606,0.000330,  16.010
   328.6,0.004766,0.002808,0.055606,0.000366,  16.005
   328.8,0.004760,0.002801,0.055606,0.000352,  16.003
   329.0,0.004757,0.002807,0.055613,0.000352,  16.003
   329.2,0.004745,0.002803,0.055630,0.000317,  16.004
   329.4,0.004746,0.002798,0.055640,0.000317,  16.003
   329.6,0.004733,0.002791,0.055633,0.000352,  16.003
   329.8,0.004720,0.002789,0.055644,0.000317,  16.001
   330.0,0.004714,0.002789,0.055599,0.000366,  15.998
   330.2,0.004704,0.002786,0.055511,0.000352,  15.996
   330.4,0.004698,0.002783,0.055378,0.000330,  15.996
   330.6,0.004696,0.002785,0.055344,0.000366,  15.993
   330.8,0.004686,0.002785,0.055337,0.000366,  15.994
   331.0,0.004680,0.002780,0.055347,0.000343,  15.991
   331.2,0.004678,0.002779,0.055313,0.000366,  15.989
   331.4,0.004669,0.002771,0.055262,0.000366,  15.990
   331.6,0.004663,0.002769,0.055184,0.000343,  15.987
   331.8,0.004667,0.002767,0.055123,0.000366,  15.989
   332.0,0.004654,0.002757,0.055055,0.000366,  15.983
   332.2,0.004651,0.002749,0.055000,0.000343,  15.982
   332.4,0.004649,0.002746,0.054993,0.000366,  15.983
   332.6,0.004636,0.002737,0.055020,0.000366,  15.982
   332.8,0.004630,0.002728,0.055082,0.000330,  15.981
   333.0,0.004628,0.002727,0.055048,0.000366,  15.978
   333.2,0.004615,0.002726,0.054986,0.000352,  15.972
   333.4,0.004609,0.002719,0.054895,0.000352,  15.972
   333.6,0.004610,0.002718,0.054871,0.000352,  15.972
   333.8,0.004598,0.002713,0.054881,0.000375,  15.970
   334.0,0.004589,0.002711,0.054901,0.000339,  15.964
   334.2,0.004587,0.002706,0.054813,0.000339,  15.967
   334.4,0.004578,0.002699,0.054681,0.000339,  15.960
   334.6,0.004575,0.002697,0.054484,0.000303,  15.960
   334.8,0.004562,0.002697,0.054477,0.000339,  15.958
   335.0,0.004563,0.002692,0.054524,0.000339,  15.956
   335.2,0.004560,0.002695,0.054653,0.000303,  15.954
   335.4,0.004554,0.002697,0.054656,0.000339,  15.946
   335.6,0.004548,0.002689,0.054622,0.000326,  15.948
   335.8,0.004538,0.002695,0.054544,0.000290,  15.946
   336.0,0.004536,0.002696,0.054520,0.000326,  15.941
   336.2,0.004540,0.002688,0.054486,0.000313,  15.938
   336.4,0.004530,0.002689,0.054441,0.000277,  15.938
   336.6,0.004524,0.002685,0.054407,0.000313,  15.932
   336.8,0.004522,0.002680,0.054373,0.000313,  15.931
   337.0,0.004515,0.002681,0.054288,0.000277,  15.930
   337.2,0.004512,0.002684,0.054308,0.000313,  15.927
   337.4,0.004512,0.002682,0.054366,0.000313,  15.925
   337.6,0.004505,0.002674,0.054457,0.000277,  15.924
   337.8,0.004509,0.002676,0.054396,0.000313,  15.921
   338.0,0.004510,0.002677,0.054256,0.000313,  15.917
   338.2,0.004500,0.002675,0.054077,0.000313,  15.919
   338.4,0.004497,0.002674,0.053857,0.000290,  15.908
   338.6,0.004498,0.002675,0.053559,0.000277,  15.909
   338.8,0.004491,0.002673,0.053191,0.000313,  15.905
   339.0,0.004485,0.002665,0.053086,0.000290,  15.902
   339.2,0.004492,0.002668,0.053079,0.000313,  15.897
   339.4,0.004482,0.002663,0.053153,0.000313,  15.900
   339.6,0.004483,0.002664,0.053305,0.000277,  15.896
   339.8,0.004481,0.002669,0.052957,0.000313,  15.892
   340.0,0.004474,0.002671,0.052460,0.000313,  15.886
   340.2,0.004472,0.002671,0.051824,0.000277,  15.883
   340.4,0.004469,0.002671,0.051749,0.000326,  15.878
   340.6,0.004465,0.002668,0.051907,0.000326,  15.875
   340.8,0.004465,0.002672,0.052298,0.000290,  15.870
   341.0,0.004469,0.002674,0.052396,0.000326,  15.865
   341.2,0.004465,0.002676,0.052449,0.000313,  15.859
   341.4,0.004465,0.002679,0.052500,0.000264,  15.856
   341.6,0.004472,0.002682,0.052520,0.000299,  15.849
   341.8,0.004468,0.002679,0.052520,0.000299,  15.847
   342.0,0.004465,0.002686,0.052462,0.000264,  15.839
   342.2,0.004465,0.002681,0.052492,0.000299,  15.837
   342.4,0.004461,0.002681,0.052515,0.000313,  15.830
   342.6,0.004465,0.002681,0.052555,0.000326,  15.831
   342.8,0.004472,0.002690,0.052568,0.000326,  15.825
   343.0,0.004470,0.002692,0.052554,0.000348,  15.817
   343.2,0.004470,0.002694,0.052540,0.000348,  15.817
   343.4,0.004480,0.002691,0.052560,0.000326,  15.813
   343.6,0.004483,0.002689,0.052556,0.000362,  15.805
   343.8,0.004483,0.002695,0.052576,0.000326,  15.807
   344.0,0.004479,0.002696,0.052252,0.000339,  15.807
   344.2,0.004483,0.002695,0.051744,0.000339,  15.802
   344.4,0.004483,0.002692,0.051051,0.000317,  15.797
   344.6,0.004483,0.002693,0.050977,0.000352,  15.791
   344.8,0.004483,0.002690,0.051145,0.000366,  15.789
   345.0,0.004476,0.002691,0.051507,0.000343,  15.786
   345.2,0.004483,0.002694,0.051554,0.000366,  15.782
   345.4,0.004487,0.002691,0.051537,0.000366,  15.779
   345.6,0.004483,0.002691,0.051442,0.000343,  15.771
   345.8,0.004493,0.002694,0.051462,0.000366,  15.772
   346.0,0.004499,0.002693,0.051526,0.000366,  15.761
   346.2,0.004495,0.002697,0.051589,0.000343,  15.764
   346.4,0.004502,0.002697,0.051575,0.000366,  15.762
   346.6,0.004502,0.002701,0.051531,0.000366,  15.757
   346.8,0.004498,0.002704,0.051468,0.000379,  15.753
   347.0,0.004501,0.002706,0.051488,0.000366,  15.744
   347.2,0.004504,0.002701,0.051517,0.000401,  15.744
   347.4,0.004500,0.002708,0.051588,0.000401,  15.744
   347.6,0.004503,0.002712,0.051457,0.000366,  15.738
   347.8,0.004510,0.002717,0.051221,0.000366,  15.731
   348.0,0.004506,0.002712,0.050906,0.000366,  15.727
   348.2,0.004509,0.002721,0.050477,0.000343,  15.727
   348.4,0.004513,0.002719,0.050470,0.000379,  15.723
   348.6,0.004509,0.002720,0.050567,0.000379,  15.720
   348.8,0.004512,0.002722,0.050795,0.000356,  15.716
   349.0,0.004515,0.002723,0.050885,0.000392,  15.713
   349.2,0.004511,0.002722,0.050989,0.000379,  15.712
   349.4,0.004518,0.002726,0.051069,0.000356,  15.706
   349.6,0.004515,0.002728,0.051113,0.000392,  15.704
   349.8,0.004511,0.002725,0.051096,0.000379,  15.702
   350.0,0.004518,0.002725,0.051060,0.000356,  15.698
   350.2,0.004525,0.002726,0.051103,0.000379,  15.697
   350.4,0.004524,0.002721,0.051140,0.000366,  15.696
   350.6,0.004524,0.002720,0.051201,0.000343,  15.692
   350.8,0.004527,0.002717,0.051244,0.000366,  15.691
   351.0,0.004523,0.002717,0.051268,0.000366,  15.687
   351.2,0.004530,0.002719,0.051258,0.000343,  15.684
   351.4,0.004527,0.002717,0.051258,0.000366,  15.679
   351.6,0.004517,0.002722,0.051238,0.000366,  15.681
   351.8,0.004524,0.002726,0.051185,0.000343,  15.678
   352.0,0.004524,0.002731,0.050923,0.000366,  15.678
   352.2,0.004517,0.002733,0.050530,0.000366,  15.677
   352.4,0.004527,0.002739,0.050048,0.000343,  15.677
   352.6,0.004533,0.002746,0.050109,0.000366,  15.673
   352.8,0.004536,0.002743,0.050353,0.000366,  15.672
   353.0,0.004534,0.002749,0.050840,0.000330,  15.669
   353.2,0.004544,0.002756,0.051021,0.000366,  15.665
   353.4,0.004547,0.002759,0.051135,0.000352,  15.667
   353.6,0.004549,0.002763,0.051196,0.000317,  15.669
   353.8,0.004559,0.002764,0.051334,0.000366,  15.664
   354.0,0.004565,0.002766,0.051455,0.000352,  15.662
   354.2,0.004567,0.002766,0.051566,0.000330,  15.659
   354.4,0.004577,0.002766,0.051627,0.000366,  15.655
   354.6,0.004587,0.002763,0.051654,0.000366,  15.662
   354.8,0.004586,0.002763,0.051651,0.000343,  15.656
   355.0,0.004589,0.002766,0.051685,0.000379,  15.657
   355.2,0.004599,0.002764,0.051712,0.000379,  15.659
   355.4,0.004595,0.002764,0.051735,0.000356,  15.657
   355.6,0.004592,0.002764,0.051823,0.000392,  15.658
   355.8,0.004599,0.002764,0.051947,0.000392,  15.650
   356.0,0.004595,0.002761,0.052096,0.000370,  15.651
   356.2,0.004595,0.002758,0.052122,0.000392,  15.652
   356.4,0.004602,0.002758,0.052129,0.000392,  15.655
   356.6,0.004598,0.002756,0.052100,0.000392,  15.654
   356.8,0.004598,0.002754,0.052107,0.000370,  15.653
   357.0,0.004595,0.002752,0.052133,0.000356,  15.656
   357.2,0.004591,0.002754,0.052150,0.000392,  15.655
   357.4,0.004588,0.002745,0.052184,0.000370,  15.650
   357.6,0.004585,0.002750,0.051824,0.000392,  15.652
   357.8,0.004578,0.002745,0.051340,0.000392,  15.652
   358.0,0.004582,0.002746,0.050707,0.000370,  15.653
   358.2,0.004583,0.002748,0.050740,0.000392,  15.656
   358.4,0.004576,0.002745,0.051019,0.000392,  15.657
   358.6,0.004583,0.002750,0.051536,0.000370,  15.657
   358.8,0.004580,0.002743,0.051738,0.000392,  15.654
   359.0,0.004570,0.002740,0.051920,0.000392,  15.658
   359.2,0.004574,0.002745,0.052017,0.000370,  15.655
   359.4,0.004568,0.002742,0.052139,0.000392,  15.655
   359.6,0.004558,0.002742,0.052216,0.000392,  15.660
   359.8,0.004562,0.002740,0.052284,0.000370,  15.655
   360.0,0.004556,0.002738,0.052398,0.000392,  15.650
   360.2,0.004546,0.002728,0.052503,0.000392,  15.656
   360.4,0.004553,0.002727,0.052608,0.000370,  15.663
   360.6,0.004550,0.002722,0.052668,0.000392,  15.656
   360.8,0.004540,0.002715,0.052702,0.000392,  15.660
   361.0,0.004544,0.002708,0.052692,0.000370,  15.662
   361.2,0.004541,0.002709,0.052736,0.000392,  15.664
   361.4,0.004538,0.002708,0.052780,0.000379,  15.663
   361.6,0.004529,0.002704,0.052851,0.000356,  15.658
   361.8,0.004533,0.002703,0.052824,0.000392,  15.663
   362.0,0.004530,0.002700,0.052760,0.000379,  15.659
   362.2,0.004517,0.002705,0.052636,0.000356,  15.662
   362.4,0.004518,0.002700,0.052609,0.000392,  15.664
   362.6,0.004515,0.002693,0.052609,0.000379,  15.661
   362.8,0.004505,0.002696,0.052616,0.000356,  15.665
   363.0,0.004506,0.002691,0.052599,0.000379,  15.669
   363.2,0.004500,0.002682,0.052592,0.000366,  15.670
   363.4,0.004490,0.002682,0.052599,0.000343,  15.669
   363.6,0.004497,0.002683,0.052616,0.000366,  15.675
   363.8,0.004501,0.002680,0.052592,0.000366,  15.670
   364.0,0.004491,0.002677,0.052582,0.000343,  15.674
   364.2,0.004488,0.002684,0.052599,0.000366,  15.670
   364.4,0.004489,0.002681,0.052575,0.000366,  15.670
   364.6,0.004479,0.002682,0.052565,0.000343,  15.673
   364.8,0.004476,0.002680,0.052592,0.000366,  15.671
   365.0,0.004470,0.002675,0.052629,0.000366,  15.670
   365.2,0.004461,0.002677,0.052655,0.000366,  15.672
   365.4,0.004468,0.002672,0.052646,0.000330,  15.673
   365.6,0.004468,0.002665,0.052585,0.000330,  15.675
   365.8,0.004464,0.002667,0.052497,0.000366,  15.673
   366.0,0.004465,0.002665,0.052390,0.000343,  15.676
   366.2,0.004466,0.002668,0.052443,0.000366,  15.678
   366.4,0.004459,0.002662,0.052524,0.000366,  15.677
   366.6,0.004453,0.002660,0.052641,0.000343,  15.671
   366.8,0.004454,0.002661,0.052661,0.000366,  15.673
   367.0,0.004444,0.002663,0.052661,0.000366,  15.674
   367.2,0.004441,0.002661,0.052608,0.000343,  15.676
   367.4,0.004442,0.002659,0.052571,0.000330,  15.675
   367.6,0.004432,0.002656,0.052500,0.000330,  15.674
   367.8,0.004429,0.002646,0.052402,0.000307,  15.673
   368.0,0.004426,0.002643,0.052419,0.000294,  15.672
   368.2,0.004416,0.002635,0.052456,0.000330,  15.677
   368.4,0.004417,0.002629,0.052537,0.000307,  15.674
   368.6,0.004411,0.002632,0.052574,0.000294,  15.671
   368.8,0.004402,0.002627,0.052584,0.000330,  15.670
   369.0,0.004400,0.002623,0.052577,0.000307,  15.670
   369.2,0.004401,0.002621,0.052580,0.000294,  15.668
   369.4,0.004391,0.002626,0.052590,0.000330,  15.672
   369.6,0.004388,0.002626,0.052573,0.000307,  15.670
   369.8,0.004382,0.002629,0.052529,0.000294,  15.668
   370.0,0.004379,0.002632,0.052475,0.000330,  15.669
   370.2,0.004372,0.002632,0.052384,0.000294,  15.669
   370.4,0.004376,0.002627,0.052334,0.000294,  15.666
   370.6,0.004379,0.002620,0.052314,0.000317,  15.667
   370.8,0.004372,0.002620,0.052287,0.000281,  15.666
   371.0,0.004376,0.002622,0.052199,0.000317,  15.662
   371.2,0.004373,0.002620,0.052082,0.000339,  15.660
   371.4,0.004363,0.002617,0.051921,0.000303,  15.659
   371.6,0.004367,0.002616,0.051921,0.000339,  15.657
   371.8,0.004361,0.002616,0.051941,0.000339,  15.656
   372.0,0.004351,0.002620,0.051997,0.000303,  15.656
   372.2,0.004355,0.002614,0.052071,0.000339,  15.655
   372.4,0.004349,0.002604,0.052151,0.000339,  15.652
   372.6,0.004342,0.002602,0.052218,0.000303,  15.649
   372.8,0.004346,0.002602,0.052265,0.000339,  15.646
   373.0,0.004341,0.002594,0.052268,0.000339,  15.644
   373.2,0.004331,0.002590,0.052251,0.000303,  15.644
   373.4,0.004335,0.002593,0.051981,0.000339,  15.642
   373.6,0.004336,0.002591,0.051561,0.000339,  15.642
   373.8,0.004326,0.002588,0.050993,0.000326,  15.638
   374.0,0.004323,0.002581,0.050835,0.000303,  15.632
   374.2,0.004327,0.002576,0.050791,0.000290,  15.637
   374.4,0.004317,0.002571,0.050879,0.000326,  15.635
   374.6,0.004311,0.002563,0.051063,0.000303,  15.632
   374.8,0.004312,0.002561,0.051153,0.000326,  15.630
   375.0,0.004302,0.002561,0.051244,0.000326,  15.627
   375.2,0.004296,0.002558,0.051378,0.000290,  15.625
   375.4,0.004300,0.002567,0.051495,0.000339,  15.622
   375.6,0.004293,0.002567,0.051605,0.000326,  15.621
   375.8,0.004290,0.002567,0.051746,0.000290,  15.622
   376.0,0.004287,0.002567,0.051712,0.000339,  15.617
   376.2,0.004280,0.002564,0.051581,0.000326,  15.614
   376.4,0.004283,0.002569,0.051353,0.000290,  15.615
   376.6,0.004286,0.002572,0.051258,0.000303,  15.612
   376.8,0.004279,0.002579,0.051130,0.000290,  15.609
   377.0,0.004289,0.002581,0.051026,0.000254,  15.605
   377.2,0.004296,0.002589,0.050978,0.000268,  15.600
   377.4,0.004292,0.002594,0.050940,0.000290,  15.595
   377.6,0.004306,0.002600,0.050943,0.000254,  15.596
   377.8,0.004313,0.002598,0.050893,0.000268,  15.593
   378.0,0.004309,0.002597,0.050808,0.000290,  15.588
   378.2,0.004319,0.002599,0.050704,0.000254,  15.589
   378.4,0.004325,0.002607,0.050469,0.000268,  15.588
   378.6,0.004328,0.002609,0.050157,0.000290,  15.583
   378.8,0.004328,0.002611,0.049735,0.000254,  15.579
   379.0,0.004334,0.002616,0.049641,0.000268,  15.577
   379.2,0.004334,0.002616,0.049660,0.000303,  15.573
   379.4,0.004340,0.002623,0.049791,0.000281,  15.570
   379.6,0.004343,0.002628,0.049803,0.000281,  15.570
   379.8,0.004346,0.002625,0.049840,0.000330,  15.565
   380.0,0.004344,0.002633,0.049900,0.000307,  15.561
   380.2,0.004347,0.002638,0.049857,0.000294,  15.559
   380.4,0.004350,0.002636,0.049736,0.000330,  15.554
   380.6,0.004349,0.002643,0.049586,0.000307,  15.553
   380.8,0.004358,0.002647,0.049559,0.000294,  15.551
   381.0,0.004368,0.002647,0.049536,0.000330,  15.548
   381.2,0.004367,0.002649,0.049529,0.000307,  15.544
   381.4,0.004373,0.002654,0.049529,0.000307,  15.542
   381.6,0.004376,0.002653,0.049529,0.000343,  15.541
   381.8,0.004375,0.002655,0.049512,0.000321,  15.537
   382.0,0.004388,0.002658,0.049555,0.000321,  15.530
   382.2,0.004391,0.002657,0.049609,0.000343,  15.528
   382.4,0.004390,0.002661,0.049696,0.000343,  15.527
   382.6,0.004393,0.002661,0.049759,0.000356,  15.523
   382.8,0.004399,0.002660,0.049872,0.000356,  15.519
   383.0,0.004397,0.002662,0.049953,0.000356,  15.516
   383.2,0.004407,0.002665,0.050042,0.000370,  15.513
   383.4,0.004414,0.002672,0.050106,0.000356,  15.507
   383.6,0.004413,0.002671,0.050152,0.000356,  15.509
   383.8,0.004416,0.002674,0.050196,0.000334,  15.510
   384.0,0.004419,0.002681,0.050186,0.000321,  15.506
   384.2,0.004418,0.002683,0.050125,0.000356,  15.503
   384.4,0.004418,0.002686,0.050035,0.000334,  15.503
   384.6,0.004425,0.002686,0.050035,0.000321,  15.501
   384.8,0.004421,0.002688,0.050069,0.000356,  15.498
   385.0,0.004421,0.002686,0.050113,0.000334,  15.497
   385.2,0.004431,0.002683,0.049946,0.000321,  15.496
   385.4,0.004427,0.002686,0.049665,0.000356,  15.492
   385.6,0.004424,0.002683,0.049297,0.000334,  15.491
   385.8,0.004431,0.002681,0.049174,0.000321,  15.486
   386.0,0.004427,0.002678,0.049077,0.000343,  15.488
   386.2,0.004427,0.002678,0.049051,0.000321,  15.487
   386.4,0.004434,0.002676,0.049138,0.000321,  15.485
   386.6,0.004430,0.002676,0.049294,0.000343,  15.484
   386.8,0.004430,0.002679,0.049536,0.000321,  15.485
   387.0,0.004434,0.002682,0.049709,0.000321,  15.482
   387.2,0.004430,0.002684,0.049893,0.000343,  15.481
   387.4,0.004427,0.002690,0.050068,0.000321,  15.480
   387.6,0.004431,0.002693,0.050171,0.000307,  15.476
   387.8,0.004434,0.002697,0.050249,0.000330,  15.480
   388.0,0.004430,0.002697,0.050282,0.000307,  15.475
   388.2,0.004443,0.002714,0.050263,0.000294,  15.475
   388.4,0.004456,0.002723,0.050163,0.000330,  15.469
   388.6,0.004458,0.002720,0.050019,0.000307,  15.470
   388.8,0.004473,0.002729,0.050107,0.000294,  15.470
   389.0,0.004479,0.002735,0.050247,0.000330,  15.467
   389.2,0.004478,0.002730,0.050468,0.000307,  15.472
   389.4,0.004491,0.002733,0.050066,0.000307,  15.471
   389.6,0.004494,0.002731,0.049394,0.000343,  15.468
   389.8,0.004493,0.002732,0.048436,0.000321,  15.470
   390.0,0.004506,0.002730,0.048453,0.000321,  15.470
   390.2,0.004509,0.002727,0.048800,0.000356,  15.476
   390.4,0.004508,0.002728,0.049518,0.000334,  15.471
   390.6,0.004518,0.002731,0.049770,0.000321,  15.474
   390.8,0.004515,0.002731,0.049967,0.000356,  15.471
   391.0,0.004511,0.002726,0.050105,0.000334,  15.468
   391.2,0.004515,0.002734,0.050303,0.000321,  15.471
   391.4,0.004512,0.002731,0.050451,0.000356,  15.473
   391.6,0.004508,0.002728,0.050598,0.000356,  15.473
   391.8,0.004515,0.002730,0.050702,0.000370,  15.474
   392.0,0.004525,0.002727,0.050746,0.000370,  15.468
   392.2,0.004521,0.002724,0.050770,0.000370,  15.473
   392.4,0.004528,0.002729,0.050857,0.000383,  15.468
   392.6,0.004535,0.002726,0.050978,0.000383,  15.475
   392.8,0.004531,0.002723,0.051075,0.000370,  15.475
   393.0,0.004538,0.002721,0.051213,0.000347,  15.476
   393.2,0.004538,0.002722,0.051247,0.000347,  15.477
   393.4,0.004531,0.002724,0.051244,0.000383,  15.475
   393.6,0.004535,0.002724,0.051231,0.000347,  15.482
   393.8,0.004532,0.002722,0.051255,0.000347,  15.478
   394.0,0.004528,0.002722,0.051279,0.000383,  15.480
   394.2,0.004532,0.002722,0.051337,0.000347,  15.480
   394.4,0.004532,0.002722,0.051169,0.000347,  15.476
   394.6,0.004528,0.002714,0.050861,0.000383,  15.481
   394.8,0.004532,0.002714,0.050448,0.000347,  15.481
   395.0,0.004532,0.002718,0.050492,0.000347,  15.483
   395.2,0.004528,0.002714,0.050700,0.000383,  15.482
   395.4,0.004525,0.002712,0.051076,0.000347,  15.487
   395.6,0.004525,0.002716,0.051224,0.000347,  15.486
   395.8,0.004521,0.002716,0.051345,0.000383,  15.486
   396.0,0.004515,0.002717,0.051446,0.000347,  15.490
   396.2,0.004519,0.002709,0.051561,0.000347,  15.490
   396.4,0.004512,0.002706,0.051692,0.000370,  15.490
   396.6,0.004506,0.002709,0.051840,0.000347,  15.491
   396.8,0.004507,0.002709,0.051867,0.000347,  15.493
   397.0,0.004504,0.002704,0.051857,0.000370,  15.498
   397.2,0.004504,0.002709,0.051783,0.000347,  15.495
   397.4,0.004494,0.002707,0.051800,0.000334,  15.499
   397.6,0.004498,0.002702,0.051834,0.000356,  15.498
   397.8,0.004498,0.002707,0.051858,0.000334,  15.498
   398.0,0.004498,0.002705,0.051919,0.000321,  15.498
   398.2,0.004498,0.002702,0.051972,0.000356,  15.500
   398.4,0.004494,0.002702,0.052043,0.000334,  15.503
   398.6,0.004488,0.002704,0.052087,0.000321,  15.508
   398.8,0.004492,0.002696,0.052121,0.000356,  15.504
   399.0,0.004485,0.002689,0.052127,0.000334,  15.507
   399.2,0.004482,0.002689,0.052154,0.000356,  15.509
   399.4,0.004483,0.002685,0.052171,0.000392,  15.512
   399.6,0.004476,0.002682,0.052178,0.000370,  15.511
   399.8,0.004476,0.002687,0.052215,0.000392,  15.513
   400.0,0.004473,0.002687,0.052286,0.000379,  15.519
   400.2,0.004464,0.002686,0.052323,0.000356,  15.514
   400.4,0.004468,0.002682,0.052306,0.000392,  15.517
   400.6,0.004465,0.002681,0.052269,0.000379,  15.519
   400.8,0.004455,0.002681,0.052178,0.000379,  15.517
   401.0,0.004459,0.002679,0.052098,0.000343,  15.514
   401.2,0.004463,0.002679,0.052007,0.000356,  15.518
   401.4,0.004456,0.002673,0.051890,0.000379,  15.521
   401.6,0.004456,0.002677,0.051880,0.000356,  15.521
   401.8,0.004457,0.002673,0.051917,0.000392,  15.523
   402.0,0.004447,0.002671,0.052004,0.000379,  15.519
   402.2,0.004447,0.002664,0.052112,0.000356,  15.523
   402.4,0.004448,0.002662,0.052253,0.000392,  15.525
   402.6,0.004438,0.002658,0.052411,0.000379,  15.521
   402.8,0.004432,0.002658,0.052573,0.000356,  15.524
   403.0,0.004430,0.002652,0.052610,0.000392,  15.523
   403.2,0.004417,0.002650,0.052593,0.000379,  15.524
   403.4,0.004414,0.002642,0.052505,0.000356,  15.525
   403.6,0.004409,0.002637,0.052427,0.000392,  15.523
   403.8,0.004397,0.002629,0.052330,0.000379,  15.525
   404.0,0.004391,0.002627,0.052212,0.000356,  15.525
   404.2,0.004392,0.002623,0.052212,0.000356,  15.526
   404.4,0.004382,0.002618,0.052239,0.000343,  15.525
   404.6,0.004376,0.002615,0.052293,0.000321,  15.528
   404.8,0.004377,0.002613,0.052259,0.000307,  15.528
   405.0,0.004367,0.002610,0.052215,0.000330,  15.523
   405.2,0.004368,0.002610,0.052137,0.000307,  15.526
   405.4,0.004366,0.002608,0.052107,0.000294,  15.525
   405.6,0.004363,0.002601,0.052133,0.000330,  15.525
   405.8,0.004360,0.002601,0.052177,0.000307,  15.526
   406.0,0.004347,0.002598,0.052170,0.000294,  15.524
   406.2,0.004344,0.002593,0.052146,0.000330,  15.522
   406.4,0.004342,0.002595,0.052109,0.000294,  15.524
   406.6,0.004339,0.002596,0.052066,0.000294,  15.520
   406.8,0.004336,0.002595,0.051981,0.000317,  15.523
   407.0,0.004329,0.002597,0.051903,0.000281,  15.522
   407.2,0.004326,0.002597,0.051870,0.000281,  15.516
   407.4,0.004327,0.002594,0.051836,0.000303,  15.520
   407.6,0.004317,0.002595,0.051812,0.000268,  15.518
   407.8,0.004314,0.002598,0.051734,0.000268,  15.519
   408.0,0.004318,0.002595,0.051613,0.000303,  15.518
   408.2,0.004308,0.002597,0.051489,0.000268,  15.517
   408.4,0.004305,0.002594,0.051462,0.000268,  15.513
   408.6,0.004312,0.002592,0.051421,0.000303,  15.517
   408.8,0.004308,0.002597,0.051414,0.000268,  15.514
   409.0,0.004305,0.002594,0.051434,0.000268,  15.510
   409.2,0.004312,0.002592,0.051471,0.000303,  15.510
   409.4,0.004308,0.002597,0.051524,0.000339,  15.511
   409.6,0.004308,0.002594,0.051343,0.000303,  15.506
   409.8,0.004311,0.002592,0.051074,0.000339,  15.509
   410.0,0.004304,0.002592,0.050708,0.000339,  15.509
   410.2,0.004308,0.002592,0.050613,0.000303,  15.505
   410.4,0.004305,0.002589,0.050623,0.000339,  15.503
   410.6,0.004301,0.002593,0.050720,0.000339,  15.504
   410.8,0.004298,0.002596,0.050895,0.000303,  15.500
   411.0,0.004295,0.002598,0.050888,0.000339,  15.497
   411.2,0.004291,0.002594,0.050868,0.000339,  15.497
   411.4,0.004294,0.002596,0.050791,0.000303,  15.498
   411.6,0.004304,0.002600,0.050827,0.000339,  15.494
   411.8,0.004300,0.002599,0.050864,0.000339,  15.490
   412.0,0.004310,0.002599,0.050937,0.000303,  15.485
   412.2,0.004320,0.002612,0.050373,0.000339,  15.487
   412.4,0.004319,0.002620,0.049520,0.000339,  15.483
   412.6,0.004322,0.002617,0.048348,0.000303,  15.483
   412.8,0.004325,0.002623,0.048265,0.000339,  15.477
   413.0,0.004324,0.002627,0.048587,0.000339,  15.475
   413.2,0.004327,0.002629,0.049301,0.000303,  15.478
   413.4,0.004339,0.002629,0.049538,0.000352,  15.476
   413.6,0.004338,0.002629,0.049725,0.000352,  15.475
   413.8,0.004341,0.002632,0.049858,0.000317,  15.468
   414.0,0.004348,0.002635,0.049928,0.000366,  15.468
   414.2,0.004344,0.002635,0.049921,0.000352,  15.466
   414.4,0.004351,0.002636,0.049841,0.000330,  15.463
   414.6,0.004358,0.002633,0.049878,0.000343,  15.462
   414.8,0.004357,0.002633,0.049934,0.000343,  15.464
   415.0,0.004364,0.002629,0.050014,0.000321,  15.461
   415.2,0.004374,0.002635,0.050061,0.000321,  15.459
   415.4,0.004377,0.002634,0.050063,0.000356,  15.458
   415.6,0.004373,0.002635,0.050073,0.000334,  15.459
   415.8,0.004373,0.002641,0.050040,0.000334,  15.453
   416.0,0.004373,0.002641,0.049969,0.000370,  15.456
   416.2,0.004372,0.002648,0.049872,0.000347,  15.454
   416.4,0.004379,0.002651,0.049865,0.000334,  15.453
   416.6,0.004379,0.002652,0.049875,0.000356,  15.450
   416.8,0.004378,0.002659,0.049922,0.000334,  15.449
   417.0,0.004391,0.002661,0.049932,0.000321,  15.444
   417.2,0.004400,0.002663,0.049915,0.000356,  15.443
   417.4,0.004399,0.002671,0.049871,0.000334,  15.444
   417.6,0.004408,0.002674,0.049898,0.000321,  15.440
   417.8,0.004408,0.002676,0.049934,0.000356,  15.438
   418.0,0.004404,0.002680,0.049971,0.000334,  15.442
   418.2,0.004407,0.002683,0.049981,0.000321,  15.439
   418.4,0.004410,0.002685,0.049998,0.000356,  15.438
   418.6,0.004409,0.002684,0.050005,0.000356,  15.435
   418.8,0.004415,0.002687,0.049954,0.000370,  15.435
   419.0,0.004428,0.002689,0.049901,0.000356,  15.430
   419.2,0.004430,0.002686,0.049837,0.000356,  15.431
   419.4,0.004436,0.002691,0.049811,0.000370,  15.428
   419.6,0.004443,0.002694,0.049784,0.000356,  15.426
   419.8,0.004442,0.002689,0.049767,0.000356,  15.427
   420.0,0.004448,0.002692,0.049774,0.000334,  15.424
   420.2,0.004458,0.002690,0.049837,0.000321,  15.428
   420.4,0.004454,0.002695,0.049958,0.000356,  15.424
   420.6,0.004451,0.002695,0.050075,0.000334,  15.422
   420.8,0.004458,0.002692,0.050242,0.000321,  15.421
   421.0,0.004454,0.002695,0.050417,0.000356,  15.418
   421.2,0.004451,0.002698,0.050625,0.000334,  15.416
   421.4,0.004458,0.002696,0.050625,0.000321,  15.420
   421.6,0.004454,0.002689,0.050551,0.000356,  15.419
   421.8,0.004458,0.002689,0.050364,0.000334,  15.415
   422.0,0.004465,0.002692,0.050318,0.000321,  15.420
   422.2,0.004461,0.002692,0.050264,0.000343,  15.418
   422.4,0.004462,0.002694,0.050252,0.000321,  15.418
   422.6,0.004466,0.002702,0.050266,0.000307,  15.415
   422.8,0.004462,0.002704,0.050266,0.000330,  15.414
   423.0,0.004462,0.002710,0.050299,0.000294,  15.414
   423.2,0.004462,0.002716,0.050313,0.000330,  15.414
   423.4,0.004464,0.002717,0.050287,0.000352,  15.412
   423.6,0.004476,0.002722,0.050267,0.000317,  15.404
   423.8,0.004492,0.002720,0.050267,0.000366,  15.409
   424.0,0.004498,0.002716,0.050257,0.000352,  15.404
   424.2,0.004507,0.002726,0.050254,0.000330,  15.406
   424.4,0.004503,0.002730,0.050271,0.000366,  15.410
   424.6,0.004513,0.002725,0.050281,0.000366,  15.409
   424.8,0.004512,0.002730,0.050315,0.000343,  15.404
   425.0,0.004518,0.002730,0.050365,0.000379,  15.408
   425.2,0.004514,0.002728,0.050409,0.000379,  15.401
   425.4,0.004513,0.002733,0.050476,0.000356,  15.406
   425.6,0.004516,0.002739,0.050553,0.000392,  15.402
   425.8,0.004526,0.002741,0.050624,0.000392,  15.403
   426.0,0.004525,0.002738,0.050677,0.000370,  15.406
   426.2,0.004534,0.002745,0.050704,0.000405,  15.403
   426.4,0.004541,0.002750,0.050718,0.000405,  15.405
   426.6,0.004537,0.002748,0.050681,0.000383,  15.407
   426.8,0.004547,0.002749,0.050752,0.000383,  15.405
   427.0,0.004557,0.002751,0.050849,0.000370,  15.407
   427.2,0.004553,0.002753,0.050997,0.000347,  15.405
   427.4,0.004556,0.002755,0.051057,0.000347,  15.407
   427.6,0.004566,0.002757,0.051081,0.000370,  15.410
   427.8,0.004565,0.002759,0.051102,0.000405,  15.409
   428.0,0.004568,0.002764,0.051136,0.000383,  15.408
   428.2,0.004571,0.002768,0.051196,0.000419,  15.410
   428.4,0.004570,0.002768,0.051264,0.000405,  15.412
   428.6,0.004580,0.002775,0.051325,0.000383,  15.414
   428.8,0.004583,0.002780,0.051365,0.000419,  15.416
   429.0,0.004579,0.002782,0.051379,0.000405,  15.417
   429.2,0.004589,0.002782,0.051383,0.000383,  15.416
   429.4,0.004586,0.002784,0.051461,0.000405,  15.419
   429.6,0.004582,0.002784,0.051565,0.000392,  15.416
   429.8,0.004589,0.002784,0.051687,0.000370,  15.417
   430.0,0.004592,0.002782,0.051737,0.000405,  15.418
   430.2,0.004588,0.002786,0.051778,0.000405,  15.421
   430.4,0.004595,0.002781,0.051755,0.000383,  15.420
   430.6,0.004598,0.002781,0.051843,0.000419,  15.422
   430.8,0.004594,0.002779,0.051998,0.000405,  15.424
   431.0,0.004598,0.002775,0.052156,0.000383,  15.423
   431.2,0.004598,0.002771,0.052217,0.000419,  15.423
   431.4,0.004594,0.002766,0.052258,0.000419,  15.424
   431.6,0.004598,0.002764,0.052262,0.000383,  15.426
   431.8,0.004595,0.002764,0.052313,0.000419,  15.426
   432.0,0.004588,0.002764,0.052373,0.000419,  15.425
   432.2,0.004592,0.002761,0.052465,0.000383,  15.430
   432.4,0.004586,0.002758,0.052479,0.000419,  15.429
   432.6,0.004583,0.002756,0.052459,0.000419,  15.432
   432.8,0.004573,0.002755,0.052385,0.000383,  15.431
   433.0,0.004580,0.002750,0.052376,0.000419,  15.435
   433.2,0.004577,0.002744,0.052399,0.000419,  15.436
   433.4,0.004567,0.002741,0.052399,0.000383,  15.434
   433.6,0.004571,0.002739,0.052275,0.000419,  15.434
   433.8,0.004571,0.002731,0.052083,0.000419,  15.437
   434.0,0.004564,0.002732,0.051810,0.000383,  15.435
   434.2,0.004565,0.002736,0.051817,0.000419,  15.440
   434.4,0.004559,0.002734,0.051871,0.000419,  15.438
   434.6,0.004549,0.002728,0.052029,0.000383,  15.442
   434.8,0.004553,0.002730,0.052134,0.000419,  15.443
   435.0,0.004547,0.002728,0.052214,0.000419,  15.439
   435.2,0.004537,0.002723,0.052295,0.000383,  15.442
   435.4,0.004541,0.002720,0.052385,0.000383,  15.445
   435.6,0.004536,0.002713,0.052483,0.000383,  15.446
   435.8,0.004526,0.002708,0.052571,0.000347,  15.442
   436.0,0.004530,0.002706,0.052598,0.000347,  15.445
   436.2,0.004531,0.002696,0.052571,0.000383,  15.448
   436.4,0.004521,0.002696,0.052497,0.000419,  15.451
   436.6,0.004515,0.002696,0.052470,0.000383,  15.446
   436.8,0.004519,0.002694,0.052470,0.000419,  15.452
   437.0,0.004509,0.002689,0.052426,0.000405,  15.450
   437.2,0.004503,0.002687,0.052416,0.000383,  15.456
   437.4,0.004504,0.002684,0.052443,0.000419,  15.456
   437.6,0.004494,0.002675,0.052487,0.000405,  15.456
   437.8,0.004488,0.002673,0.052517,0.000383,  15.457
   438.0,0.004492,0.002672,0.052598,0.000419,  15.457
   438.2,0.004482,0.002668,0.052712,0.000405,  15.458
   438.4,0.004473,0.002661,0.052827,0.000383,  15.459
   438.6,0.004469,0.002650,0.052739,0.000405,  15.457
   438.8,0.004456,0.002643,0.052561,0.000392,  15.460
   439.0,0.004450,0.002641,0.052268,0.000370,  15.462
   439.2,0.004444,0.002643,0.052217,0.000356,  15.461
   439.4,0.004431,0.002641,0.052244,0.000356,  15.459
   439.6,0.004432,0.002640,0.052301,0.000334,  15.462
   439.8,0.004423,0.002638,0.052321,0.000307,  15.463
   440.0,0.004413,0.002632,0.052341,0.000330,  15.464
   440.2,0.004417,0.002630,0.052351,0.000307,  15.465
   440.4,0.004408,0.002627,0.052317,0.000294,  15.464
   440.6,0.004399,0.002624,0.052236,0.000330,  15.465
   440.8,0.004400,0.002618,0.052112,0.000294,  15.457
   441.0,0.004401,0.002618,0.052068,0.000294,  15.463
   441.2,0.004394,0.002611,0.052000,0.000317,  15.462
   441.4,0.004391,0.002609,0.051966,0.000281,  15.463
   441.6,0.004380,0.002611,0.051993,0.000281,  15.460
   441.8,0.004380,0.002609,0.052030,0.000303,  15.461
   442.0,0.004380,0.002607,0.052104,0.000268,  15.457
   442.2,0.004374,0.002609,0.052143,0.000268,  15.457
   442.4,0.004371,0.002609,0.052180,0.000290,  15.457
   442.6,0.004368,0.002607,0.052217,0.000254,  15.460
   442.8,0.004362,0.002610,0.052166,0.000268,  15.458
   443.0,0.004363,0.002610,0.052052,0.000290,  15.455
   443.2,0.004356,0.002605,0.051867,0.000254,  15.454
   443.4,0.004356,0.002608,0.051782,0.000268,  15.451
   443.6,0.004360,0.002608,0.051745,0.000290,  15.455
   443.8,0.004350,0.002605,0.051695,0.000254,  15.454
   444.0,0.004354,0.002599,0.051647,0.000254,  15.450
   444.2,0.004358,0.002598,0.051640,0.000277,  15.452
   444.4,0.004348,0.002601,0.051660,0.000241,  15.451
   444.6,0.004352,0.002603,0.051626,0.000241,  15.449
   444.8,0.004349,0.002600,0.051541,0.000277,  15.450
   445.0,0.004342,0.002603,0.051454,0.000277,  15.451
   445.2,0.004349,0.002608,0.051413,0.000290,  15.449
   445.4,0.004343,0.002613,0.051423,0.000277,  15.448
   445.6,0.004336,0.002613,0.051426,0.000277,  15.446
   445.8,0.004346,0.002618,0.051453,0.000290,  15.443
   446.0,0.004346,0.002623,0.051217,0.000277,  15.445
   446.2,0.004342,0.002628,0.050892,0.000277,  15.441
   446.4,0.004352,0.002635,0.050456,0.000241,  15.441
   446.6,0.004355,0.002646,0.050432,0.000241,  15.440
   446.8,0.004354,0.002654,0.050573,0.000277,  15.437
   447.0,0.004367,0.002660,0.050837,0.000241,  15.438
   447.2,0.004373,0.002669,0.050874,0.000241,  15.433
   447.4,0.004375,0.002673,0.050877,0.000277,  15.433
   447.6,0.004394,0.002685,0.050840,0.000241,  15.430
   447.8,0.004409,0.002687,0.050806,0.000254,  15.427
   448.0,0.004414,0.002688,0.050756,0.000290,  15.426
   448.2,0.004423,0.002698,0.050695,0.000254,  15.426
   448.4,0.004439,0.002700,0.050671,0.000317,  15.428
   448.6,0.004444,0.002697,0.050671,0.000352,  15.423
   448.8,0.004450,0.002710,0.050664,0.000330,  15.425
   449.0,0.004466,0.002715,0.050641,0.000343,  15.422
   449.2,0.004465,0.002712,0.050648,0.000343,  15.419
   449.4,0.004468,0.002717,0.050631,0.000321,  15.419
   449.6,0.004477,0.002723,0.050597,0.000321,  15.412
   449.8,0.004476,0.002721,0.050570,0.000356,  15.414
   450.0,0.004486,0.002725,0.050544,0.000334,  15.412
   450.2,0.004499,0.002732,0.050544,0.000334,  15.413
   450.4,0.004505,0.002731,0.050527,0.000370,  15.412
   450.6,0.004508,0.002735,0.050517,0.000347,  15.413
   450.8,0.004514,0.002737,0.050158,0.000347,  15.410
   451.0,0.004514,0.002739,0.049626,0.000370,  15.403
   451.2,0.004520,0.002744,0.048929,0.000347,  15.407
   451.4,0.004523,0.002753,0.048912,0.000347,  15.407
   451.6,0.004526,0.002755,0.049155,0.000370,  15.401
   451.8,0.004525,0.002759,0.049653,0.000347,  15.400
   452.0,0.004528,0.002762,0.049803,0.000347,  15.398
   452.2,0.004534,0.002761,0.049924,0.000383,  15.400
   452.4,0.004533,0.002768,0.049974,0.000347,  15.398
   452.6,0.004538,0.002774,0.050125,0.000347,  15.398
   452.8,0.004548,0.002773,0.050292,0.000383,  15.394
   453.0,0.004547,0.002783,0.050476,0.000347,  15.396
   453.2,0.004560,0.002785,0.050600,0.000347,  15.391
   453.4,0.004570,0.002785,0.050670,0.000383,  15.392
   453.6,0.004569,0.002783,0.050714,0.000383,  15.388
   453.8,0.004585,0.002783,0.050801,0.000383,  15.388
   454.0,0.004588,0.002783,0.050855,0.000383,  15.390
   454.2,0.004587,0.002775,0.050915,0.000383,  15.388
   454.4,0.004597,0.002785,0.050932,0.000383,  15.387
   454.6,0.004597,0.002784,0.050912,0.000383,  15.383
   454.8,0.004596,0.002784,0.050869,0.000383,  15.384
   455.0,0.004606,0.002787,0.050795,0.000347,  15.383
   455.2,0.004606,0.002781,0.050779,0.000347,  15.377
   455.4,0.004602,0.002776,0.050752,0.000383,  15.380
   455.6,0.004609,0.002784,0.050766,0.000347,  15.381
   455.8,0.004609,0.002783,0.050826,0.000347,  15.376
   456.0,0.004605,0.002778,0.050904,0.000383,  15.378
   456.2,0.004611,0.002780,0.051008,0.000347,  15.377
   456.4,0.004611,0.002779,0.051058,0.000347,  15.378
   456.6,0.004607,0.002773,0.051065,0.000383,  15.379
   456.8,0.004611,0.002776,0.051022,0.000347,  15.378
   457.0,0.004611,0.002775,0.051075,0.000347,  15.373
   457.2,0.004607,0.002777,0.051160,0.000383,  15.376
   457.4,0.004611,0.002777,0.051237,0.000347,  15.375
   457.6,0.004609,0.002783,0.050982,0.000347,  15.377
   457.8,0.004605,0.002785,0.050570,0.000370,  15.375
   458.0,0.004611,0.002788,0.049981,0.000347,  15.378
   458.2,0.004611,0.002790,0.050058,0.000347,  15.378
   458.4,0.004610,0.002789,0.050363,0.000370,  15.370
   458.6,0.004620,0.002791,0.050930,0.000347,  15.376
   458.8,0.004626,0.002796,0.051104,0.000334,  15.375
   459.0,0.004632,0.002800,0.051216,0.000356,  15.375
   459.2,0.004635,0.002806,0.051249,0.000334,  15.370
   459.4,0.004638,0.002811,0.051381,0.000321,  15.372
   459.6,0.004641,0.002810,0.051495,0.000356,  15.374
   459.8,0.004643,0.002812,0.051626,0.000334,  15.369
   460.0,0.004646,0.002812,0.051703,0.000321,  15.370
   460.2,0.004642,0.002812,0.051737,0.000356,  15.372
   460.4,0.004644,0.002815,0.051727,0.000334,  15.374
   460.6,0.004657,0.002818,0.051741,0.000334,  15.374
   460.8,0.004660,0.002811,0.051738,0.000370,  15.378
   461.0,0.004656,0.002814,0.051692,0.000347,  15.375
   461.2,0.004669,0.002816,0.051742,0.000347,  15.371
   461.4,0.004669,0.002816,0.051803,0.000370,  15.371
   461.6,0.004665,0.002817,0.051891,0.000347,  15.375
   461.8,0.004674,0.002819,0.051924,0.000347,  15.377
   462.0,0.004681,0.002813,0.051931,0.000383,  15.377
   462.2,0.004677,0.002815,0.051912,0.000347,  15.379
   462.4,0.004677,0.002817,0.051919,0.000347,  15.378
   462.6,0.004684,0.002817,0.051926,0.000383,  15.380
   462.8,0.004683,0.002818,0.051940,0.000383,  15.380
   463.0,0.004683,0.002826,0.051869,0.000383,  15.376
   463.2,0.004693,0.002829,0.051771,0.000383,  15.380
   463.4,0.004689,0.002829,0.051630,0.000383,  15.383
   463.6,0.004692,0.002827,0.051463,0.000383,  15.379
   463.8,0.004692,0.002827,0.051540,0.000383,  15.383
   464.0,0.004685,0.002827,0.051678,0.000383,  15.381
   464.2,0.004692,0.002826,0.051921,0.000347,  15.380
   464.4,0.004692,0.002824,0.052049,0.000347,  15.382
   464.6,0.004685,0.002821,0.052137,0.000383,  15.381
   464.8,0.004685,0.002823,0.052221,0.000347,  15.384
   465.0,0.004685,0.002823,0.051720,0.000347,  15.382
   465.2,0.004678,0.002823,0.050914,0.000383,  15.387
   465.4,0.004678,0.002823,0.049806,0.000347,  15.387
   465.6,0.004685,0.002824,0.049903,0.000347,  15.391
   465.8,0.004678,0.002814,0.050452,0.000383,  15.387
   466.0,0.004678,0.002817,0.051448,0.000347,  15.390
   466.2,0.004682,0.002816,0.051815,0.000347,  15.392
   466.4,0.004675,0.002811,0.052094,0.000383,  15.391
   466.6,0.004675,0.002811,0.052283,0.000347,  15.396
   466.8,0.004679,0.002812,0.052482,0.000347,  15.391
   467.0,0.004669,0.002805,0.052655,0.000383,  15.396
   467.2,0.004680,0.002808,0.052725,0.000347,  15.393
   467.4,0.004688,0.002807,0.052850,0.000347,  15.398
   467.6,0.004681,0.002805,0.052979,0.000370,  15.399
   467.8,0.004688,0.002799,0.053083,0.000347,  15.399
   468.0,0.004688,0.002797,0.053154,0.000347,  15.403
   468.2,0.004688,0.002796,0.053222,0.000370,  15.403
   468.4,0.004685,0.002798,0.053246,0.000347,  15.407
   468.6,0.004689,0.002800,0.053219,0.000347,  15.409
   468.8,0.004683,0.002798,0.053172,0.000370,  15.410
   469.0,0.004683,0.002799,0.053071,0.000347,  15.413
   469.2,0.004674,0.002801,0.053125,0.000347,  15.414
   469.4,0.004671,0.002793,0.053240,0.000370,  15.415
   469.6,0.004661,0.002796,0.053392,0.000347,  15.415
   469.8,0.004658,0.002796,0.053402,0.000334,  15.415
   470.0,0.004658,0.002794,0.053399,0.000356,  15.420
   470.2,0.004654,0.002794,0.053308,0.000334,  15.422
   470.4,0.004648,0.002798,0.053345,0.000321,  15.424
   470.6,0.004652,0.002795,0.053426,0.000356,  15.426
   470.8,0.004645,0.002789,0.053524,0.000334,  15.426
   471.0,0.004642,0.002784,0.053551,0.000321,  15.429
   471.2,0.004643,0.002776,0.053585,0.000356,  15.428
   471.4,0.004640,0.002778,0.053558,0.000356,  15.432
   471.6,0.004637,0.002771,0.053568,0.000370,  15.431
   471.8,0.004645,0.002765,0.053601,0.000356,  15.430
   472.0,0.004642,0.002765,0.053605,0.000356,  15.432
   472.2,0.004629,0.002763,0.053638,0.000370,  15.435
   472.4,0.004633,0.002764,0.053605,0.000356,  15.438
   472.6,0.004626,0.002754,0.053558,0.000356,  15.434
   472.8,0.004623,0.002755,0.053504,0.000334,  15.435
   473.0,0.004620,0.002751,0.053311,0.000321,  15.438
   473.2,0.004610,0.002749,0.053064,0.000356,  15.444
   473.4,0.004611,0.002744,0.052757,0.000334,  15.440
   473.6,0.004606,0.002735,0.052740,0.000321,  15.439
   473.8,0.004593,0.002726,0.052835,0.000356,  15.440
   474.0,0.004584,0.002719,0.053011,0.000334,  15.441
   474.2,0.004578,0.002718,0.053074,0.000321,  15.442
   474.4,0.004568,0.002712,0.053145,0.000356,  15.444
   474.6,0.004559,0.002712,0.053189,0.000334,  15.448
   474.8,0.004560,0.002708,0.053226,0.000321,  15.447
   475.0,0.004550,0.002700,0.053253,0.000343,  15.445
   475.2,0.004544,0.002695,0.053270,0.000321,  15.444
   475.4,0.004545,0.002691,0.053253,0.000307,  15.447
   475.6,0.004533,0.002683,0.053219,0.000330,  15.446
   475.8,0.004527,0.002684,0.053141,0.000307,  15.443
   476.0,0.004528,0.002685,0.053161,0.000294,  15.441
   476.2,0.004522,0.002677,0.053208,0.000330,  15.445
   476.4,0.004522,0.002680,0.053279,0.000294,  15.442
   476.6,0.004516,0.002681,0.053235,0.000294,  15.442
   476.8,0.004520,0.002676,0.053130,0.000317,  15.446
   477.0,0.004517,0.002673,0.052986,0.000281,  15.444
   477.2,0.004514,0.002676,0.052996,0.000281,  15.447
   477.4,0.004511,0.002676,0.053045,0.000303,  15.444
   477.6,0.004501,0.002675,0.053146,0.000268,  15.444
   477.8,0.004505,0.002674,0.052849,0.000290,  15.446
   478.0,0.004505,0.002672,0.052360,0.000313,  15.444
   478.2,0.004498,0.002673,0.051703,0.000277,  15.444
   478.4,0.004502,0.002670,0.051599,0.000313,  15.443
   478.6,0.004496,0.002663,0.051659,0.000313,  15.443
   478.8,0.004489,0.002667,0.051905,0.000277,  15.441
   479.0,0.004489,0.002672,0.051985,0.000277,  15.440
   479.2,0.004486,0.002667,0.052066,0.000277,  15.441
   479.4,0.004479,0.002669,0.052137,0.000241,  15.441
   479.6,0.004476,0.002672,0.052190,0.000241,  15.442
   479.8,0.004480,0.002671,0.052210,0.000277,  15.438
   480.0,0.004473,0.002678,0.052203,0.000241,  15.439
   480.2,0.004473,0.002682,0.052240,0.000241,  15.440
   480.4,0.004480,0.002679,0.052304,0.000277,  15.437
   480.6,0.004473,0.002692,0.052344,0.000277,  15.437
   480.8,0.004473,0.002695,0.052337,0.000290,  15.437
   481.0,0.004480,0.002694,0.052337,0.000290,  15.432
   481.2,0.004476,0.002698,0.052259,0.000290,  15.433
   481.4,0.004479,0.002699,0.052188,0.000303,  15.434
   481.6,0.004485,0.002710,0.051811,0.000290,  15.433
   481.8,0.004484,0.002717,0.051311,0.000290,  15.431
   482.0,0.004497,0.002729,0.050697,0.000254,  15.432
   482.2,0.004503,0.002736,0.050673,0.000268,  15.427
   482.4,0.004505,0.002741,0.050884,0.000290,  15.424
   482.6,0.004524,0.002756,0.051357,0.000254,  15.423
   482.8,0.004533,0.002758,0.051474,0.000268,  15.424
   483.0,0.004534,0.002762,0.051555,0.000290,  15.420
   483.2,0.004550,0.002768,0.051582,0.000254,  15.422
   483.4,0.004559,0.002767,0.051655,0.000281,  15.421
   483.6,0.004558,0.002775,0.051726,0.000317,  15.418
   483.8,0.004571,0.002774,0.051762,0.000294,  15.420
   484.0,0.004584,0.002780,0.051782,0.000307,  15.413
   484.2,0.004583,0.002782,0.051806,0.000356,  15.420
   484.4,0.004586,0.002783,0.051762,0.000334,  15.416
   484.6,0.004599,0.002789,0.051755,0.000334,  15.409
   484.8,0.004601,0.002794,0.051779,0.000370,  15.413
   485.0,0.004597,0.002797,0.051762,0.000347,  15.412
   485.2,0.004600,0.002794,0.051799,0.000347,  15.403
   485.4,0.004596,0.002793,0.051836,0.000370,  15.409
   485.6,0.004608,0.002795,0.051890,0.000347,  15.408
   485.8,0.004615,0.002799,0.051479,0.000347,  15.406
   486.0,0.004618,0.002799,0.050824,0.000383,  15.407
   486.2,0.004617,0.002799,0.049967,0.000347,  15.403
   486.4,0.004624,0.002812,0.049967,0.000347,  15.407
   486.6,0.004627,0.002817,0.050257,0.000383,  15.398
   486.8,0.004629,0.002819,0.050887,0.000347,  15.397
   487.0,0.004639,0.002816,0.051062,0.000347,  15.392
   487.2,0.004635,0.002819,0.051183,0.000383,  15.395
   487.4,0.004634,0.002817,0.051224,0.000347,  15.387
   487.6,0.004647,0.002819,0.051294,0.000347,  15.394
   487.8,0.004654,0.002814,0.051338,0.000383,  15.395
   488.0,0.004653,0.002819,0.051345,0.000347,  15.391
   488.2,0.004663,0.002825,0.051389,0.000347,  15.389
   488.4,0.004666,0.002827,0.051449,0.000383,  15.389
   488.6,0.004665,0.002829,0.051500,0.000360,  15.388
   488.8,0.004672,0.002828,0.051527,0.000360,  15.385
   489.0,0.004678,0.002832,0.051544,0.000396,  15.385
   489.2,0.004674,0.002835,0.051551,0.000374,  15.386
   489.4,0.004677,0.002835,0.051597,0.000374,  15.384
   489.6,0.004683,0.002833,0.051658,0.000396,  15.384
   489.8,0.004679,0.002838,0.051728,0.000396,  15.381
   490.0,0.004692,0.002840,0.051745,0.000396,  15.380
   490.2,0.004695,0.002839,0.051728,0.000396,  15.378
   490.4,0.004694,0.002842,0.051709,0.000396,  15.378
   490.6,0.004701,0.002833,0.051638,0.000396,  15.383
   490.8,0.004705,0.002835,0.051655,0.000432,  15.377
   491.0,0.004701,0.002832,0.051689,0.000432,  15.378
   491.2,0.004708,0.002833,0.051726,0.000396,  15.377
   491.4,0.004715,0.002841,0.051759,0.000432,  15.381
   491.6,0.004711,0.002846,0.051793,0.000432,  15.377
   491.8,0.004714,0.002844,0.051817,0.000383,  15.374
   492.0,0.004717,0.002834,0.051814,0.000419,  15.373
   492.2,0.004716,0.002829,0.051770,0.000419,  15.372
   492.4,0.004719,0.002834,0.051731,0.000370,  15.369
   492.6,0.004725,0.002834,0.051798,0.000405,  15.372
   492.8,0.004721,0.002838,0.051886,0.000419,  15.375
   493.0,0.004725,0.002845,0.052017,0.000383,  15.375
   493.2,0.004719,0.002855,0.052129,0.000419,  15.371
   493.4,0.004715,0.002859,0.052216,0.000419,  15.376
   493.6,0.004725,0.002866,0.052311,0.000383,  15.372
   493.8,0.004728,0.002865,0.052381,0.000383,  15.370
   494.0,0.004730,0.002863,0.052432,0.000370,  15.369
   494.2,0.004736,0.002871,0.052473,0.000347,  15.369
   494.4,0.004744,0.002879,0.052524,0.000334,  15.367
   494.6,0.004750,0.002887,0.052548,0.000343,  15.371
   494.8,0.004752,0.002887,0.052555,0.000321,  15.366
   495.0,0.004755,0.002887,0.052599,0.000321,  15.370
   495.2,0.004765,0.002886,0.052643,0.000356,  15.371
   495.4,0.004765,0.002883,0.052696,0.000334,  15.376
   495.6,0.004775,0.002883,0.052757,0.000334,  15.372
   495.8,0.004782,0.002880,0.052791,0.000383,  15.370
   496.0,0.004778,0.002885,0.052825,0.000347,  15.372
   496.2,0.004781,0.002883,0.052869,0.000383,  15.372
   496.4,0.004791,0.002875,0.052920,0.000419,  15.375
   496.6,0.004787,0.002881,0.052961,0.000383,  15.377
   496.8,0.004787,0.002882,0.053014,0.000419,  15.376
   497.0,0.004797,0.002877,0.053082,0.000419,  15.372
   497.2,0.004793,0.002874,0.053133,0.000383,  15.370
   497.4,0.004796,0.002875,0.053167,0.000419,  15.375
   497.6,0.004806,0.002873,0.053157,0.000419,  15.381
   497.8,0.004802,0.002877,0.053144,0.000383,  15.380
   498.0,0.004805,0.002879,0.053232,0.000419,  15.382
   498.2,0.004809,0.002879,0.053337,0.000419,  15.379
   498.4,0.004805,0.002881,0.053479,0.000383,  15.382
   498.6,0.004805,0.002879,0.053496,0.000419,  15.384
   498.8,0.004812,0.002876,0.053500,0.000419,  15.384
   499.0,0.004808,0.002875,0.053426,0.000419,  15.385
   499.2,0.004805,0.002879,0.053406,0.000383,  15.386
   499.4,0.004812,0.002879,0.053413,0.000383,  15.392
   499.6,0.004812,0.002874,0.053420,0.000419,  15.391
   499.8,0.004813,0.002868,0.053420,0.000383,  15.393
   500.0,0.004821,0.002865,0.053471,0.000419,  15.392
   500.2,0.004821,0.002860,0.053532,0.000419,  15.397
   500.4,0.004824,0.002862,0.053592,0.000383,  15.400
   500.6,0.004824,0.002861,0.053643,0.000419,  15.400
   500.8,0.004824,0.002864,0.053694,0.000419,  15.400
   501.0,0.004817,0.002862,0.053735,0.000383,  15.403
   501.2,0.004814,0.002868,0.053752,0.000419,  15.404
   501.4,0.004814,0.002870,0.053759,0.000419,  15.405
   501.6,0.004807,0.002866,0.053739,0.000383,  15.404
   501.8,0.004814,0.002867,0.053783,0.000419,  15.403
   502.0,0.004804,0.002864,0.053871,0.000419,  15.405
   502.2,0.004804,0.002860,0.053959,0.000383,  15.409
   502.4,0.004804,0.002859,0.053966,0.000419,  15.408
   502.6,0.004794,0.002861,0.053912,0.000419,  15.412
   502.8,0.004801,0.002864,0.053831,0.000383,  15.417
   503.0,0.004804,0.002859,0.053919,0.000419,  15.413
   503.2,0.004797,0.002859,0.054051,0.000405,  15.417
   503.4,0.004794,0.002859,0.054237,0.000383,  15.416
   503.6,0.004791,0.002860,0.054335,0.000383,  15.421
   503.8,0.004788,0.002850,0.054397,0.000370,  15.419
   504.0,0.004788,0.002856,0.054414,0.000347,  15.423
   504.2,0.004778,0.002857,0.054438,0.000347,  15.427
   504.4,0.004782,0.002850,0.054435,0.000334,  15.428
   504.6,0.004782,0.002852,0.054363,0.000311,  15.431
   504.8,0.004782,0.002854,0.054326,0.000347,  15.427
   505.0,0.004786,0.002849,0.054289,0.000334,  15.429
   505.2,0.004776,0.002851,0.054225,0.000311,  15.434
   505.4,0.004780,0.002849,0.054252,0.000347,  15.434
   505.6,0.004777,0.002844,0.054306,0.000370,  15.435
   505.8,0.004767,0.002843,0.054384,0.000347,  15.437
   506.0,0.004771,0.002842,0.054401,0.000347,  15.437
   506.2,0.004771,0.002837,0.054384,0.000370,  15.441
   506.4,0.004767,0.002830,0.054330,0.000347,  15.446
   506.6,0.004761,0.002835,0.054357,0.000347,  15.446
   506.8,0.004758,0.002828,0.054394,0.000370,  15.447
   507.0,0.004748,0.002817,0.054438,0.000347,  15.448
   507.2,0.004749,0.002812,0.054130,0.000347,  15.450
   507.4,0.004748,0.002810,0.053653,0.000370,  15.451
   507.6,0.004738,0.002804,0.053002,0.000370,  15.450
   507.8,0.004736,0.002806,0.052843,0.000383,  15.458
   508.0,0.004727,0.002806,0.052860,0.000383,  15.453
   508.2,0.004717,0.002796,0.053019,0.000370,  15.458
   508.4,0.004714,0.002801,0.053343,0.000383,  15.459
   508.6,0.004708,0.002791,0.053441,0.000383,  15.456
   508.8,0.004695,0.002784,0.053538,0.000370,  15.456
   509.0,0.004689,0.002778,0.053643,0.000347,  15.457
   509.2,0.004687,0.002767,0.053514,0.000347,  15.461
   509.4,0.004677,0.002760,0.053295,0.000370,  15.459
   509.6,0.004672,0.002753,0.052961,0.000347,  15.462
   509.8,0.004670,0.002754,0.053041,0.000334,  15.460
   510.0,0.004657,0.002749,0.053230,0.000343,  15.461
   510.2,0.004654,0.002746,0.053557,0.000321,  15.462
   510.4,0.004642,0.002748,0.053689,0.000321,  15.464
   510.6,0.004629,0.002745,0.053753,0.000343,  15.464
   510.8,0.004630,0.002748,0.053763,0.000307,  15.463
   511.0,0.004628,0.002743,0.053861,0.000307,  15.465
   511.2,0.004618,0.002736,0.053969,0.000317,  15.465
   511.4,0.004615,0.002739,0.054070,0.000281,  15.462
   511.6,0.004616,0.002737,0.054053,0.000281,  15.462
   511.8,0.004606,0.002732,0.053948,0.000303,  15.465
   512.0,0.004606,0.002732,0.053803,0.000268,  15.463
   512.2,0.004610,0.002734,0.053742,0.000268,  15.465
   512.4,0.004601,0.002732,0.053681,0.000303,  15.459
   512.6,0.004595,0.002734,0.053620,0.000268,  15.467
   512.8,0.004599,0.002734,0.053384,0.000303,  15.463
   513.0,0.004596,0.002729,0.053059,0.000326,  15.462
   513.2,0.004599,0.002730,0.052614,0.000290,  15.464
   513.4,0.004592,0.002729,0.052580,0.000339,  15.462
   513.6,0.004599,0.002723,0.052668,0.000326,  15.461
   513.8,0.004599,0.002725,0.052897,0.000290,  15.457
   514.0,0.004596,0.002730,0.052944,0.000339,  15.457
   514.2,0.004600,0.002728,0.052964,0.000326,  15.457
   514.4,0.004593,0.002726,0.052947,0.000290,  15.453
   514.6,0.004600,0.002725,0.052994,0.000339,  15.455
   514.8,0.004597,0.002725,0.053057,0.000326,  15.452
   515.0,0.004597,0.002726,0.053128,0.000290,  15.455
   515.2,0.004597,0.002735,0.053165,0.000339,  15.450
   515.4,0.004601,0.002735,0.053185,0.000326,  15.450
   515.6,0.004601,0.002736,0.053161,0.000290,  15.455
   515.8,0.004594,0.002741,0.053171,0.000303,  15.449
   516.0,0.004601,0.002742,0.053164,0.000303,  15.447
   516.2,0.004594,0.002747,0.053140,0.000268,  15.450
   516.4,0.004600,0.002761,0.053123,0.000268,  15.448
   516.6,0.004603,0.002766,0.053062,0.000303,  15.449
   516.8,0.004602,0.002763,0.052992,0.000303,  15.439
   517.0,0.004604,0.002771,0.052992,0.000303,  15.441
   517.2,0.004605,0.002773,0.053001,0.000303,  15.443
   517.4,0.004604,0.002772,0.053021,0.000303,  15.436
   517.6,0.004610,0.002780,0.053048,0.000303,  15.437
   517.8,0.004620,0.002784,0.053146,0.000303,  15.436
   518.0,0.004622,0.002791,0.053230,0.000303,  15.432
   518.2,0.004628,0.002794,0.053365,0.000281,  15.432
   518.4,0.004641,0.002794,0.052889,0.000281,  15.430
   518.6,0.004643,0.002800,0.052087,0.000294,  15.429
   518.8,0.004656,0.002807,0.051015,0.000272,  15.426
   519.0,0.004670,0.002803,0.050904,0.000307,  15.422
   519.2,0.004669,0.002803,0.051132,0.000321,  15.424
   519.4,0.004677,0.002812,0.051696,0.000298,  15.421
   519.6,0.004687,0.002822,0.051830,0.000321,  15.417
   519.8,0.004686,0.002827,0.051928,0.000321,  15.413
   520.0,0.004689,0.002826,0.051971,0.000298,  15.413
   520.2,0.004699,0.002823,0.052086,0.000334,  15.409
   520.4,0.004698,0.002828,0.052186,0.000334,  15.409
   520.6,0.004701,0.002828,0.052277,0.000311,  15.407
   520.8,0.004711,0.002831,0.052250,0.000347,  15.404
   521.0,0.004714,0.002838,0.052119,0.000347,  15.402
   521.2,0.004720,0.002837,0.051948,0.000311,  15.403
   521.4,0.004716,0.002846,0.051921,0.000347,  15.398
   521.6,0.004726,0.002851,0.051914,0.000347,  15.398
   521.8,0.004722,0.002856,0.051941,0.000311,  15.397
   522.0,0.004728,0.002858,0.051863,0.000347,  15.396
   522.2,0.004734,0.002868,0.051752,0.000347,  15.395
   522.4,0.004733,0.002870,0.051613,0.000311,  15.392
   522.6,0.004742,0.002873,0.051613,0.000347,  15.387
   522.8,0.004745,0.002879,0.051664,0.000383,  15.392
   523.0,0.004747,0.002886,0.051783,0.000347,  15.388
   523.2,0.004760,0.002888,0.051853,0.000347,  15.386
   523.4,0.004766,0.002885,0.051931,0.000383,  15.386
   523.6,0.004765,0.002891,0.051991,0.000347,  15.387
   523.8,0.004781,0.002895,0.052116,0.000347,  15.383
   524.0,0.004794,0.002895,0.052274,0.000383,  15.378
   524.2,0.004793,0.002901,0.052425,0.000347,  15.381
   524.4,0.004799,0.002899,0.052469,0.000347,  15.378
   524.6,0.004809,0.002904,0.052449,0.000383,  15.376
   524.8,0.004808,0.002906,0.052376,0.000432,  15.376
   525.0,0.004813,0.002914,0.052399,0.000396,  15.375
   525.2,0.004816,0.002916,0.052409,0.000432,  15.372
   525.4,0.004812,0.002918,0.052460,0.000432,  15.371
   525.6,0.004822,0.002920,0.052487,0.000409,  15.369
   525.8,0.004832,0.002920,0.052558,0.000445,  15.373
   526.0,0.004831,0.002918,0.052636,0.000432,  15.371
   526.2,0.004837,0.002919,0.052757,0.000396,  15.368
   526.4,0.004847,0.002917,0.052801,0.000432,  15.371
   526.6,0.004846,0.002908,0.052842,0.000432,  15.369
   526.8,0.004846,0.002908,0.052849,0.000396,  15.371
   527.0,0.004853,0.002911,0.052893,0.000432,  15.370
   527.2,0.004846,0.002906,0.052961,0.000432,  15.370
   527.4,0.004846,0.002913,0.053028,0.000396,  15.368
   527.6,0.004847,0.002916,0.053062,0.000445,  15.370
   527.8,0.004844,0.002916,0.053052,0.000445,  15.368
   528.0,0.004842,0.002921,0.053022,0.000409,  15.365
   528.2,0.004847,0.002921,0.053100,0.000459,  15.367
   528.4,0.004843,0.002923,0.053171,0.000445,  15.365
   528.6,0.004846,0.002930,0.053283,0.000409,  15.368
   528.8,0.004845,0.002939,0.053307,0.000445,  15.368
   529.0,0.004844,0.002943,0.053260,0.000432,  15.366
   529.2,0.004860,0.002945,0.053193,0.000383,  15.364
   529.4,0.004869,0.002943,0.053264,0.000419,  15.368
   529.6,0.004871,0.002949,0.053369,0.000419,  15.363
   529.8,0.004887,0.002953,0.053528,0.000370,  15.360
   530.0,0.004892,0.002954,0.053571,0.000405,  15.364
   530.2,0.004898,0.002958,0.053578,0.000419,  15.367
   530.4,0.004904,0.002960,0.053549,0.000383,  15.361
   530.6,0.004910,0.002961,0.053619,0.000419,  15.366
   530.8,0.004913,0.002956,0.053734,0.000419,  15.363
   531.0,0.004919,0.002958,0.053907,0.000383,  15.363
   531.2,0.004925,0.002961,0.053941,0.000419,  15.364
   531.4,0.004928,0.002954,0.053904,0.000419,  15.362
   531.6,0.004924,0.002957,0.053847,0.000383,  15.364
   531.8,0.004934,0.002955,0.053864,0.000419,  15.361
   532.0,0.004934,0.002950,0.053922,0.000419,  15.366
   532.2,0.004930,0.002950,0.053983,0.000383,  15.370
   532.4,0.004937,0.002952,0.054054,0.000419,  15.369
   532.6,0.004934,0.002947,0.054176,0.000419,  15.369
   532.8,0.004930,0.002950,0.054308,0.000396,  15.366
   533.0,0.004934,0.002950,0.054414,0.000432,  15.373
   533.2,0.004931,0.002945,0.054502,0.000432,  15.373
   533.4,0.004927,0.002949,0.054563,0.000396,  15.374
   533.6,0.004931,0.002949,0.054590,0.000432,  15.376
   533.8,0.004928,0.002946,0.054604,0.000419,  15.376
   534.0,0.004924,0.002950,0.054584,0.000405,  15.376
   534.2,0.004931,0.002954,0.054574,0.000370,  15.376
   534.4,0.004931,0.002954,0.054574,0.000370,  15.378
   534.6,0.004927,0.002944,0.054571,0.000419,  15.381
   534.8,0.004934,0.002952,0.054568,0.000383,  15.382
   535.0,0.004937,0.002949,0.054520,0.000419,  15.383
   535.2,0.004930,0.002948,0.054453,0.000419,  15.383
   535.4,0.004937,0.002950,0.054352,0.000383,  15.385
   535.6,0.004937,0.002949,0.054369,0.000419,  15.388
   535.8,0.004933,0.002949,0.054437,0.000419,  15.389
   536.0,0.004943,0.002952,0.054525,0.000383,  15.383
   536.2,0.004946,0.002950,0.054559,0.000419,  15.390
   536.4,0.004942,0.002949,0.054590,0.000419,  15.393
   536.6,0.004946,0.002953,0.054553,0.000383,  15.394
   536.8,0.004940,0.002950,0.054411,0.000419,  15.395
   537.0,0.004930,0.002950,0.054208,0.000419,  15.397
   537.2,0.004937,0.002944,0.053924,0.000383,  15.400
   537.4,0.004937,0.002941,0.053968,0.000419,  15.401
   537.6,0.004924,0.002933,0.054151,0.000419,  15.405
   537.8,0.004928,0.002930,0.054449,0.000383,  15.402
   538.0,0.004922,0.002928,0.054591,0.000419,  15.404
   538.2,0.004915,0.002920,0.054758,0.000419,  15.408
   538.4,0.004922,0.002920,0.054873,0.000383,  15.411
   538.6,0.004919,0.002917,0.054944,0.000419,  15.415
   538.8,0.004919,0.002913,0.054995,0.000419,  15.413
   539.0,0.004916,0.002911,0.055002,0.000383,  15.413
   539.2,0.004916,0.002910,0.055029,0.000419,  15.417
   539.4,0.004910,0.002908,0.055053,0.000419,  15.419
   539.6,0.004907,0.002915,0.055060,0.000383,  15.416
   539.8,0.004904,0.002910,0.055114,0.000405,  15.423
   540.0,0.004898,0.002902,0.055169,0.000392,  15.427
   540.2,0.004895,0.002901,0.055247,0.000370,  15.426
   540.4,0.004889,0.002901,0.055257,0.000392,  15.428
   540.6,0.004888,0.002896,0.055250,0.000392,  15.424
   540.8,0.004885,0.002888,0.055213,0.000370,  15.427
   541.0,0.004875,0.002894,0.055213,0.000392,  15.429
   541.2,0.004876,0.002897,0.055189,0.000392,  15.432
   541.4,0.004869,0.002897,0.055196,0.000370,  15.428
   541.6,0.004872,0.002901,0.055284,0.000392,  15.433
   541.8,0.004869,0.002901,0.055351,0.000392,  15.435
   542.0,0.004862,0.002905,0.055477,0.000370,  15.436
   542.2,0.004869,0.002900,0.055467,0.000392,  15.439
   542.4,0.004863,0.002900,0.055385,0.000379,  15.439
   542.6,0.004860,0.002897,0.055240,0.000379,  15.441
   542.8,0.004864,0.002891,0.055240,0.000343,  15.439
   543.0,0.004865,0.002881,0.055311,0.000356,  15.441
   543.2,0.004858,0.002879,0.055402,0.000379,  15.439
   543.4,0.004855,0.002874,0.055413,0.000356,  15.444
   543.6,0.004848,0.002873,0.055413,0.000392,  15.442
   543.8,0.004841,0.002863,0.055378,0.000379,  15.446
   544.0,0.004842,0.002867,0.055341,0.000356,  15.445
   544.2,0.004833,0.002863,0.055388,0.000392,  15.444
   544.4,0.004823,0.002861,0.055443,0.000392,  15.446
   544.6,0.004824,0.002861,0.055524,0.000370,  15.447
   544.8,0.004818,0.002856,0.055500,0.000392,  15.447
   545.0,0.004806,0.002848,0.055436,0.000379,  15.447
   545.2,0.004804,0.002844,0.055327,0.000356,  15.449
   545.4,0.004798,0.002835,0.055266,0.000392,  15.448
   545.6,0.004788,0.002830,0.055205,0.000379,  15.451
   545.8,0.004789,0.002830,0.055151,0.000356,  15.450
   546.0,0.004783,0.002828,0.055168,0.000379,  15.450
   546.2,0.004773,0.002828,0.055195,0.000366,  15.448
   546.4,0.004774,0.002823,0.055215,0.000330,  15.453
   546.6,0.004765,0.002814,0.055215,0.000366,  15.454
   546.8,0.004755,0.002812,0.055215,0.000352,  15.455
   547.0,0.004759,0.002809,0.055164,0.000317,  15.452
   547.2,0.004756,0.002805,0.055147,0.000366,  15.456
   547.4,0.004746,0.002802,0.055113,0.000352,  15.453
   547.6,0.004750,0.002799,0.055061,0.000317,  15.455
   547.8,0.004745,0.002804,0.054895,0.000352,  15.449
   548.0,0.004745,0.002799,0.054648,0.000339,  15.454
   548.2,0.004742,0.002796,0.054312,0.000303,  15.457
   548.4,0.004742,0.002800,0.054217,0.000339,  15.453
   548.6,0.004739,0.002802,0.054200,0.000339,  15.453
   548.8,0.004739,0.002794,0.054278,0.000303,  15.451
   549.0,0.004736,0.002796,0.054288,0.000303,  15.452
   549.2,0.004733,0.002796,0.054308,0.000303,  15.449
   549.4,0.004723,0.002803,0.054328,0.000268,  15.450
   549.6,0.004727,0.002810,0.054338,0.000268,  15.448
   549.8,0.004721,0.002810,0.054297,0.000303,  15.449
   550.0,0.004714,0.002814,0.054263,0.000268,  15.449
   550.2,0.004714,0.002818,0.054239,0.000268,  15.447
   550.4,0.004717,0.002820,0.054188,0.000303,  15.444
   550.6,0.004713,0.002819,0.054127,0.000268,  15.443
   550.8,0.004723,0.002814,0.054140,0.000268,  15.442
   551.0,0.004733,0.002813,0.054170,0.000290,  15.442
   551.2,0.004729,0.002815,0.054234,0.000254,  15.439
   551.4,0.004736,0.002814,0.054264,0.000268,  15.440
   551.6,0.004733,0.002812,0.054284,0.000303,  15.438
   551.8,0.004726,0.002821,0.054301,0.000317,  15.438
   552.0,0.004736,0.002834,0.054284,0.000303,  15.438
   552.2,0.004736,0.002836,0.054243,0.000317,  15.434
   552.4,0.004732,0.002843,0.054230,0.000303,  15.434
   552.6,0.004745,0.002846,0.054159,0.000303,  15.432
   552.8,0.004748,0.002851,0.054105,0.000303,  15.428
   553.0,0.004746,0.002855,0.054034,0.000303,  15.425
   553.2,0.004759,0.002860,0.053946,0.000268,  15.426
   553.4,0.004762,0.002860,0.053905,0.000268,  15.428
   553.6,0.004761,0.002860,0.053905,0.000303,  15.425
   553.8,0.004774,0.002867,0.053898,0.000268,  15.426
   554.0,0.004777,0.002877,0.053891,0.000281,  15.420
   554.2,0.004777,0.002878,0.053901,0.000317,  15.416
   554.4,0.004791,0.002878,0.053870,0.000294,  15.415
   554.6,0.004805,0.002882,0.053853,0.000307,  15.415
   554.8,0.004811,0.002882,0.053819,0.000343,  15.413
   555.0,0.004813,0.002882,0.053751,0.000321,  15.410
   555.2,0.004818,0.002887,0.053690,0.000321,  15.407
   555.4,0.004826,0.002886,0.053612,0.000343,  15.405
   555.6,0.004832,0.002888,0.053532,0.000321,  15.404
   555.8,0.004835,0.002898,0.053525,0.000356,  15.405
   556.0,0.004837,0.002893,0.053528,0.000392,  15.400
   556.2,0.004840,0.002898,0.053582,0.000370,  15.400
   556.4,0.004833,0.002901,0.053555,0.000405,  15.396
   556.6,0.004836,0.002893,0.053467,0.000405,  15.392
   556.8,0.004838,0.002899,0.053335,0.000383,  15.393
   557.0,0.004842,0.002906,0.053311,0.000419,  15.393
   557.2,0.004848,0.002905,0.053328,0.000419,  15.392
   557.4,0.004854,0.002908,0.053372,0.000383,  15.387
   557.6,0.004864,0.002912,0.053426,0.000419,  15.384
   557.8,0.004867,0.002909,0.053507,0.000405,  15.386
   558.0,0.004870,0.002919,0.053605,0.000383,  15.382
   558.2,0.004869,0.002920,0.053631,0.000419,  15.379
   558.4,0.004876,0.002922,0.053614,0.000419,  15.378
   558.6,0.004872,0.002925,0.053544,0.000383,  15.378
   558.8,0.004875,0.002930,0.053527,0.000419,  15.375
   559.0,0.004878,0.002930,0.053517,0.000419,  15.373
   559.2,0.004877,0.002933,0.053473,0.000383,  15.369
   559.4,0.004887,0.002936,0.053500,0.000419,  15.370
   559.6,0.004889,0.002938,0.053527,0.000419,  15.366
   559.8,0.004888,0.002933,0.053564,0.000383,  15.368
   560.0,0.004891,0.002932,0.053554,0.000419,  15.364
   560.2,0.004891,0.002931,0.053500,0.000419,  15.366
   560.4,0.004894,0.002931,0.053402,0.000419,  15.366
   560.6,0.004894,0.002930,0.053365,0.000383,  15.362
   560.8,0.004911,0.002927,0.053321,0.000383,  15.362
   561.0,0.004914,0.002927,0.053294,0.000419,  15.360
   561.2,0.004907,0.002929,0.053267,0.000383,  15.358
   561.4,0.004917,0.002931,0.053345,0.000419,  15.358
   561.6,0.004920,0.002926,0.053443,0.000419,  15.358
   561.8,0.004916,0.002924,0.053585,0.000383,  15.354
   562.0,0.004923,0.002927,0.053655,0.000419,  15.356
   562.2,0.004926,0.002927,0.053692,0.000405,  15.355
   562.4,0.004922,0.002927,0.053719,0.000383,  15.354
   562.6,0.004926,0.002928,0.053736,0.000419,  15.355
   562.8,0.004926,0.002923,0.053716,0.000405,  15.354
   563.0,0.004916,0.002928,0.053662,0.000383,  15.354
   563.2,0.004920,0.002933,0.053723,0.000383,  15.355
   563.4,0.004920,0.002934,0.053811,0.000370,  15.353
   563.6,0.004913,0.002942,0.053916,0.000347,  15.356
   563.8,0.004920,0.002956,0.053896,0.000334,  15.353
   564.0,0.004919,0.002960,0.053839,0.000356,  15.352
   564.2,0.004924,0.002967,0.053735,0.000334,  15.350
   564.4,0.004936,0.002982,0.053735,0.000321,  15.352
   564.6,0.004938,0.002991,0.053786,0.000343,  15.352
   564.8,0.004952,0.002994,0.053864,0.000321,  15.349
   565.0,0.004961,0.003002,0.053962,0.000321,  15.351
   565.2,0.004966,0.003003,0.054111,0.000307,  15.345
   565.4,0.004982,0.003007,0.054270,0.000285,  15.344
   565.6,0.004991,0.003004,0.054314,0.000321,  15.342
   565.8,0.004997,0.003003,0.054328,0.000321,  15.343
   566.0,0.005003,0.003008,0.054288,0.000298,  15.347
   566.2,0.005006,0.003020,0.054136,0.000334,  15.343
   566.4,0.005013,0.003027,0.053930,0.000334,  15.342
   566.6,0.005019,0.003023,0.053643,0.000311,  15.346
   566.8,0.005028,0.003024,0.053640,0.000347,  15.343
   567.0,0.005030,0.003028,0.053742,0.000347,  15.346
   567.2,0.005029,0.003027,0.053966,0.000311,  15.348
   567.4,0.005032,0.003027,0.054078,0.000347,  15.348
   567.6,0.005045,0.003027,0.054207,0.000383,  15.355
   567.8,0.005051,0.003022,0.054302,0.000360,  15.355
   568.0,0.005051,0.003029,0.054468,0.000360,  15.353
   568.2,0.005065,0.003029,0.054655,0.000396,  15.354
   568.4,0.005061,0.003029,0.054875,0.000374,  15.357
   568.6,0.005061,0.003028,0.054980,0.000374,  15.358
   568.8,0.005064,0.003026,0.055014,0.000396,  15.356
   569.0,0.005060,0.003020,0.055025,0.000360,  15.363
   569.2,0.005064,0.003019,0.055100,0.000360,  15.361
   569.4,0.005061,0.003013,0.055151,0.000396,  15.370
   569.6,0.005057,0.003011,0.055193,0.000396,  15.366
   569.8,0.005064,0.003013,0.055244,0.000396,  15.368
   570.0,0.005061,0.003011,0.055305,0.000396,  15.367
   570.2,0.005057,0.003011,0.055366,0.000396,  15.371
   570.4,0.005061,0.003004,0.055427,0.000396,  15.377
   570.6,0.005058,0.003007,0.055478,0.000396,  15.374
   570.8,0.005055,0.003002,0.055513,0.000396,  15.376
   571.0,0.005053,0.002997,0.055513,0.000360,  15.374
   571.2,0.005058,0.002994,0.055564,0.000360,  15.381
   571.4,0.005058,0.002989,0.055608,0.000396,  15.385
   571.6,0.005048,0.002986,0.055676,0.000347,  15.386
   571.8,0.005055,0.002989,0.055666,0.000347,  15.390
   572.0,0.005055,0.002987,0.055636,0.000383,  15.388
   572.2,0.005048,0.002982,0.055579,0.000334,  15.395
   572.4,0.005042,0.002982,0.055640,0.000334,  15.389
   572.6,0.005046,0.002978,0.055728,0.000383,  15.392
   572.8,0.005047,0.002974,0.055854,0.000347,  15.395
   573.0,0.005043,0.002971,0.055871,0.000347,  15.400
   573.2,0.005043,0.002968,0.055868,0.000383,  15.403
   573.4,0.005033,0.002974,0.055786,0.000347,  15.404
   573.6,0.005026,0.002966,0.055654,0.000347,  15.406
   573.8,0.005019,0.002961,0.055467,0.000383,  15.411
   574.0,0.005009,0.002963,0.055212,0.000347,  15.406
   574.2,0.005013,0.002963,0.055212,0.000383,  15.415
   574.4,0.005010,0.002956,0.055335,0.000405,  15.415
   574.6,0.005000,0.002959,0.055528,0.000383,  15.411
   574.8,0.004997,0.002964,0.055138,0.000419,  15.416
   575.0,0.004994,0.002957,0.054477,0.000405,  15.411
   575.2,0.004984,0.002955,0.053563,0.000383,  15.418
   575.4,0.004988,0.002955,0.053617,0.000419,  15.421
   575.6,0.004985,0.002953,0.054016,0.000405,  15.420
   575.8,0.004978,0.002952,0.054791,0.000383,  15.427
   576.0,0.004979,0.002951,0.055032,0.000419,  15.429
   576.2,0.004979,0.002951,0.055198,0.000405,  15.430
   576.4,0.004979,0.002951,0.055283,0.000383,  15.430
   576.6,0.004972,0.002949,0.055443,0.000419,  15.436
   576.8,0.004969,0.002949,0.055586,0.000405,  15.433
   577.0,0.004962,0.002947,0.055711,0.000383,  15.434
   577.2,0.004972,0.002945,0.055775,0.000419,  15.433
   577.4,0.004969,0.002939,0.055820,0.000405,  15.439
   577.6,0.004959,0.002937,0.055827,0.000383,  15.439
   577.8,0.004963,0.002940,0.055881,0.000405,  15.437
   578.0,0.004958,0.002933,0.055925,0.000392,  15.441
   578.2,0.004948,0.002930,0.055976,0.000370,  15.441
   578.4,0.004949,0.002931,0.056014,0.000392,  15.448
   578.6,0.004946,0.002927,0.056058,0.000392,  15.449
   578.8,0.004943,0.002923,0.056095,0.000370,  15.446
   579.0,0.004937,0.002920,0.055857,0.000392,  15.448
   579.2,0.004938,0.002917,0.055486,0.000392,  15.452
   579.4,0.004935,0.002909,0.054964,0.000392,  15.453
   579.6,0.004922,0.002908,0.054858,0.000356,  15.457
   579.8,0.004926,0.002908,0.054885,0.000356,  15.456
   580.0,0.004923,0.002906,0.055035,0.000379,  15.454
   580.2,0.004910,0.002901,0.055334,0.000356,  15.454
   580.4,0.004908,0.002900,0.055405,0.000392,  15.457
   580.6,0.004905,0.002893,0.055442,0.000379,  15.460
   580.8,0.004892,0.002894,0.055469,0.000356,  15.458
   581.0,0.004893,0.002891,0.055541,0.000356,  15.455
   581.2,0.004888,0.002886,0.055605,0.000343,  15.460
   581.4,0.004878,0.002883,0.055693,0.000321,  15.458
   581.6,0.004876,0.002882,0.055730,0.000307,  15.462
   581.8,0.004870,0.002883,0.055758,0.000330,  15.458
   582.0,0.004867,0.002881,0.055765,0.000294,  15.459
   582.2,0.004871,0.002878,0.055748,0.000294,  15.457
   582.4,0.004868,0.002870,0.055713,0.000317,  15.458
   582.6,0.004865,0.002873,0.055659,0.000281,  15.456
   582.8,0.004865,0.002869,0.055669,0.000317,  15.460
   583.0,0.004868,0.002865,0.055679,0.000339,  15.458
   583.2,0.004862,0.002868,0.055689,0.000303,  15.459
   583.4,0.004859,0.002873,0.055682,0.000303,  15.457
   583.6,0.004859,0.002875,0.055682,0.000303,  15.459
   583.8,0.004856,0.002872,0.055641,0.000268,  15.459
   584.0,0.004853,0.002873,0.055590,0.000268,  15.458
   584.2,0.004850,0.002874,0.055529,0.000303,  15.456
   584.4,0.004843,0.002871,0.055468,0.000268,  15.454
   584.6,0.004850,0.002871,0.055488,0.000268,  15.454
   584.8,0.004846,0.002869,0.055508,0.000303,  15.458
   585.0,0.004846,0.002860,0.055562,0.000268,  15.452
   585.2,0.004846,0.002866,0.055538,0.000268,  15.452
   585.4,0.004846,0.002866,0.055494,0.000303,  15.448
   585.6,0.004839,0.002869,0.055395,0.000281,  15.449
   585.8,0.004832,0.002873,0.055307,0.000281,  15.449
   586.0,0.004832,0.002873,0.055202,0.000330,  15.447
   586.2,0.004825,0.002875,0.055076,0.000307,  15.448
   586.4,0.004822,0.002882,0.055069,0.000294,  15.445
   586.6,0.004826,0.002882,0.055117,0.000330,  15.446
   586.8,0.004819,0.002884,0.055225,0.000307,  15.442
   587.0,0.004832,0.002891,0.055279,0.000294,  15.442
   587.2,0.004842,0.002893,0.055309,0.000330,  15.444
   587.4,0.004838,0.002900,0.055330,0.000294,  15.446
   587.6,0.004845,0.002909,0.055322,0.000294,  15.439
   587.8,0.004845,0.002913,0.055295,0.000317,  15.443
   588.0,0.004848,0.002916,0.055251,0.000317,  15.436
   588.2,0.004851,0.002919,0.055190,0.000317,  15.439
   588.4,0.004864,0.002924,0.055102,0.000317,  15.437
   588.6,0.004866,0.002926,0.055013,0.000317,  15.430
   588.8,0.004875,0.002930,0.054888,0.000317,  15.433
   589.0,0.004887,0.002933,0.054847,0.000330,  15.427
   589.2,0.004895,0.002934,0.054813,0.000317,  15.427
   589.4,0.004901,0.002940,0.054789,0.000294,  15.427
   589.6,0.004911,0.002942,0.054782,0.000307,  15.425
   589.8,0.004910,0.002950,0.054775,0.000343,  15.423
   590.0,0.004916,0.002952,0.054751,0.000321,  15.423
   590.2,0.004922,0.002951,0.054700,0.000321,  15.422
   590.4,0.004921,0.002954,0.054639,0.000356,  15.417
   590.6,0.004931,0.002956,0.054568,0.000334,  15.419
   590.8,0.004931,0.002963,0.054551,0.000334,  15.418
   591.0,0.004934,0.002960,0.054571,0.000370,  15.418
   591.2,0.004941,0.002966,0.054608,0.000347,  15.415
   591.4,0.004948,0.002968,0.054574,0.000347,  15.413
   591.6,0.004957,0.002968,0.054513,0.000383,  15.416
   591.8,0.004956,0.002975,0.054414,0.000347,  15.412
   592.0,0.004962,0.002978,0.054407,0.000347,  15.406
   592.2,0.004970,0.002983,0.054452,0.000383,  15.406
   592.4,0.004969,0.002985,0.054533,0.000347,  15.408
   592.6,0.004976,0.002988,0.054136,0.000347,  15.406
   592.8,0.004982,0.002989,0.053494,0.000383,  15.401
   593.0,0.004981,0.002989,0.052647,0.000360,  15.397
   593.2,0.004991,0.002990,0.052401,0.000360,  15.400
   593.4,0.004994,0.002992,0.052296,0.000396,  15.400
   593.6,0.004993,0.002998,0.052391,0.000374,  15.399
   593.8,0.005003,0.003001,0.052549,0.000374,  15.397
   594.0,0.005006,0.003004,0.052829,0.000396,  15.392
   594.2,0.005009,0.003007,0.053241,0.000360,  15.390
   594.4,0.005015,0.003007,0.053454,0.000396,  15.392
   594.6,0.005018,0.003002,0.053636,0.000432,  15.391
   594.8,0.005017,0.003002,0.053785,0.000396,  15.393
   595.0,0.005020,0.003010,0.053917,0.000432,  15.387
   595.2,0.005023,0.003004,0.054022,0.000432,  15.385
   595.4,0.005019,0.003007,0.054066,0.000396,  15.384
   595.6,0.005031,0.003008,0.054147,0.000432,  15.387
   595.8,0.005029,0.003002,0.054269,0.000432,  15.385
   596.0,0.005025,0.002999,0.054350,0.000396,  15.385
   596.2,0.005031,0.002998,0.054377,0.000432,  15.384
   596.4,0.005031,0.002995,0.054377,0.000432,  15.378
   596.6,0.005028,0.002995,0.054347,0.000396,  15.384
   596.8,0.005034,0.002996,0.054357,0.000432,  15.381
   597.0,0.005034,0.002997,0.054391,0.000432,  15.382
   597.2,0.005030,0.002989,0.054425,0.000396,  15.382
   597.4,0.005037,0.002993,0.054442,0.000396,  15.382
   597.6,0.005034,0.002991,0.054459,0.000360,  15.381
   597.8,0.005030,0.002989,0.054483,0.000396,  15.378
   598.0,0.005037,0.002981,0.054483,0.000383,  15.376
   598.2,0.005034,0.002981,0.054589,0.000383,  15.380
   598.4,0.005028,0.002978,0.054687,0.000383,  15.377
   598.6,0.005031,0.002984,0.054829,0.000334,  15.377
   598.8,0.005023,0.002995,0.054623,0.000334,  15.383
   599.0,0.005026,0.002999,0.054230,0.000370,  15.379
   599.2,0.005029,0.002999,0.053676,0.000347,  15.381
   599.4,0.005038,0.003008,0.053737,0.000347,  15.377
   599.6,0.005040,0.003015,0.053984,0.000370,  15.377
   599.8,0.005046,0.003017,0.054437,0.000347,  15.376
   600.0,0.005058,0.003020,0.054569,0.000334,  15.371
   600.2,0.005060,0.003022,0.054637,0.000343,  15.373
   600.4,0.005073,0.003022,0.054627,0.000321,  15.376
   600.6,0.005076,0.003025,0.054716,0.000321,  15.377
   600.8,0.005075,0.003030,0.054804,0.000343,  15.379
   601.0,0.005088,0.003032,0.054909,0.000321,  15.381
   601.2,0.005091,0.003039,0.055024,0.000321,  15.378
   601.4,0.005090,0.003042,0.055133,0.000356,  15.380
   601.6,0.005100,0.003050,0.055255,0.000334,  15.381
   601.8,0.005103,0.003051,0.055289,0.000321,  15.376
   602.0,0.005105,0.003048,0.055269,0.000356,  15.381
   602.2,0.005111,0.003053,0.055178,0.000334,  15.381
   602.4,0.005110,0.003055,0.055212,0.000334,  15.384
   602.6,0.005113,0.003057,0.055253,0.000370,  15.381
   602.8,0.005119,0.003063,0.055304,0.000347,  15.382
   603.0,0.005119,0.003062,0.055382,0.000347,  15.382
   603.2,0.005126,0.003061,0.055461,0.000383,  15.384
   603.4,0.005122,0.003066,0.055522,0.000347,  15.381
   603.6,0.005132,0.003068,0.055573,0.000347,  15.387
   603.8,0.005132,0.003068,0.055621,0.000383,  15.388
   604.0,0.005128,0.003066,0.055635,0.000360,  15.385
   604.2,0.005141,0.003071,0.055730,0.000360,  15.390
   604.4,0.005147,0.003074,0.055826,0.000396,  15.387
   604.6,0.005143,0.003075,0.055966,0.000374,  15.392
   604.8,0.005150,0.003076,0.056061,0.000374,  15.388
   605.0,0.005150,0.003073,0.056150,0.000396,  15.392
   605.2,0.005153,0.003068,0.056228,0.000396,  15.396
   605.4,0.005156,0.003065,0.056289,0.000396,  15.397
   605.6,0.005163,0.003063,0.056334,0.000396,  15.399
   605.8,0.005166,0.003063,0.056399,0.000396,  15.397
   606.0,0.005162,0.003071,0.056423,0.000396,  15.403
   606.2,0.005163,0.003077,0.056450,0.000396,  15.406
   606.4,0.005163,0.003078,0.056437,0.000396,  15.401
   606.6,0.005159,0.003080,0.056427,0.000347,  15.404
   606.8,0.005163,0.003082,0.056522,0.000347,  15.404
   607.0,0.005163,0.003081,0.056611,0.000383,  15.411
   607.2,0.005162,0.003083,0.056768,0.000334,  15.406
   607.4,0.005169,0.003083,0.056830,0.000334,  15.407
   607.6,0.005169,0.003081,0.056864,0.000383,  15.412
   607.8,0.005165,0.003081,0.056895,0.000347,  15.415
   608.0,0.005169,0.003075,0.056902,0.000347,  15.415
   608.2,0.005169,0.003075,0.056882,0.000383,  15.418
   608.4,0.005162,0.003075,0.056858,0.000347,  15.421
   608.6,0.005166,0.003071,0.056893,0.000347,  15.420
   608.8,0.005166,0.003066,0.056910,0.000383,  15.419
   609.0,0.005159,0.003066,0.056978,0.000347,  15.427
   609.2,0.005166,0.003066,0.057022,0.000347,  15.422
   609.4,0.005159,0.003064,0.057074,0.000383,  15.430
   609.6,0.005152,0.003057,0.057108,0.000360,  15.431
   609.8,0.005149,0.003056,0.057163,0.000374,  15.433
   610.0,0.005139,0.003053,0.057248,0.000409,  15.433
   610.2,0.005143,0.003048,0.057310,0.000387,  15.440
   610.4,0.005141,0.003045,0.057371,0.000400,  15.438
   610.6,0.005135,0.003040,0.057416,0.000409,  15.445
   610.8,0.005132,0.003032,0.057467,0.000374,  15.443
   611.0,0.005126,0.003036,0.057518,0.000387,  15.445
   611.2,0.005123,0.003034,0.057529,0.000409,  15.447
   611.4,0.005117,0.003024,0.057546,0.000374,  15.447
   611.6,0.005114,0.003025,0.057536,0.000374,  15.446
   611.8,0.005111,0.003024,0.057474,0.000396,  15.453
   612.0,0.005104,0.003018,0.057385,0.000360,  15.455
   612.2,0.005101,0.003016,0.057413,0.000360,  15.455
   612.4,0.005096,0.003014,0.057477,0.000396,  15.454
   612.6,0.005086,0.003011,0.057569,0.000347,  15.456
   612.8,0.005083,0.003004,0.057572,0.000347,  15.460
   613.0,0.005081,0.002999,0.057545,0.000383,  15.459
   613.2,0.005071,0.002999,0.057480,0.000334,  15.461
   613.4,0.005072,0.002997,0.057473,0.000334,  15.462
   613.6,0.005073,0.002988,0.057491,0.000383,  15.462
   613.8,0.005060,0.002983,0.057473,0.000383,  15.467
   614.0,0.005064,0.002984,0.057484,0.000383,  15.467
   614.2,0.005055,0.002982,0.057528,0.000383,  15.467
   614.4,0.005042,0.002977,0.057541,0.000383,  15.468
   614.6,0.005043,0.002974,0.057586,0.000383,  15.471
   614.8,0.005034,0.002970,0.057596,0.000383,  15.466
   615.0,0.005022,0.002962,0.057572,0.000383,  15.469
   615.2,0.005023,0.002960,0.057537,0.000347,  15.472
