Run Name,Run 4
Run Date,08:07:49 PM   03-06-15
Method Name,8%
Export Format Version, 1.00
Method ID, 2243
Points/Second, 5.00
Number of Records,   2983
Offset from Run Start Time,00:00:00
Run End Time,00:10:00
Time,Second
QuadTec 1, (280.0 nm), AU
QuadTec 2, (260.0 nm), AU
Gradient Pump,<Not Selected>
QuadTec 3, (214.0 nm), AU
QuadTec 4, (405.0 nm), AU
Conductivity,mS/cm
Trace 6,<Not Available>
GP Pressure,<Not Selected>
Volume,<Not Selected>
Fraction,<Not Available>
Time,QuadTec 1,QuadTec 2,QuadTec 3,QuadTec 4,Conductivity
     0.0,0.000000,0.000000,0.000000,0.000000,  49.426
     0.2,0.000000,0.000000,0.000000,0.000000,  49.427
     0.4,0.000000,0.000000,0.000000,0.000000,  49.427
     0.6,0.000000,0.000000,0.000000,0.000000,  49.426
     0.8,0.000000,0.000000,0.000000,0.000000,  49.428
     1.0,0.000000,0.000000,0.000000,0.000000,  49.422
     1.2,0.000000,0.000000,0.000000,0.000000,  49.424
     1.4,0.000000,0.000000,0.000000,0.000000,  49.422
     1.6,0.000000,0.000000,0.000000,0.000000,  49.420
     1.8,0.000000,0.000000,0.000000,0.000000,  49.421
     2.0,0.000000,0.000000,0.000000,0.000000,  49.417
     2.2,0.000000,0.000000,0.000000,0.000000,  49.412
     2.4,0.000000,0.000000,0.000000,0.000040,  49.400
     2.6,0.000000,0.000000,0.000000,0.000004,  49.395
     2.8,0.000000,0.000000,0.000000,0.000017,  49.394
     3.0,0.000027,0.000062,0.000000,0.000030,  49.386
     3.2,0.000045,0.000058,-0.000030,0.000008,  49.385
     3.4,0.000069,0.000070,-0.000029,0.000021,  49.387
     3.6,0.000080,0.000097,0.000000,0.000034,  49.383
     3.8,0.000105,0.000130,0.000029,0.000025,  49.382
     4.0,0.000119,0.000170,0.000066,0.000052,  49.373
     4.2,0.000139,0.000216,0.000103,0.000101,  49.374
     4.4,0.000174,0.000244,0.000139,0.000091,  49.376
     4.6,0.000212,0.000271,0.000131,0.000118,  49.378
     4.8,0.000231,0.000294,0.000108,0.000167,  49.375
     5.0,0.000255,0.000313,0.000056,0.000158,  49.370
     5.2,0.000285,0.000336,0.000019,0.000158,  49.371
     5.4,0.000301,0.000367,0.000018,0.000180,  49.370
     5.6,0.000316,0.000397,0.000003,0.000158,  49.370
     5.8,0.000331,0.000405,0.000033,0.000158,  49.367
     6.0,0.000342,0.000408,0.000100,0.000207,  49.364
     6.2,0.000348,0.000405,0.000182,0.000184,  49.360
     6.4,0.000348,0.000412,0.000204,0.000207,  49.364
     6.6,0.000357,0.000421,0.000219,0.000242,  49.362
     6.8,0.000369,0.000436,0.000182,0.000220,  49.360
     7.0,0.000381,0.000443,0.000145,0.000220,  49.361
     7.2,0.000380,0.000450,0.000101,0.000220,  49.350
     7.4,0.000383,0.000451,0.000034,0.000197,  49.362
     7.6,0.000387,0.000451,-0.000024,0.000220,  49.353
     7.8,0.000390,0.000451,-0.000076,0.000242,  49.353
     8.0,0.000383,0.000448,-0.000113,0.000220,  49.352
     8.2,0.000390,0.000448,-0.000120,0.000193,  49.352
     8.4,0.000387,0.000446,-0.000127,0.000180,  49.355
     8.6,0.000383,0.000449,-0.000112,0.000144,  49.347
     8.8,0.000390,0.000452,-0.000097,0.000180,  49.344
     9.0,0.000390,0.000445,-0.000075,0.000203,  49.341
     9.2,0.000386,0.000438,-0.000060,0.000180,  49.345
     9.4,0.000383,0.000432,-0.000089,0.000193,  49.345
     9.6,0.000390,0.000426,-0.000148,0.000193,  49.340
     9.8,0.000389,0.000430,-0.000244,0.000171,  49.337
    10.0,0.000396,0.000422,-0.000296,0.000193,  49.336
    10.2,0.000406,0.000418,-0.000362,0.000171,  49.331
    10.4,0.000399,0.000417,-0.000436,0.000193,  49.333
    10.6,0.000396,0.000416,-0.000413,0.000180,  49.336
    10.8,0.000387,0.000416,-0.000331,0.000144,  49.329
    11.0,0.000380,0.000416,-0.000242,0.000144,  49.309
    11.2,0.000377,0.000420,-0.000227,0.000122,  49.308
    11.4,0.000384,0.000420,-0.000219,0.000144,  49.311
    11.6,0.000377,0.000420,-0.000234,0.000144,  49.305
    11.8,0.000377,0.000421,-0.000264,0.000122,  49.305
    12.0,0.000374,0.000417,-0.000338,0.000144,  49.301
    12.2,0.000372,0.000409,-0.000419,0.000144,  49.300
    12.4,0.000369,0.000411,-0.000552,0.000122,  49.300
    12.6,0.000367,0.000407,-0.000582,0.000144,  49.296
    12.8,0.000357,0.000404,-0.000589,0.000144,  49.292
    13.0,0.000354,0.000399,-0.000552,0.000122,  49.292
    13.2,0.000355,0.000399,-0.000581,0.000158,  49.292
    13.4,0.000348,0.000397,-0.000626,0.000158,  49.288
    13.6,0.000351,0.000397,-0.000692,0.000135,  49.286
    13.8,0.000355,0.000397,-0.000677,0.000171,  49.286
    14.0,0.000348,0.000392,-0.000633,0.000158,  49.281
    14.2,0.000345,0.000397,-0.000566,0.000135,  49.285
    14.4,0.000346,0.000395,-0.000588,0.000171,  49.289
    14.6,0.000336,0.000395,-0.000662,0.000158,  49.283
    14.8,0.000340,0.000397,-0.000744,0.000135,  49.285
    15.0,0.000342,0.000397,-0.000729,0.000171,  49.282
    15.2,0.000335,0.000392,-0.000729,0.000158,  49.279
    15.4,0.000342,0.000385,-0.000676,0.000135,  49.282
    15.6,0.000342,0.000380,-0.000706,0.000171,  49.280
    15.8,0.000338,0.000382,-0.000765,0.000158,  49.272
    16.0,0.000344,0.000392,-0.000868,0.000135,  49.273
    16.2,0.000344,0.000390,-0.000846,0.000171,  49.275
    16.4,0.000344,0.000388,-0.000816,0.000158,  49.279
    16.6,0.000338,0.000383,-0.000742,0.000135,  49.273
    16.8,0.000344,0.000383,-0.000712,0.000171,  49.278
    17.0,0.000335,0.000378,-0.000690,0.000158,  49.271
    17.2,0.000335,0.000378,-0.000690,0.000135,  49.272
    17.4,0.000335,0.000378,-0.000719,0.000171,  49.282
    17.6,0.000342,0.000378,-0.000764,0.000158,  49.285
    17.8,0.000338,0.000379,-0.000838,0.000135,  49.283
    18.0,0.000347,0.000384,-0.000838,0.000171,  49.281
    18.2,0.000350,0.000382,-0.000809,0.000158,  49.282
    18.4,0.000343,0.000377,-0.000787,0.000158,  49.283
    18.6,0.000340,0.000381,-0.000779,0.000158,  49.290
    18.8,0.000338,0.000377,-0.000764,0.000158,  49.286
    19.0,0.000336,0.000371,-0.000750,0.000158,  49.290
    19.2,0.000339,0.000373,-0.000742,0.000144,  49.288
    19.4,0.000349,0.000374,-0.000735,0.000109,  49.295
    19.6,0.000345,0.000389,-0.000735,0.000144,  49.297
    19.8,0.000348,0.000388,-0.000727,0.000122,  49.303
    20.0,0.000342,0.000390,-0.000713,0.000158,  49.302
    20.2,0.000342,0.000390,-0.000713,0.000158,  49.304
    20.4,0.000342,0.000387,-0.000676,0.000135,  49.308
    20.6,0.000346,0.000389,-0.000631,0.000171,  49.312
    20.8,0.000342,0.000395,-0.000587,0.000171,  49.318
    21.0,0.000348,0.000400,-0.000520,0.000148,  49.320
    21.2,0.000361,0.000397,-0.000557,0.000171,  49.322
    21.4,0.000357,0.000395,-0.000617,0.000207,  49.325
    21.6,0.000360,0.000400,-0.000706,0.000184,  49.334
    21.8,0.000370,0.000403,-0.000699,0.000171,  49.328
    22.0,0.000363,0.000403,-0.000633,0.000207,  49.334
    22.2,0.000370,0.000407,-0.000551,0.000184,  49.339
    22.4,0.000374,0.000403,-0.000536,0.000171,  49.350
    22.6,0.000370,0.000407,-0.000536,0.000193,  49.351
    22.8,0.000374,0.000411,-0.000566,0.000171,  49.352
    23.0,0.000371,0.000411,-0.000566,0.000171,  49.350
    23.2,0.000367,0.000407,-0.000545,0.000207,  49.354
    23.4,0.000374,0.000412,-0.000559,0.000184,  49.363
    23.6,0.000374,0.000420,-0.000722,0.000171,  49.367
    23.8,0.000373,0.000422,-0.000973,0.000207,  49.370
    24.0,0.000383,0.000424,-0.001312,0.000184,  49.371
    24.2,0.000389,0.000429,-0.001349,0.000171,  49.375
    24.4,0.000385,0.000432,-0.001283,0.000171,  49.377
    24.6,0.000385,0.000435,-0.001121,0.000148,  49.382
    24.8,0.000387,0.000429,-0.001010,0.000171,  49.385
    25.0,0.000383,0.000431,-0.000885,0.000207,  49.384
    25.2,0.000388,0.000435,-0.000759,0.000184,  49.390
    25.4,0.000404,0.000434,-0.000671,0.000171,  49.395
    25.6,0.000407,0.000435,-0.000626,0.000207,  49.397
    25.8,0.000406,0.000441,-0.000582,0.000184,  49.410
    26.0,0.000403,0.000443,-0.000560,0.000171,  49.416
    26.2,0.000403,0.000446,-0.000552,0.000193,  49.414
    26.4,0.000406,0.000451,-0.000553,0.000171,  49.428
    26.6,0.000406,0.000451,-0.000538,0.000158,  49.429
    26.8,0.000406,0.000451,-0.000531,0.000180,  49.434
    27.0,0.000402,0.000451,-0.000509,0.000158,  49.435
    27.2,0.000409,0.000453,-0.000576,0.000158,  49.433
    27.4,0.000406,0.000453,-0.000680,0.000193,  49.443
    27.6,0.000399,0.000451,-0.000843,0.000193,  49.446
    27.8,0.000409,0.000459,-0.000806,0.000207,  49.445
    28.0,0.000409,0.000461,-0.000717,0.000193,  49.446
    28.2,0.000402,0.000460,-0.000568,0.000207,  49.456
    28.4,0.000412,0.000465,-0.000494,0.000207,  49.458
    28.6,0.000419,0.000472,-0.000412,0.000220,  49.461
    28.8,0.000415,0.000479,-0.000331,0.000220,  49.460
    29.0,0.000421,0.000482,-0.000317,0.000197,  49.469
    29.2,0.000433,0.000495,-0.000317,0.000197,  49.470
    29.4,0.000435,0.000508,-0.000361,0.000233,  49.471
    29.6,0.000441,0.000517,-0.000414,0.000197,  49.477
    29.8,0.000454,0.000523,-0.000399,0.000197,  49.475
    30.0,0.000459,0.000531,-0.000392,0.000233,  49.473
    30.2,0.000471,0.000542,-0.000384,0.000197,  49.479
    30.4,0.000484,0.000546,-0.000347,0.000197,  49.482
    30.6,0.000490,0.000553,-0.000303,0.000233,  49.480
    30.8,0.000497,0.000564,-0.000266,0.000197,  49.489
    31.0,0.000508,0.000570,-0.000252,0.000197,  49.492
    31.2,0.000517,0.000584,-0.000274,0.000197,  49.491
    31.4,0.000512,0.000595,-0.000319,0.000175,  49.494
    31.6,0.000523,0.000602,-0.000260,0.000211,  49.495
    31.8,0.000535,0.000613,-0.000178,0.000211,  49.499
    32.0,0.000534,0.000620,-0.000052,0.000188,  49.494
    32.2,0.000550,0.000619,-0.000030,0.000237,  49.494
    32.4,0.000552,0.000619,-0.000030,0.000224,  49.503
    32.6,0.000557,0.000621,-0.000060,0.000188,  49.498
    32.8,0.000560,0.000620,-0.000045,0.000237,  49.501
    33.0,0.000559,0.000623,-0.000023,0.000224,  49.502
    33.2,0.000565,0.000627,0.000006,0.000188,  49.502
    33.4,0.000568,0.000627,0.000014,0.000237,  49.505
    33.6,0.000564,0.000636,0.000043,0.000224,  49.505
    33.8,0.000567,0.000638,0.000051,0.000188,  49.508
    34.0,0.000577,0.000636,0.000014,0.000237,  49.508
    34.2,0.000573,0.000638,-0.000038,0.000224,  49.512
    34.4,0.000576,0.000636,-0.000157,0.000188,  49.508
    34.6,0.000580,0.000633,-0.000186,0.000237,  49.508
    34.8,0.000580,0.000636,-0.000186,0.000224,  49.511
    35.0,0.000570,0.000636,-0.000186,0.000188,  49.513
    35.2,0.000577,0.000631,-0.000216,0.000224,  49.514
    35.4,0.000571,0.000634,-0.000253,0.000211,  49.518
    35.6,0.000568,0.000632,-0.000312,0.000175,  49.517
    35.8,0.000565,0.000624,-0.000349,0.000211,  49.521
    36.0,0.000559,0.000620,-0.000386,0.000211,  49.523
    36.2,0.000549,0.000615,-0.000423,0.000162,  49.525
    36.4,0.000544,0.000601,-0.000430,0.000197,  49.526
    36.6,0.000545,0.000592,-0.000407,0.000233,  49.526
    36.8,0.000535,0.000585,-0.000384,0.000233,  49.524
    37.0,0.000529,0.000575,-0.000421,0.000269,  49.530
    37.2,0.000530,0.000564,-0.000480,0.000246,  49.527
    37.4,0.000517,0.000560,-0.000561,0.000233,  49.538
    37.6,0.000508,0.000556,-0.000591,0.000233,  49.533
    37.8,0.000507,0.000550,-0.000605,0.000233,  49.535
    38.0,0.000494,0.000547,-0.000620,0.000220,  49.541
    38.2,0.000485,0.000545,-0.000620,0.000197,  49.542
    38.4,0.000483,0.000540,-0.000605,0.000197,  49.540
    38.6,0.000470,0.000535,-0.000568,0.000220,  49.542
    38.8,0.000462,0.000525,-0.000515,0.000197,  49.547
    39.0,0.000460,0.000521,-0.000485,0.000184,  49.544
    39.2,0.000453,0.000511,-0.000478,0.000207,  49.545
    39.4,0.000447,0.000500,-0.000463,0.000184,  49.552
    39.6,0.000451,0.000491,-0.000492,0.000171,  49.570
    39.8,0.000441,0.000489,-0.000551,0.000207,  49.565
    40.0,0.000432,0.000485,-0.000655,0.000184,  49.565
    40.2,0.000430,0.000478,-0.000928,0.000171,  49.569
    40.4,0.000418,0.000481,-0.001296,0.000207,  49.571
    40.6,0.000409,0.000482,-0.001783,0.000184,  49.573
    40.8,0.000410,0.000480,-0.001790,0.000171,  49.573
    41.0,0.000397,0.000475,-0.001620,0.000207,  49.574
    41.2,0.000391,0.000465,-0.001266,0.000184,  49.573
    41.4,0.000392,0.000461,-0.001118,0.000171,  49.568
    41.6,0.000385,0.000451,-0.001022,0.000207,  49.575
    41.8,0.000388,0.000448,-0.000919,0.000184,  49.570
    42.0,0.000395,0.000440,-0.000897,0.000171,  49.572
    42.2,0.000388,0.000437,-0.000919,0.000193,  49.573
    42.4,0.000385,0.000437,-0.000986,0.000171,  49.576
    42.6,0.000380,0.000432,-0.000963,0.000171,  49.579
    42.8,0.000370,0.000427,-0.000926,0.000193,  49.576
    43.0,0.000364,0.000420,-0.000882,0.000171,  49.577
    43.2,0.000358,0.000415,-0.000808,0.000158,  49.575
    43.4,0.000345,0.000411,-0.000749,0.000180,  49.581
    43.6,0.000346,0.000407,-0.000697,0.000144,  49.577
    43.8,0.000350,0.000395,-0.000697,0.000144,  49.576
    44.0,0.000354,0.000396,-0.000741,0.000167,  49.581
    44.2,0.000351,0.000397,-0.000852,0.000131,  49.576
    44.4,0.000355,0.000388,-0.000830,0.000144,  49.579
    44.6,0.000353,0.000382,-0.000771,0.000167,  49.574
    44.8,0.000350,0.000377,-0.000704,0.000131,  49.579
    45.0,0.000354,0.000369,-0.000711,0.000144,  49.581
    45.2,0.000344,0.000366,-0.000748,0.000167,  49.581
    45.4,0.000334,0.000366,-0.000814,0.000167,  49.580
    45.6,0.000334,0.000361,-0.000778,0.000167,  49.579
    45.8,0.000331,0.000363,-0.000740,0.000167,  49.581
    46.0,0.000321,0.000362,-0.000673,0.000167,  49.583
    46.2,0.000318,0.000354,-0.000702,0.000180,  49.578
    46.4,0.000322,0.000357,-0.000740,0.000167,  49.584
    46.6,0.000315,0.000351,-0.000844,0.000167,  49.585
    46.8,0.000312,0.000348,-0.000918,0.000131,  49.585
    47.0,0.000313,0.000348,-0.000991,0.000131,  49.583
    47.2,0.000306,0.000350,-0.001066,0.000154,  49.587
    47.4,0.000306,0.000345,-0.001059,0.000118,  49.589
    47.6,0.000313,0.000350,-0.001058,0.000118,  49.589
    47.8,0.000306,0.000353,-0.000977,0.000118,  49.588
    48.0,0.000304,0.000348,-0.000896,0.000082,  49.588
    48.2,0.000308,0.000352,-0.000903,0.000118,  49.592
    48.4,0.000301,0.000352,-0.000911,0.000118,  49.591
    48.6,0.000301,0.000349,-0.000940,0.000082,  49.590
    48.8,0.000301,0.000354,-0.000932,0.000118,  49.589
    49.0,0.000294,0.000349,-0.000925,0.000118,  49.589
    49.2,0.000304,0.000347,-0.000918,0.000082,  49.586
    49.4,0.000310,0.000345,-0.001000,0.000118,  49.589
    49.6,0.000304,0.000343,-0.001140,0.000105,  49.588
    49.8,0.000306,0.000336,-0.001325,0.000069,  49.588
    50.0,0.000310,0.000329,-0.001745,0.000118,  49.589
    50.2,0.000301,0.000324,-0.002347,0.000105,  49.589
    50.4,0.000298,0.000322,-0.003080,0.000069,  49.588
    50.6,0.000299,0.000315,-0.003050,0.000118,  49.591
    50.8,0.000292,0.000320,-0.002727,0.000140,  49.592
    51.0,0.000286,0.000323,-0.002096,0.000105,  49.593
    51.2,0.000293,0.000317,-0.001890,0.000105,  49.593
    51.4,0.000290,0.000323,-0.001728,0.000127,  49.600
    51.6,0.000284,0.000325,-0.001640,0.000091,  49.598
    51.8,0.000289,0.000320,-0.001559,0.000091,  49.599
    52.0,0.000282,0.000323,-0.001485,0.000127,  49.598
    52.2,0.000275,0.000321,-0.001441,0.000091,  49.598
    52.4,0.000275,0.000316,-0.001375,0.000091,  49.597
    52.6,0.000268,0.000311,-0.001293,0.000127,  49.603
    52.8,0.000271,0.000313,-0.001205,0.000091,  49.603
    53.0,0.000268,0.000310,-0.001168,0.000105,  49.604
    53.2,0.000278,0.000306,-0.001168,0.000140,  49.604
    53.4,0.000278,0.000308,-0.001220,0.000105,  49.605
    53.6,0.000275,0.000303,-0.001213,0.000118,  49.605
    53.8,0.000272,0.000304,-0.001198,0.000140,  49.608
    54.0,0.000268,0.000310,-0.001198,0.000105,  49.605
    54.2,0.000272,0.000307,-0.001183,0.000118,  49.606
    54.4,0.000279,0.000306,-0.001161,0.000140,  49.607
    54.6,0.000275,0.000308,-0.001139,0.000140,  49.607
    54.8,0.000272,0.000310,-0.001117,0.000154,  49.604
    55.0,0.000272,0.000313,-0.001124,0.000140,  49.608
    55.2,0.000271,0.000321,-0.001102,0.000140,  49.609
    55.4,0.000271,0.000318,-0.001110,0.000154,  49.603
    55.6,0.000281,0.000318,-0.001132,0.000154,  49.606
    55.8,0.000277,0.000321,-0.001198,0.000154,  49.602
    56.0,0.000280,0.000323,-0.001404,0.000118,  49.601
    56.2,0.000287,0.000326,-0.001728,0.000118,  49.603
    56.4,0.000283,0.000334,-0.002125,0.000154,  49.599
    56.6,0.000283,0.000336,-0.002625,0.000118,  49.603
    56.8,0.000293,0.000337,-0.002588,0.000118,  49.600
    57.0,0.000289,0.000338,-0.002390,0.000154,  49.595
    57.2,0.000286,0.000340,-0.002023,0.000118,  49.599
    57.4,0.000286,0.000340,-0.001817,0.000118,  49.598
    57.6,0.000283,0.000340,-0.001611,0.000154,  49.599
    57.8,0.000291,0.000334,-0.001404,0.000118,  49.593
    58.0,0.000299,0.000339,-0.001279,0.000118,  49.594
    58.2,0.000302,0.000341,-0.001199,0.000154,  49.595
    58.4,0.000301,0.000343,-0.001184,0.000118,  49.603
    58.6,0.000313,0.000347,-0.001132,0.000118,  49.601
    58.8,0.000317,0.000345,-0.001074,0.000154,  49.602
    59.0,0.000320,0.000354,-0.001059,0.000118,  49.597
    59.2,0.000326,0.000357,-0.001685,0.000118,  49.601
    59.4,0.000322,0.000358,-0.002611,0.000140,  49.601
    59.6,0.000326,0.000363,-0.003884,0.000105,  49.599
    59.8,0.000317,0.000363,-0.003848,0.000118,  49.604
    60.0,0.000308,0.000363,-0.003350,0.000140,  49.606
    60.2,0.000315,0.000361,-0.002361,0.000105,  49.600
    60.4,0.000312,0.000355,-0.001986,0.000118,  49.604
    60.6,0.000309,0.000361,-0.001691,0.000154,  49.603
    60.8,0.000316,0.000360,-0.001478,0.000118,  49.607
    61.0,0.000325,0.000357,-0.001279,0.000131,  49.604
    61.2,0.000325,0.000359,-0.001132,0.000167,  49.605
    61.4,0.000325,0.000358,-0.001058,0.000131,  49.598
    61.6,0.000321,0.000351,-0.000984,0.000144,  49.600
    61.8,0.000321,0.000347,-0.000940,0.000167,  49.598
    62.0,0.000315,0.000343,-0.000955,0.000131,  49.598
    62.2,0.000317,0.000338,-0.000977,0.000131,  49.599
    62.4,0.000317,0.000338,-0.001022,0.000154,  49.599
    62.6,0.000308,0.000343,-0.001089,0.000118,  49.596
    62.8,0.000315,0.000338,-0.001103,0.000118,  49.597
    63.0,0.000312,0.000338,-0.001089,0.000154,  49.596
    63.2,0.000302,0.000338,-0.001059,0.000154,  49.591
    63.4,0.000302,0.000330,-0.001000,0.000154,  49.586
    63.6,0.000302,0.000333,-0.000904,0.000167,  49.589
    63.8,0.000298,0.000331,-0.000814,0.000154,  49.584
    64.0,0.000302,0.000331,-0.000829,0.000167,  49.583
    64.2,0.000303,0.000335,-0.000888,0.000167,  49.584
    64.4,0.000299,0.000335,-0.000985,0.000154,  49.584
    64.6,0.000306,0.000337,-0.001000,0.000118,  49.586
    64.8,0.000303,0.000344,-0.000963,0.000118,  49.581
    65.0,0.000299,0.000349,-0.000911,0.000154,  49.585
    65.2,0.000306,0.000344,-0.000830,0.000118,  49.583
    65.4,0.000303,0.000347,-0.001021,0.000118,  49.584
    65.6,0.000299,0.000341,-0.001287,0.000154,  49.583
    65.8,0.000309,0.000339,-0.001648,0.000118,  49.580
    66.0,0.000312,0.000337,-0.001677,0.000118,  49.580
    66.2,0.000312,0.000338,-0.001589,0.000154,  49.582
    66.4,0.000313,0.000330,-0.001361,0.000118,  49.581
    66.6,0.000321,0.000331,-0.001288,0.000131,  49.586
    66.8,0.000324,0.000339,-0.001243,0.000167,  49.585
    67.0,0.000310,0.000339,-0.001206,0.000144,  49.587
    67.2,0.000313,0.000339,-0.001354,0.000144,  49.583
    67.4,0.000316,0.000334,-0.001618,0.000180,  49.584
    67.6,0.000306,0.000334,-0.001972,0.000158,  49.585
    67.8,0.000310,0.000331,-0.001949,0.000144,  49.587
    68.0,0.000313,0.000334,-0.001780,0.000180,  49.585
    68.2,0.000306,0.000334,-0.001500,0.000144,  49.580
    68.4,0.000310,0.000326,-0.001375,0.000131,  49.585
    68.6,0.000303,0.000328,-0.001279,0.000154,  49.583
    68.8,0.000300,0.000327,-0.001213,0.000118,  49.584
    69.0,0.000294,0.000327,-0.001176,0.000118,  49.581
    69.2,0.000287,0.000323,-0.001169,0.000154,  49.580
    69.4,0.000290,0.000324,-0.001199,0.000118,  49.579
    69.6,0.000290,0.000326,-0.001146,0.000154,  49.580
    69.8,0.000290,0.000327,-0.001043,0.000176,  49.580
    70.0,0.000287,0.000325,-0.000925,0.000140,  49.577
    70.2,0.000290,0.000320,-0.000918,0.000154,  49.573
    70.4,0.000291,0.000321,-0.000940,0.000154,  49.577
    70.6,0.000294,0.000324,-0.000992,0.000118,  49.575
    70.8,0.000301,0.000324,-0.001345,0.000118,  49.573
    71.0,0.000291,0.000324,-0.001853,0.000154,  49.572
    71.2,0.000284,0.000327,-0.002515,0.000118,  49.570
    71.4,0.000294,0.000326,-0.002559,0.000118,  49.572
    71.6,0.000294,0.000328,-0.002390,0.000154,  49.573
    71.8,0.000287,0.000327,-0.002001,0.000154,  49.574
    72.0,0.000294,0.000327,-0.001825,0.000154,  49.573
    72.2,0.000294,0.000328,-0.001663,0.000167,  49.570
    72.4,0.000290,0.000329,-0.001501,0.000154,  49.571
    72.6,0.000297,0.000324,-0.001405,0.000167,  49.569
    72.8,0.000300,0.000321,-0.001346,0.000167,  49.571
    73.0,0.000296,0.000328,-0.001324,0.000154,  49.569
    73.2,0.000303,0.000325,-0.001272,0.000118,  49.570
    73.4,0.000303,0.000327,-0.001220,0.000118,  49.572
    73.6,0.000306,0.000334,-0.001184,0.000154,  49.567
    73.8,0.000306,0.000331,-0.001147,0.000118,  49.572
    74.0,0.000310,0.000337,-0.001073,0.000118,  49.570
    74.2,0.000313,0.000337,-0.001022,0.000154,  49.567
    74.4,0.000303,0.000330,-0.000970,0.000118,  49.570
    74.6,0.000307,0.000333,-0.000940,0.000118,  49.569
    74.8,0.000307,0.000328,-0.000896,0.000154,  49.567
    75.0,0.000297,0.000325,-0.000896,0.000118,  49.565
    75.2,0.000301,0.000328,-0.000851,0.000118,  49.563
    75.4,0.000304,0.000329,-0.000814,0.000154,  49.567
    75.6,0.000297,0.000331,-0.000763,0.000118,  49.559
    75.8,0.000307,0.000326,-0.000778,0.000131,  49.546
    76.0,0.000310,0.000337,-0.000814,0.000167,  49.546
    76.2,0.000303,0.000339,-0.000889,0.000131,  49.547
    76.4,0.000310,0.000337,-0.000911,0.000144,  49.545
    76.6,0.000313,0.000341,-0.000919,0.000167,  49.547
    76.8,0.000306,0.000340,-0.000926,0.000131,  49.544
    77.0,0.000310,0.000338,-0.000934,0.000144,  49.546
    77.2,0.000306,0.000338,-0.000956,0.000167,  49.547
    77.4,0.000306,0.000334,-0.001008,0.000131,  49.545
    77.6,0.000306,0.000331,-0.000986,0.000144,  49.544
    77.8,0.000302,0.000332,-0.000934,0.000167,  49.548
    78.0,0.000306,0.000336,-0.000867,0.000131,  49.540
    78.2,0.000306,0.000333,-0.001213,0.000144,  49.542
    78.4,0.000302,0.000331,-0.001743,0.000167,  49.548
    78.6,0.000303,0.000337,-0.002471,0.000131,  49.542
    78.8,0.000300,0.000334,-0.002434,0.000144,  49.541
    79.0,0.000293,0.000333,-0.002155,0.000167,  49.542
    79.2,0.000297,0.000330,-0.001596,0.000131,  49.541
    79.4,0.000294,0.000328,-0.001397,0.000144,  49.538
    79.6,0.000294,0.000333,-0.001279,0.000167,  49.534
    79.8,0.000294,0.000330,-0.001206,0.000131,  49.539
    80.0,0.000294,0.000328,-0.001110,0.000167,  49.536
    80.2,0.000294,0.000332,-0.001036,0.000189,  49.538
    80.4,0.000290,0.000333,-0.000977,0.000154,  49.539
    80.6,0.000297,0.000330,-0.000970,0.000189,  49.539
    80.8,0.000297,0.000332,-0.000984,0.000189,  49.539
    81.0,0.000290,0.000333,-0.001022,0.000189,  49.542
    81.2,0.000300,0.000332,-0.001015,0.000154,  49.545
    81.4,0.000297,0.000332,-0.001029,0.000167,  49.543
    81.6,0.000293,0.000330,-0.001022,0.000189,  49.546
    81.8,0.000300,0.000327,-0.000949,0.000167,  49.547
    82.0,0.000300,0.000329,-0.000853,0.000203,  49.544
    82.2,0.000296,0.000329,-0.000727,0.000189,  49.547
    82.4,0.000300,0.000322,-0.000881,0.000154,  49.545
    82.6,0.000300,0.000323,-0.001147,0.000189,  49.546
    82.8,0.000293,0.000323,-0.001545,0.000189,  49.548
    83.0,0.000297,0.000321,-0.001597,0.000154,  49.547
    83.2,0.000291,0.000314,-0.001530,0.000189,  49.547
    83.4,0.000288,0.000320,-0.001361,0.000176,  49.545
    83.6,0.000285,0.000317,-0.001073,0.000140,  49.550
    83.8,0.000286,0.000316,-0.000991,0.000189,  49.548
    84.0,0.000286,0.000316,-0.000918,0.000176,  49.548
    84.2,0.000276,0.000308,-0.000844,0.000140,  49.548
    84.4,0.000283,0.000314,-0.000858,0.000154,  49.547
    84.6,0.000283,0.000310,-0.000903,0.000140,  49.547
    84.8,0.000274,0.000309,-0.000999,0.000105,  49.546
    85.0,0.000275,0.000306,-0.000991,0.000118,  49.546
    85.2,0.000272,0.000310,-0.000940,0.000140,  49.544
    85.4,0.000262,0.000305,-0.000858,0.000105,  49.549
    85.6,0.000266,0.000300,-0.000881,0.000118,  49.543
    85.8,0.000263,0.000298,-0.000969,0.000140,  49.543
    86.0,0.000256,0.000300,-0.001102,0.000105,  49.545
    86.2,0.000266,0.000303,-0.001132,0.000118,  49.546
    86.4,0.000269,0.000303,-0.001154,0.000140,  49.543
    86.6,0.000262,0.000303,-0.001154,0.000105,  49.537
    86.8,0.000269,0.000308,-0.001184,0.000118,  49.545
    87.0,0.000275,0.000311,-0.001243,0.000154,  49.547
    87.2,0.000274,0.000316,-0.001302,0.000118,  49.544
    87.4,0.000283,0.000318,-0.001839,0.000118,  49.535
    87.6,0.000289,0.000322,-0.002603,0.000154,  49.537
    87.8,0.000288,0.000326,-0.003607,0.000118,  49.539
    88.0,0.000301,0.000329,-0.003577,0.000131,  49.540
    88.2,0.000307,0.000329,-0.003131,0.000167,  49.535
    88.4,0.000307,0.000341,-0.002295,0.000144,  49.538
    88.6,0.000303,0.000350,-0.001979,0.000144,  49.536
    88.8,0.000310,0.000352,-0.001700,0.000180,  49.537
    89.0,0.000309,0.000356,-0.001494,0.000158,  49.534
    89.2,0.000312,0.000361,-0.001340,0.000144,  49.533
    89.4,0.000319,0.000361,-0.001259,0.000180,  49.532
    89.6,0.000324,0.000361,-0.001223,0.000158,  49.529
    89.8,0.000320,0.000365,-0.001157,0.000144,  49.533
    90.0,0.000333,0.000364,-0.001113,0.000180,  49.528
    90.2,0.000339,0.000370,-0.001069,0.000158,  49.527
    90.4,0.000335,0.000372,-0.000951,0.000144,  49.526
    90.6,0.000342,0.000376,-0.000810,0.000180,  49.520
    90.8,0.000345,0.000378,-0.000611,0.000180,  49.523
    91.0,0.000338,0.000381,-0.000500,0.000193,  49.520
    91.2,0.000342,0.000381,-0.000433,0.000180,  49.520
    91.4,0.000348,0.000389,-0.000382,0.000180,  49.518
    91.6,0.000347,0.000394,-0.000382,0.000180,  49.516
    91.8,0.000357,0.000398,-0.000405,0.000180,  49.517
    92.0,0.000358,0.000410,-0.000472,0.000180,  49.515
    92.2,0.000367,0.000415,-0.000465,0.000158,  49.509
    92.4,0.000370,0.000417,-0.000436,0.000144,  49.502
    92.6,0.000376,0.000419,-0.000399,0.000180,  49.510
    92.8,0.000382,0.000426,-0.000340,0.000158,  49.511
    93.0,0.000389,0.000425,-0.000258,0.000158,  49.504
    93.2,0.000395,0.000434,-0.000170,0.000193,  49.505
    93.4,0.000394,0.000440,-0.000044,0.000171,  49.507
    93.6,0.000403,0.000442,-0.000029,0.000171,  49.498
    93.8,0.000409,0.000451,-0.000074,0.000193,  49.497
    94.0,0.000411,0.000455,-0.000127,0.000171,  49.501
    94.2,0.000421,0.000456,-0.000149,0.000171,  49.498
    94.4,0.000420,0.000463,-0.000179,0.000193,  49.498
    94.6,0.000426,0.000467,-0.000202,0.000171,  49.497
    94.8,0.000429,0.000468,-0.000292,0.000171,  49.496
    95.0,0.000430,0.000472,-0.000432,0.000193,  49.495
    95.2,0.000436,0.000473,-0.000589,0.000171,  49.489
    95.4,0.000439,0.000473,-0.000545,0.000171,  49.491
    95.6,0.000435,0.000475,-0.000427,0.000193,  49.493
    95.8,0.000441,0.000483,-0.000213,0.000171,  49.492
    96.0,0.000448,0.000489,-0.000132,0.000171,  49.482
    96.2,0.000448,0.000490,-0.000095,0.000193,  49.485
    96.4,0.000459,0.000495,-0.000102,0.000171,  49.486
    96.6,0.000474,0.000497,0.000001,0.000158,  49.483
    96.8,0.000477,0.000496,0.000141,0.000180,  49.480
    97.0,0.000479,0.000502,0.000289,0.000144,  49.480
    97.2,0.000484,0.000502,0.000407,0.000144,  49.481
    97.4,0.000489,0.000502,0.000518,0.000167,  49.479
    97.6,0.000485,0.000505,0.000620,0.000131,  49.474
    97.8,0.000498,0.000502,0.000753,0.000144,  49.472
    98.0,0.000501,0.000502,0.000886,0.000167,  49.471
    98.2,0.000500,0.000509,0.001041,0.000131,  49.467
    98.4,0.000512,0.000506,0.001203,0.000144,  49.467
    98.6,0.000523,0.000514,0.001344,0.000167,  49.468
    98.8,0.000535,0.000521,0.001513,0.000131,  49.465
    99.0,0.000537,0.000525,0.001371,0.000144,  49.462
    99.2,0.000553,0.000530,0.001073,0.000167,  49.466
    99.4,0.000567,0.000539,0.000619,0.000167,  49.467
    99.6,0.000575,0.000543,0.000055,0.000167,  49.465
    99.8,0.000594,0.000557,-0.000625,0.000167,  49.463
   100.0,0.000607,0.000575,-0.001430,0.000167,  49.463
   100.2,0.000631,0.000583,-0.001130,0.000180,  49.465
   100.4,0.000651,0.000597,-0.000351,0.000167,  49.468
   100.6,0.000677,0.000606,0.000925,0.000167,  49.465
   100.8,0.000698,0.000620,0.001516,0.000131,  49.468
   101.0,0.000728,0.000633,0.002019,0.000131,  49.467
   101.2,0.000758,0.000643,0.002419,0.000154,  49.469
   101.4,0.000780,0.000656,0.002737,0.000118,  49.468
   101.6,0.000816,0.000675,0.003212,0.000118,  49.467
   101.8,0.000842,0.000689,0.003708,0.000154,  49.475
   102.0,0.000874,0.000703,0.004212,0.000118,  49.468
   102.2,0.000903,0.000728,0.004695,0.000118,  49.468
   102.4,0.000937,0.000756,0.005162,0.000140,  49.474
   102.6,0.000985,0.000775,0.005630,0.000105,  49.472
   102.8,0.001026,0.000803,0.006120,0.000118,  49.469
   103.0,0.001066,0.000828,0.006596,0.000140,  49.471
   103.2,0.001123,0.000850,0.007064,0.000105,  49.471
   103.4,0.001176,0.000868,0.007382,0.000105,  49.474
   103.6,0.001224,0.000895,0.007579,0.000127,  49.475
   103.8,0.001277,0.000918,0.007670,0.000091,  49.475
   104.0,0.001336,0.000946,0.008283,0.000091,  49.472
   104.2,0.001393,0.000984,0.009086,0.000127,  49.471
   104.4,0.001458,0.001022,0.010118,0.000091,  49.473
   104.6,0.001526,0.001059,0.010884,0.000091,  49.479
   104.8,0.001592,0.001105,0.011598,0.000127,  49.482
   105.0,0.001675,0.001143,0.012311,0.000091,  49.480
   105.2,0.001761,0.001185,0.013119,0.000091,  49.482
   105.4,0.001837,0.001232,0.013958,0.000127,  49.487
   105.6,0.001929,0.001281,0.014823,0.000091,  49.482
   105.8,0.002021,0.001331,0.015372,0.000091,  49.489
   106.0,0.002105,0.001381,0.015783,0.000127,  49.486
   106.2,0.002203,0.001441,0.016030,0.000091,  49.484
   106.4,0.002300,0.001495,0.017051,0.000091,  49.487
   106.6,0.002388,0.001551,0.018347,0.000127,  49.493
   106.8,0.002468,0.001615,0.019966,0.000091,  49.490
   107.0,0.002550,0.001675,0.021237,0.000091,  49.493
   107.2,0.002624,0.001738,0.022449,0.000127,  49.492
   107.4,0.002726,0.001806,0.023661,0.000091,  49.493
   107.6,0.002853,0.001875,0.025012,0.000091,  49.493
   107.8,0.002983,0.001946,0.026392,0.000127,  49.494
   108.0,0.003105,0.002024,0.027839,0.000091,  49.495
   108.2,0.003248,0.002095,0.029227,0.000091,  49.495
   108.4,0.003383,0.002179,0.030618,0.000127,  49.499
   108.6,0.003515,0.002261,0.031988,0.000091,  49.499
   108.8,0.003669,0.002344,0.033411,0.000091,  49.498
   109.0,0.003814,0.002435,0.034838,0.000127,  49.504
   109.2,0.003970,0.002523,0.036290,0.000127,  49.504
   109.4,0.004130,0.002613,0.037830,0.000127,  49.498
   109.6,0.004302,0.002708,0.039391,0.000140,  49.502
   109.8,0.004469,0.002806,0.040996,0.000127,  49.498
   110.0,0.004644,0.002904,0.042700,0.000127,  49.495
   110.2,0.004827,0.003007,0.044468,0.000140,  49.499
   110.4,0.005006,0.003110,0.046310,0.000127,  49.498
   110.6,0.005200,0.003215,0.047845,0.000091,  49.497
   110.8,0.005392,0.003333,0.049294,0.000091,  49.494
   111.0,0.005586,0.003448,0.050600,0.000091,  49.492
   111.2,0.005795,0.003560,0.051809,0.000042,  49.497
   111.4,0.006002,0.003687,0.053722,0.000078,  49.493
   111.6,0.006215,0.003813,0.055812,0.000078,  49.490
   111.8,0.006440,0.003942,0.058148,0.000029,  49.490
   112.0,0.006669,0.004077,0.060351,0.000065,  49.489
   112.2,0.006900,0.004217,0.062583,0.000101,  49.481
   112.4,0.007147,0.004332,0.064834,0.000078,  49.481
   112.6,0.007401,0.004434,0.067114,0.000078,  49.480
   112.8,0.007641,0.004531,0.069412,0.000101,  49.481
   113.0,0.007895,0.004620,0.071723,0.000078,  49.475
   113.2,0.008145,0.004748,0.074064,0.000065,  49.474
   113.4,0.008401,0.004893,0.076414,0.000087,  49.472
   113.6,0.008670,0.005047,0.078790,0.000065,  49.465
   113.8,0.008939,0.005191,0.081321,0.000052,  49.464
   114.0,0.009209,0.005353,0.083949,0.000087,  49.463
   114.2,0.009494,0.005508,0.086682,0.000065,  49.462
   114.4,0.009778,0.005663,0.089328,0.000052,  49.459
   114.6,0.010064,0.005834,0.091986,0.000087,  49.451
   114.8,0.010365,0.006004,0.094642,0.000065,  49.432
   115.0,0.010667,0.006170,0.097433,0.000052,  49.431
   115.2,0.010963,0.006336,0.100290,0.000074,  49.425
   115.4,0.011276,0.006510,0.103189,0.000038,  49.427
   115.6,0.011582,0.006680,0.105994,0.000038,  49.426
   115.8,0.011850,0.006843,0.108781,0.000048,  49.421
   116.0,0.012099,0.007018,0.111550,0.000012,  49.422
   116.2,0.012328,0.007195,0.114523,0.000025,  49.420
   116.4,0.012538,0.007372,0.117579,0.000048,  49.418
   116.6,0.012839,0.007558,0.120742,0.000012,  49.413
   116.8,0.013174,0.007745,0.123856,0.000012,  49.410
   117.0,0.013530,0.007939,0.126993,0.000034,  49.408
   117.2,0.013867,0.008135,0.130147,-0.000001,  49.399
   117.4,0.014221,0.008327,0.133409,-0.000001,  49.407
   117.6,0.014572,0.008524,0.136708,0.000021,  49.403
   117.8,0.014919,0.008719,0.140059,0.000021,  49.403
   118.0,0.015280,0.008915,0.143356,0.000021,  49.398
   118.2,0.015638,0.009113,0.146645,0.000021,  49.394
   118.4,0.015995,0.009315,0.149931,0.000008,  49.392
   118.6,0.016356,0.009518,0.153318,0.000008,  49.385
   118.8,0.016720,0.009727,0.156732,-0.000005,  49.390
   119.0,0.017093,0.009935,0.160230,-0.000005,  49.386
   119.2,0.017477,0.010141,0.163699,-0.000054,  49.381
   119.4,0.017871,0.010348,0.167130,-0.000068,  49.381
   119.6,0.018245,0.010557,0.170567,-0.000032,  49.373
   119.8,0.018623,0.010763,0.173580,-0.000054,  49.373
   120.0,0.019006,0.010966,0.176379,-0.000081,  49.364
   120.2,0.019381,0.011177,0.178939,-0.000058,  49.359
   120.4,0.019760,0.011386,0.181276,-0.000094,  49.358
   120.6,0.020150,0.011604,0.184619,-0.000094,  49.349
   120.8,0.020535,0.011823,0.188222,-0.000072,  49.348
   121.0,0.020928,0.012037,0.192082,-0.000107,  49.343
   121.2,0.021328,0.012265,0.195740,-0.000072,  49.338
   121.4,0.021723,0.012494,0.199405,-0.000049,  49.327
   121.6,0.022132,0.012682,0.203056,-0.000085,  49.301
   121.8,0.022546,0.012858,0.206794,-0.000049,  49.299
   122.0,0.022939,0.013007,0.210565,-0.000049,  49.286
   122.2,0.023347,0.013148,0.214369,-0.000098,  49.283
   122.4,0.023746,0.013346,0.218076,-0.000075,  49.281
   122.6,0.024132,0.013568,0.221749,-0.000089,  49.266
   122.8,0.024534,0.013799,0.225425,-0.000138,  49.262
   123.0,0.024921,0.014015,0.229185,-0.000102,  49.258
   123.2,0.025327,0.014250,0.232996,-0.000089,  49.247
   123.4,0.025740,0.014477,0.236855,-0.000125,  49.239
   123.6,0.026166,0.014703,0.240698,-0.000125,  49.225
   123.8,0.026578,0.014942,0.244498,-0.000138,  49.220
   124.0,0.026998,0.015175,0.248267,-0.000160,  49.205
   124.2,0.027425,0.015395,0.252040,-0.000187,  49.178
   124.4,0.027829,0.015620,0.255821,-0.000177,  49.164
   124.6,0.028242,0.015834,0.259521,-0.000213,  49.153
   124.8,0.028638,0.016047,0.263207,-0.000213,  49.145
   125.0,0.028985,0.016265,0.266849,-0.000191,  49.127
   125.2,0.029304,0.016482,0.270448,-0.000226,  49.116
   125.4,0.029589,0.016695,0.274180,-0.000226,  49.106
   125.6,0.029845,0.016921,0.277916,-0.000217,  49.084
   125.8,0.030208,0.017145,0.281657,-0.000253,  49.060
   126.0,0.030614,0.017362,0.285452,-0.000253,  49.043
   126.2,0.031037,0.017586,0.289187,-0.000230,  49.024
   126.4,0.031426,0.017814,0.292920,-0.000279,  49.013
   126.6,0.031830,0.018031,0.296568,-0.000279,  48.991
   126.8,0.032226,0.018244,0.300100,-0.000257,  48.979
   127.0,0.032616,0.018459,0.303558,-0.000257,  48.961
   127.2,0.033021,0.018671,0.307163,-0.000270,  48.928
   127.4,0.033415,0.018885,0.310762,-0.000270,  48.908
   127.6,0.033800,0.019097,0.314422,-0.000283,  48.889
   127.8,0.034192,0.019307,0.317981,-0.000283,  48.872
   128.0,0.034578,0.019510,0.321522,-0.000297,  48.854
   128.2,0.034958,0.019722,0.325006,-0.000297,  48.838
   128.4,0.035345,0.019932,0.328059,-0.000332,  48.799
   128.6,0.035736,0.020139,0.330876,-0.000346,  48.771
   128.8,0.036107,0.020350,0.333427,-0.000323,  48.757
   129.0,0.036479,0.020549,0.335732,-0.000359,  48.734
   129.2,0.036855,0.020751,0.338919,-0.000372,  48.715
   129.4,0.037211,0.020945,0.342323,-0.000350,  48.678
   129.6,0.037568,0.021140,0.345891,-0.000399,  48.651
   129.8,0.037926,0.021340,0.348992,-0.000399,  48.630
   130.0,0.038279,0.021535,0.351964,-0.000376,  48.611
   130.2,0.038634,0.021730,0.354771,-0.000412,  48.587
   130.4,0.038996,0.021922,0.357993,-0.000425,  48.551
   130.6,0.039347,0.022113,0.361367,-0.000389,  48.525
   130.8,0.039703,0.022275,0.364882,-0.000412,  48.502
   131.0,0.040062,0.022416,0.367846,-0.000438,  48.475
   131.2,0.040398,0.022556,0.370591,-0.000416,  48.442
   131.4,0.040736,0.022675,0.373033,-0.000452,  48.416
   131.6,0.041060,0.022842,0.376212,-0.000465,  48.382
   131.8,0.041382,0.023026,0.379618,-0.000442,  48.364
   132.0,0.041710,0.023219,0.383223,-0.000478,  48.337
   132.2,0.042026,0.023393,0.386430,-0.000491,  48.293
   132.4,0.042335,0.023573,0.389531,-0.000469,  48.268
   132.6,0.042654,0.023743,0.392517,-0.000518,  48.235
   132.8,0.042968,0.023918,0.395450,-0.000518,  48.199
   133.0,0.043278,0.024110,0.398278,-0.000482,  48.159
   133.2,0.043594,0.024298,0.401021,-0.000531,  48.133
   133.4,0.043915,0.024459,0.403370,-0.000544,  48.105
   133.6,0.044206,0.024608,0.405499,-0.000522,  48.048
   133.8,0.044494,0.024756,0.407366,-0.000557,  48.025
   134.0,0.044770,0.024909,0.410047,-0.000522,  47.990
   134.2,0.045043,0.025060,0.413045,-0.000512,  47.937
   134.4,0.045309,0.025214,0.416352,-0.000548,  47.905
   134.6,0.045579,0.025360,0.419147,-0.000512,  47.862
   134.8,0.045806,0.025513,0.421789,-0.000539,  47.817
   135.0,0.046011,0.025655,0.424344,-0.000574,  47.780
   135.2,0.046193,0.025797,0.426900,-0.000526,  47.741
   135.4,0.046365,0.025945,0.429393,-0.000539,  47.693
   135.6,0.046596,0.026097,0.431835,-0.000588,  47.636
   135.8,0.046850,0.026235,0.434272,-0.000552,  47.591
   136.0,0.047131,0.026366,0.436617,-0.000565,  47.552
   136.2,0.047375,0.026502,0.438914,-0.000601,  47.512
   136.4,0.047603,0.026623,0.441087,-0.000614,  47.453
   136.6,0.047839,0.026737,0.443134,-0.000650,  47.406
   136.8,0.048061,0.026854,0.445048,-0.000627,  47.357
   137.0,0.048269,0.026972,0.446999,-0.000614,  47.312
   137.2,0.048482,0.027094,0.448917,-0.000627,  47.265
   137.4,0.048688,0.027213,0.450782,-0.000641,  47.205
   137.6,0.048887,0.027336,0.452683,-0.000676,  47.147
   137.8,0.049101,0.027465,0.454508,-0.000676,  47.098
   138.0,0.049297,0.027591,0.456349,-0.000667,  47.045
   138.2,0.049497,0.027701,0.457860,-0.000703,  46.985
   138.4,0.049693,0.027796,0.459166,-0.000667,  46.940
   138.6,0.049870,0.027889,0.460272,-0.000658,  46.865
   138.8,0.050051,0.027991,0.461175,-0.000694,  46.822
   139.0,0.050212,0.028093,0.462654,-0.000658,  46.758
   139.2,0.050375,0.028211,0.464216,-0.000671,  46.710
   139.4,0.050543,0.028302,0.465827,-0.000707,  46.636
   139.6,0.050707,0.028389,0.467315,-0.000707,  46.572
   139.8,0.050858,0.028471,0.468765,-0.000707,  46.521
   140.0,0.051010,0.028545,0.470184,-0.000756,  46.464
   140.2,0.051151,0.028602,0.471521,-0.000769,  46.392
   140.4,0.051286,0.028670,0.472825,-0.000746,  46.321
   140.6,0.051428,0.028717,0.474111,-0.000782,  46.257
   140.8,0.051556,0.028791,0.475335,-0.000809,  46.203
   141.0,0.051674,0.028870,0.476425,-0.000773,  46.139
   141.2,0.051800,0.028951,0.477479,-0.000809,  46.071
   141.4,0.051909,0.029015,0.478537,-0.000822,  45.999
   141.6,0.052011,0.029075,0.479509,-0.000799,  45.922
   141.8,0.052120,0.029135,0.480438,-0.000835,  45.860
   142.0,0.052215,0.029201,0.481295,-0.000799,  45.784
   142.2,0.052314,0.029276,0.482064,-0.000777,  45.727
   142.4,0.052427,0.029357,0.482804,-0.000826,  45.649
   142.6,0.052537,0.029408,0.483607,-0.000790,  45.555
   142.8,0.052619,0.029451,0.484315,-0.000803,  45.513
   143.0,0.052682,0.029493,0.485024,-0.000852,  45.430
   143.2,0.052734,0.029531,0.485689,-0.000816,  45.353
   143.4,0.052790,0.029571,0.486310,-0.000816,  45.285
   143.6,0.052836,0.029612,0.486894,-0.000839,  45.193
   143.8,0.052876,0.029650,0.487351,-0.000816,  45.127
   144.0,0.052909,0.029695,0.487733,-0.000843,  45.058
   144.2,0.052951,0.029736,0.488083,-0.000865,  44.977
   144.4,0.053001,0.029774,0.488565,-0.000843,  44.893
   144.6,0.053061,0.029820,0.489041,-0.000856,  44.796
   144.8,0.053107,0.029869,0.489504,-0.000892,  44.727
   145.0,0.053150,0.029899,0.489813,-0.000892,  44.649
   145.2,0.053196,0.029926,0.490047,-0.000928,  44.566
   145.4,0.053225,0.029947,0.490158,-0.000892,  44.484
   145.6,0.053259,0.029964,0.490333,-0.000892,  44.377
   145.8,0.053275,0.029973,0.490507,-0.000869,  44.317
   146.0,0.053285,0.029985,0.490682,-0.000883,  44.235
   146.2,0.053308,0.029997,0.490772,-0.000918,  44.146
   146.4,0.053312,0.030009,0.490832,-0.000883,  44.059
   146.6,0.053315,0.030028,0.490755,-0.000896,  43.958
   146.8,0.053331,0.030045,0.490762,-0.000932,  43.885
   147.0,0.053335,0.030071,0.490800,-0.000883,  43.797
   147.2,0.053334,0.030101,0.490709,-0.000896,  43.706
   147.4,0.053345,0.030112,0.490702,-0.000932,  43.612
   147.6,0.053345,0.030122,0.490598,-0.000896,  43.519
   147.8,0.053331,0.030119,0.490455,-0.000909,  43.448
   148.0,0.053325,0.030122,0.490266,-0.000958,  43.353
   148.2,0.053305,0.030124,0.490078,-0.000922,  43.259
   148.4,0.053278,0.030125,0.489852,-0.000935,  43.167
   148.6,0.053265,0.030123,0.489587,-0.000971,  43.055
   148.8,0.053236,0.030113,0.489246,-0.000971,  42.984
   149.0,0.053202,0.030108,0.488822,-0.000971,  42.890
   149.2,0.053176,0.030099,0.488277,-0.000994,  42.799
   149.4,0.053143,0.030092,0.487962,-0.000994,  42.700
   149.6,0.053103,0.030089,0.487722,-0.000971,  42.583
   149.8,0.053070,0.030083,0.487431,-0.000994,  42.513
   150.0,0.053027,0.030075,0.487019,-0.000994,  42.413
   150.2,0.052984,0.030070,0.486563,-0.000971,  42.324
   150.4,0.052941,0.030059,0.485993,-0.000994,  42.228
   150.6,0.052898,0.030047,0.485462,-0.001007,  42.107
   150.8,0.052849,0.030028,0.484886,-0.000984,  42.034
   151.0,0.052796,0.030002,0.484274,-0.001007,  41.937
   151.2,0.052744,0.029985,0.483776,-0.000984,  41.838
   151.4,0.052711,0.029971,0.483285,-0.000949,  41.745
   151.6,0.052671,0.029957,0.482825,-0.000971,  41.625
   151.8,0.052645,0.029932,0.482322,-0.000984,  41.538
   152.0,0.052622,0.029921,0.481730,-0.000984,  41.434
   152.2,0.052562,0.029897,0.481183,-0.001007,  41.337
   152.4,0.052496,0.029868,0.480636,-0.001020,  41.236
   152.6,0.052417,0.029842,0.480047,-0.000984,  41.113
   152.8,0.052347,0.029814,0.479413,-0.001007,  41.026
   153.0,0.052288,0.029787,0.478825,-0.001020,  40.921
   153.2,0.052222,0.029760,0.478193,-0.000984,  40.823
   153.4,0.052156,0.029744,0.477489,-0.000984,  40.719
   153.6,0.052090,0.029724,0.475850,-0.000984,  40.599
   153.8,0.052030,0.029708,0.473736,-0.000971,  40.515
   154.0,0.051971,0.029696,0.471089,-0.000984,  40.406
   154.2,0.051915,0.029672,0.470397,-0.000984,  40.299
   154.4,0.051869,0.029641,0.470356,-0.000971,  40.198
   154.6,0.051799,0.029615,0.471004,-0.000984,  40.072
   154.8,0.051737,0.029588,0.470695,-0.001007,  39.987
   155.0,0.051671,0.029557,0.470198,-0.001020,  39.881
   155.2,0.051598,0.029536,0.469557,-0.000998,  39.774
   155.4,0.051536,0.029507,0.468960,-0.001020,  39.662
   155.6,0.051477,0.029478,0.468377,-0.000984,  39.532
   155.8,0.051414,0.029454,0.467674,-0.000962,  39.442
   156.0,0.051358,0.029437,0.466942,-0.000984,  39.334
   156.2,0.051309,0.029427,0.466528,-0.000949,  39.232
   156.4,0.051256,0.029425,0.466150,-0.000949,  39.125
   156.6,0.051214,0.029396,0.465837,-0.000971,  38.981
   156.8,0.051182,0.029368,0.465381,-0.000949,  38.891
   157.0,0.051130,0.029332,0.464926,-0.000949,  38.785
   157.2,0.051067,0.029310,0.464300,-0.000971,  38.677
   157.4,0.051014,0.029293,0.463803,-0.000935,  38.568
   157.6,0.050968,0.029288,0.463356,-0.000922,  38.427
   157.8,0.050931,0.029283,0.462923,-0.000945,  38.333
   158.0,0.050892,0.029264,0.462370,-0.000896,  38.222
   158.2,0.050852,0.029250,0.461825,-0.000896,  38.118
   158.4,0.050823,0.029233,0.461217,-0.000918,  37.998
   158.6,0.050786,0.029221,0.460751,-0.000856,  37.863
   158.8,0.050753,0.029218,0.460285,-0.000869,  37.769
   159.0,0.050727,0.029221,0.459778,-0.000892,  37.643
   159.2,0.050704,0.029211,0.459384,-0.000856,  37.541
   159.4,0.050681,0.029204,0.459026,-0.000856,  37.422
   159.6,0.050664,0.029194,0.458674,-0.000843,  37.288
   159.8,0.050658,0.029194,0.458372,-0.000843,  37.193
   160.0,0.050644,0.029194,0.458029,-0.000807,  37.075
   160.2,0.050641,0.029199,0.457664,-0.000816,  36.960
   160.4,0.050645,0.029199,0.457447,-0.000803,  36.844
   160.6,0.050644,0.029207,0.457307,-0.000790,  36.702
   160.8,0.050654,0.029212,0.457125,-0.000813,  36.610
   161.0,0.050678,0.029219,0.456915,-0.000764,  36.499
   161.2,0.050687,0.029236,0.456677,-0.000777,  36.374
   161.4,0.050687,0.029249,0.456398,-0.000799,  36.266
   161.6,0.050697,0.029266,0.456307,-0.000773,  36.118
   161.8,0.050697,0.029277,0.456188,-0.000760,  36.029
   162.0,0.050717,0.029297,0.456104,-0.000782,  35.912
   162.2,0.050733,0.029318,0.456139,-0.000769,  35.796
   162.4,0.050763,0.029335,0.456174,-0.000733,  35.675
   162.6,0.050789,0.029362,0.456244,-0.000743,  35.528
   162.8,0.050835,0.029386,0.456468,-0.000729,  35.436
   163.0,0.050881,0.029412,0.456726,-0.000694,  35.324
   163.2,0.050923,0.029436,0.457097,-0.000680,  35.209
   163.4,0.050986,0.029464,0.457181,-0.000667,  35.086
   163.6,0.051042,0.029491,0.457209,-0.000654,  34.933
   163.8,0.051091,0.029530,0.457097,-0.000654,  34.845
   164.0,0.051151,0.029563,0.457265,-0.000641,  34.721
   164.2,0.051197,0.029602,0.457517,-0.000641,  34.603
   164.4,0.051252,0.029633,0.457847,-0.000627,  34.485
   164.6,0.051325,0.029667,0.458099,-0.000637,  34.343
   164.8,0.051394,0.029710,0.458310,-0.000623,  34.254
   165.0,0.051463,0.029749,0.458569,-0.000574,  34.136
   165.2,0.051546,0.029800,0.458794,-0.000584,  34.025
   165.4,0.051625,0.029855,0.459174,-0.000557,  33.902
   165.6,0.051700,0.029920,0.459554,-0.000522,  33.768
   165.8,0.051793,0.029965,0.460011,-0.000531,  33.664
   166.0,0.051889,0.030005,0.460441,-0.000518,  33.553
   166.2,0.051967,0.030038,0.460829,-0.000469,  33.439
   166.4,0.052050,0.030079,0.461218,-0.000491,  33.325
   166.6,0.052142,0.030127,0.461663,-0.000465,  33.186
   166.8,0.052228,0.030172,0.462066,-0.000429,  33.089
   167.0,0.052317,0.030211,0.462476,-0.000452,  32.981
   167.2,0.052416,0.030247,0.463022,-0.000438,  32.877
   167.4,0.052502,0.030275,0.463533,-0.000389,  32.759
   167.6,0.052594,0.030307,0.464123,-0.000399,  32.622
   167.8,0.052690,0.030347,0.464671,-0.000385,  32.537
   168.0,0.052776,0.030400,0.465263,-0.000336,  32.432
   168.2,0.052875,0.030456,0.465783,-0.000346,  32.320
   168.4,0.052968,0.030496,0.466118,-0.000319,  32.208
   168.6,0.053057,0.030546,0.466339,-0.000283,  32.072
   168.8,0.053149,0.030589,0.466451,-0.000306,  31.986
   169.0,0.053239,0.030629,0.467117,-0.000257,  31.888
   169.2,0.053324,0.030677,0.467885,-0.000208,  31.782
   169.4,0.053410,0.030722,0.468922,-0.000230,  31.679
   169.6,0.053492,0.030763,0.469598,-0.000168,  31.552
   169.8,0.053568,0.030804,0.470117,-0.000155,  31.481
   170.0,0.053655,0.030838,0.470535,-0.000164,  31.373
   170.2,0.053734,0.030877,0.471091,-0.000102,  31.271
   170.4,0.053801,0.030919,0.471648,-0.000102,  31.174
   170.6,0.053860,0.030958,0.472192,-0.000111,  31.055
   170.8,0.053920,0.030991,0.472700,-0.000062,  30.988
   171.0,0.053963,0.031023,0.473216,-0.000062,  30.894
   171.2,0.054029,0.031051,0.473739,-0.000085,  30.800
   171.4,0.054092,0.031075,0.473598,-0.000023,  30.709
   171.6,0.054158,0.031104,0.473157,-0.000036,  30.598
   171.8,0.054211,0.031133,0.472324,-0.000058,  30.525
   172.0,0.054267,0.031149,0.472715,-0.000009,  30.437
   172.2,0.054320,0.031169,0.473443,0.000004,  30.357
   172.4,0.054363,0.031186,0.474553,0.000017,  30.276
   172.6,0.054410,0.031190,0.475160,-0.000005,  30.171
   172.8,0.054450,0.031205,0.475650,0.000008,  30.108
   173.0,0.054479,0.031212,0.476068,0.000044,  30.019
   173.2,0.054516,0.031216,0.476442,0.000034,  29.946
   173.4,0.054539,0.031219,0.476742,0.000070,  29.873
   173.6,0.054552,0.031221,0.476925,0.000070,  29.782
   173.8,0.054583,0.031227,0.477218,0.000048,  29.723
   174.0,0.054600,0.031227,0.477424,0.000097,  29.649
   174.2,0.054603,0.031217,0.477630,0.000110,  29.584
   174.4,0.054613,0.031202,0.477718,0.000087,  29.514
   174.6,0.054613,0.031185,0.477762,0.000101,  29.430
   174.8,0.054606,0.031166,0.477644,0.000101,  29.379
   175.0,0.054610,0.031142,0.477526,0.000078,  29.317
   175.2,0.054600,0.031128,0.477475,0.000078,  29.253
   175.4,0.054576,0.031107,0.477468,0.000114,  29.187
   175.6,0.054563,0.031078,0.477461,0.000091,  29.117
   175.8,0.054533,0.031053,0.477329,0.000091,  29.068
   176.0,0.054500,0.031025,0.477116,0.000127,  29.010
   176.2,0.054467,0.030991,0.476874,0.000105,  28.955
   176.4,0.054427,0.030955,0.476617,0.000105,  28.903
   176.6,0.054374,0.030916,0.476324,0.000127,  28.835
   176.8,0.054324,0.030885,0.475980,0.000091,  28.797
   177.0,0.054274,0.030853,0.475820,0.000105,  28.748
   177.2,0.054211,0.030825,0.475728,0.000140,  28.702
   177.4,0.054152,0.030793,0.475628,0.000105,  28.652
   177.6,0.054092,0.030750,0.475271,0.000118,  28.585
   177.8,0.054019,0.030697,0.474716,0.000154,  28.553
   178.0,0.053953,0.030640,0.474015,0.000118,  28.511
   178.2,0.053870,0.030587,0.473462,0.000118,  28.465
   178.4,0.053784,0.030527,0.472829,0.000154,  28.425
   178.6,0.053708,0.030467,0.472117,0.000118,  28.378
   178.8,0.053629,0.030409,0.471546,0.000118,  28.344
   179.0,0.053529,0.030340,0.470925,0.000140,  28.306
   179.2,0.053433,0.030268,0.470304,0.000105,  28.266
   179.4,0.053334,0.030203,0.469612,0.000118,  28.233
   179.6,0.053245,0.030136,0.468885,0.000140,  28.187
   179.8,0.053159,0.030064,0.468044,0.000105,  28.156
   180.0,0.053090,0.029985,0.467270,0.000118,  28.129
   180.2,0.053017,0.029909,0.466511,0.000140,  28.097
   180.4,0.052911,0.029838,0.465697,0.000105,  28.059
   180.6,0.052792,0.029751,0.464870,0.000118,  28.020
   180.8,0.052660,0.029667,0.464094,0.000140,  27.995
   181.0,0.052535,0.029590,0.463270,0.000105,  27.967
   181.2,0.052406,0.029506,0.462377,0.000118,  27.941
   181.4,0.052284,0.029420,0.461408,0.000140,  27.909
   181.6,0.052145,0.029338,0.460363,0.000140,  27.876
   181.8,0.052013,0.029247,0.459349,0.000154,  27.861
   182.0,0.051872,0.029154,0.458344,0.000140,  27.831
   182.2,0.051723,0.029063,0.457251,0.000140,  27.801
   182.4,0.051585,0.028964,0.456195,0.000154,  27.775
   182.6,0.051437,0.028876,0.455107,0.000140,  27.743
   182.8,0.051282,0.028793,0.454064,0.000140,  27.726
   183.0,0.051138,0.028693,0.453016,0.000105,  27.699
   183.2,0.050990,0.028598,0.451901,0.000140,  27.674
   183.4,0.050835,0.028501,0.450783,0.000163,  27.654
   183.6,0.050685,0.028398,0.449791,0.000127,  27.621
   183.8,0.050534,0.028297,0.448849,0.000127,  27.605
   184.0,0.050377,0.028191,0.447869,0.000127,  27.583
   184.2,0.050212,0.028091,0.446979,0.000091,  27.560
   184.4,0.050051,0.027991,0.445826,0.000091,  27.533
   184.6,0.049877,0.027888,0.444627,0.000127,  27.509
   184.8,0.049710,0.027782,0.443350,0.000078,  27.489
   185.0,0.049536,0.027680,0.442084,0.000078,  27.470
   185.2,0.049355,0.027570,0.440755,0.000114,  27.441
   185.4,0.049185,0.027462,0.439396,0.000065,  27.417
   185.6,0.049009,0.027357,0.437822,0.000065,  27.393
   185.8,0.048825,0.027252,0.436034,0.000114,  27.374
   186.0,0.048652,0.027159,0.434156,0.000078,  27.352
   186.2,0.048469,0.027071,0.432772,0.000078,  27.326
   186.4,0.048279,0.026995,0.431523,0.000114,  27.314
   186.6,0.048099,0.026920,0.430414,0.000078,  27.280
   186.8,0.047913,0.026812,0.429125,0.000078,  27.267
   187.0,0.047724,0.026698,0.427846,0.000101,  27.245
   187.2,0.047541,0.026582,0.426454,0.000078,  27.226
   187.4,0.047349,0.026462,0.424867,0.000078,  27.200
   187.6,0.047156,0.026348,0.423191,0.000101,  27.175
   187.8,0.046971,0.026237,0.421310,0.000078,  27.158
   188.0,0.046775,0.026113,0.419900,0.000078,  27.132
   188.2,0.046573,0.025999,0.418627,0.000101,  27.114
   188.4,0.046385,0.025886,0.417451,0.000078,  27.088
   188.6,0.046183,0.025769,0.416060,0.000101,  27.063
   188.8,0.046007,0.025657,0.414566,0.000110,  27.041
   189.0,0.045851,0.025545,0.413022,0.000087,  27.018
   189.2,0.045711,0.025426,0.411507,0.000110,  26.994
   189.4,0.045581,0.025306,0.409916,0.000097,  26.974
   189.6,0.045392,0.025178,0.408344,0.000061,  26.945
   189.8,0.045188,0.025057,0.406839,0.000097,  26.923
   190.0,0.044977,0.024943,0.405294,0.000083,  26.902
   190.2,0.044776,0.024831,0.403792,0.000048,  26.875
   190.4,0.044578,0.024712,0.402288,0.000097,  26.857
   190.6,0.044388,0.024596,0.400753,0.000083,  26.825
   190.8,0.044183,0.024478,0.399215,0.000048,  26.807
   191.0,0.043976,0.024360,0.397498,0.000097,  26.786
   191.2,0.043773,0.024237,0.395700,0.000083,  26.759
   191.4,0.043559,0.024114,0.393828,0.000083,  26.739
   191.6,0.043349,0.023994,0.392133,0.000048,  26.708
   191.8,0.043142,0.023876,0.390480,0.000061,  26.689
   192.0,0.042936,0.023748,0.388820,0.000083,  26.660
   192.2,0.042726,0.023625,0.387173,0.000048,  26.640
   192.4,0.042527,0.023509,0.385496,0.000083,  26.605
   192.6,0.042317,0.023396,0.383798,0.000070,  26.580
   192.8,0.042117,0.023272,0.382375,0.000034,  26.560
   193.0,0.041911,0.023151,0.381132,0.000070,  26.529
   193.2,0.041695,0.023033,0.379957,0.000070,  26.503
   193.4,0.041496,0.022908,0.378924,0.000034,  26.476
   193.6,0.041280,0.022783,0.377307,0.000070,  26.448
   193.8,0.041061,0.022667,0.375564,0.000070,  26.421
   194.0,0.040853,0.022541,0.373682,0.000034,  26.392
   194.2,0.040634,0.022423,0.371781,0.000070,  26.362
   194.4,0.040415,0.022305,0.369799,0.000070,  26.337
   194.6,0.040210,0.022202,0.367670,0.000034,  26.304
   194.8,0.040002,0.022110,0.366054,0.000070,  26.277
   195.0,0.039783,0.022015,0.364645,0.000070,  26.253
   195.2,0.039582,0.021940,0.363416,0.000034,  26.225
   195.4,0.039374,0.021823,0.361808,0.000070,  26.194
   195.6,0.039159,0.021699,0.360085,0.000070,  26.160
   195.8,0.038958,0.021574,0.358303,0.000034,  26.133
   196.0,0.038750,0.021454,0.356594,0.000070,  26.106
   196.2,0.038536,0.021333,0.354891,0.000057,  26.072
   196.4,0.038328,0.021210,0.353162,0.000021,  26.044
   196.6,0.038118,0.021087,0.351447,0.000070,  26.006
   196.8,0.037903,0.020975,0.349706,0.000057,  25.983
   197.0,0.037696,0.020854,0.348011,0.000021,  25.952
   197.2,0.037486,0.020734,0.346341,0.000070,  25.925
   197.4,0.037272,0.020619,0.344653,0.000057,  25.893
   197.6,0.037069,0.020500,0.342938,0.000021,  25.853
   197.8,0.036858,0.020385,0.341224,0.000070,  25.835
   198.0,0.036683,0.020274,0.339562,0.000057,  25.808
   198.2,0.036521,0.020161,0.337804,0.000021,  25.774
   198.4,0.036375,0.020043,0.336003,0.000070,  25.739
   198.6,0.036245,0.019928,0.334185,0.000057,  25.705
   198.8,0.036047,0.019809,0.332326,0.000021,  25.682
   199.0,0.035851,0.019686,0.330573,0.000070,  25.655
   199.2,0.035625,0.019572,0.328882,0.000057,  25.618
   199.4,0.035418,0.019459,0.327260,0.000057,  25.588
   199.6,0.035219,0.019339,0.325630,0.000021,  25.549
   199.8,0.035019,0.019222,0.324037,0.000021,  25.531
   200.0,0.034813,0.019111,0.322474,0.000044,  25.501
   200.2,0.034614,0.018999,0.320464,0.000008,  25.472
   200.4,0.034408,0.018889,0.318256,0.000044,  25.439
   200.6,0.034198,0.018778,0.315821,0.000044,  25.400
   200.8,0.034003,0.018665,0.314194,0.000008,  25.375
   201.0,0.033797,0.018556,0.312766,0.000044,  25.340
   201.2,0.033595,0.018434,0.311570,0.000044,  25.313
   201.4,0.033393,0.018315,0.310336,0.000008,  25.281
   201.6,0.033195,0.018208,0.309178,0.000044,  25.238
   201.8,0.032996,0.018096,0.308107,0.000044,  25.217
   202.0,0.032797,0.017976,0.307118,0.000008,  25.184
   202.2,0.032605,0.017875,0.305709,0.000044,  25.151
   202.4,0.032410,0.017768,0.304105,0.000044,  25.118
   202.6,0.032210,0.017658,0.302419,0.000008,  25.079
   202.8,0.032022,0.017557,0.300856,0.000021,  25.051
   203.0,0.031830,0.017455,0.299219,0.000021,  25.026
   203.2,0.031631,0.017364,0.297587,-0.000015,  24.995
   203.4,0.031443,0.017278,0.295692,-0.000001,  24.956
   203.6,0.031255,0.017208,0.293610,0.000021,  24.920
   203.8,0.031062,0.017138,0.291366,-0.000015,  24.895
   204.0,0.030878,0.017037,0.289872,-0.000001,  24.865
   204.2,0.030686,0.016937,0.288619,0.000021,  24.831
   204.4,0.030504,0.016830,0.287653,-0.000015,  24.801
   204.6,0.030322,0.016728,0.286299,-0.000001,  24.758
   204.8,0.030133,0.016626,0.284814,0.000034,  24.732
   205.0,0.029955,0.016523,0.283299,-0.000001,  24.701
   205.2,0.029773,0.016421,0.281853,0.000012,  24.670
   205.4,0.029598,0.016328,0.280362,0.000048,  24.637
   205.6,0.029417,0.016230,0.278856,0.000025,  24.595
   205.8,0.029245,0.016134,0.277473,0.000025,  24.567
   206.0,0.029070,0.016037,0.276142,0.000061,  24.533
   206.2,0.028885,0.015940,0.274822,0.000038,  24.505
   206.4,0.028717,0.015844,0.273437,0.000025,  24.469
   206.6,0.028567,0.015743,0.272037,0.000025,  24.431
   206.8,0.028436,0.015652,0.270620,0.000003,  24.401
   207.0,0.028301,0.015559,0.269113,0.000038,  24.368
   207.2,0.028199,0.015466,0.267565,0.000074,  24.336
   207.4,0.028036,0.015381,0.265954,0.000052,  24.301
   207.6,0.027870,0.015286,0.264611,0.000087,  24.256
   207.8,0.027703,0.015198,0.263365,0.000110,  24.227
   208.0,0.027534,0.015108,0.262202,0.000146,  24.194
   208.2,0.027356,0.015013,0.260869,0.000087,  24.163
   208.4,0.027189,0.014925,0.259469,0.000123,  24.126
   208.6,0.027024,0.014832,0.258001,0.000110,  24.082
   208.8,0.026855,0.014737,0.256622,0.000087,  24.061
   209.0,0.026700,0.014656,0.255262,0.000123,  24.026
   209.2,0.026539,0.014574,0.253881,0.000123,  23.991
   209.4,0.026370,0.014481,0.252587,0.000101,  23.957
   209.6,0.026212,0.014398,0.251290,0.000123,  23.917
   209.8,0.026057,0.014317,0.250023,0.000123,  23.887
   210.0,0.025895,0.014226,0.248904,0.000101,  23.851
   210.2,0.025744,0.014141,0.247858,0.000123,  23.815
   210.4,0.025582,0.014057,0.246926,0.000123,  23.787
   210.6,0.025423,0.013971,0.246080,0.000101,  23.743
   210.8,0.025262,0.013884,0.244867,0.000123,  23.718
   211.0,0.025103,0.013798,0.243492,0.000123,  23.686
   211.2,0.024952,0.013710,0.242052,0.000101,  23.652
   211.4,0.024797,0.013622,0.240756,0.000123,  23.618
   211.6,0.024638,0.013539,0.239464,0.000123,  23.578
   211.8,0.024490,0.013468,0.238150,0.000101,  23.556
   212.0,0.024345,0.013398,0.236859,0.000123,  23.521
   212.2,0.024187,0.013346,0.235604,0.000123,  23.488
   212.4,0.024039,0.013295,0.234338,0.000101,  23.456
   212.6,0.023894,0.013214,0.233058,0.000123,  23.410
   212.8,0.023742,0.013133,0.231796,0.000123,  23.391
   213.0,0.023601,0.013050,0.230537,0.000101,  23.352
   213.2,0.023453,0.012964,0.229311,0.000087,  23.323
   213.4,0.023307,0.012887,0.228145,0.000087,  23.293
   213.6,0.023175,0.012816,0.226974,0.000065,  23.248
   213.8,0.023036,0.012733,0.225825,0.000052,  23.223
   214.0,0.022894,0.012652,0.224703,0.000087,  23.194
   214.2,0.022759,0.012579,0.223553,0.000065,  23.162
   214.4,0.022617,0.012498,0.221861,0.000052,  23.130
   214.6,0.022472,0.012422,0.219926,0.000087,  23.092
   214.8,0.022340,0.012343,0.217711,0.000065,  23.062
   215.0,0.022198,0.012262,0.216528,0.000052,  23.026
   215.2,0.022056,0.012191,0.215725,0.000087,  22.997
   215.4,0.021931,0.012118,0.215331,0.000065,  22.966
   215.6,0.021799,0.012040,0.214449,0.000052,  22.926
   215.8,0.021685,0.011971,0.213492,0.000087,  22.902
   216.0,0.021580,0.011902,0.212480,0.000065,  22.867
   216.2,0.021488,0.011827,0.211545,0.000065,  22.839
   216.4,0.021402,0.011759,0.210555,0.000101,  22.810
   216.6,0.021282,0.011688,0.209559,0.000078,  22.770
   216.8,0.021163,0.011616,0.208525,0.000078,  22.747
   217.0,0.021028,0.011550,0.207461,0.000101,  22.715
   217.2,0.020895,0.011481,0.206335,0.000101,  22.683
   217.4,0.020776,0.011409,0.205373,0.000114,  22.652
   217.6,0.020644,0.011342,0.204452,0.000101,  22.619
   217.8,0.020511,0.011271,0.203550,0.000101,  22.589
   218.0,0.020396,0.011206,0.202567,0.000114,  22.557
   218.2,0.020273,0.011140,0.201524,0.000114,  22.531
   218.4,0.020147,0.011078,0.200434,0.000101,  22.502
   218.6,0.020031,0.011012,0.199558,0.000078,  22.466
   218.8,0.019915,0.010952,0.198770,0.000078,  22.439
   219.0,0.019795,0.010895,0.198030,0.000101,  22.414
   219.2,0.019682,0.010825,0.197383,0.000078,  22.382
   219.4,0.019566,0.010760,0.196421,0.000078,  22.352
   219.6,0.019446,0.010700,0.195370,0.000101,  22.311
   219.8,0.019337,0.010633,0.194229,0.000078,  22.293
   220.0,0.019220,0.010565,0.193283,0.000078,  22.260
   220.2,0.019100,0.010512,0.192385,0.000101,  22.237
   220.4,0.018997,0.010451,0.191475,0.000078,  22.202
   220.6,0.018887,0.010392,0.190551,0.000078,  22.166
   220.8,0.018774,0.010334,0.189620,0.000101,  22.143
   221.0,0.018674,0.010286,0.188669,0.000078,  22.111
   221.2,0.018564,0.010240,0.187742,0.000114,  22.085
   221.4,0.018460,0.010203,0.186779,0.000150,  22.055
   221.6,0.018356,0.010171,0.185847,0.000114,  22.021
   221.8,0.018259,0.010118,0.184926,0.000150,  21.994
   222.0,0.018152,0.010058,0.183985,0.000150,  21.969
   222.2,0.018048,0.009998,0.183060,0.000114,  21.944
   222.4,0.017945,0.009938,0.182227,0.000150,  21.915
   222.6,0.017844,0.009886,0.181389,0.000150,  21.876
   222.8,0.017747,0.009837,0.180575,0.000127,  21.856
   223.0,0.017653,0.009782,0.179709,0.000163,  21.825
   223.2,0.017556,0.009725,0.178815,0.000163,  21.800
   223.4,0.017451,0.009676,0.177864,0.000140,  21.772
   223.6,0.017361,0.009625,0.177063,0.000176,  21.743
   223.8,0.017276,0.009570,0.176256,0.000163,  21.719
   224.0,0.017203,0.009527,0.175502,0.000127,  21.692
   224.2,0.017126,0.009474,0.174742,0.000163,  21.663
   224.4,0.017069,0.009423,0.173962,0.000163,  21.634
   224.6,0.016977,0.009375,0.173190,0.000127,  21.596
   224.8,0.016879,0.009319,0.172361,0.000176,  21.580
   225.0,0.016786,0.009271,0.171504,0.000176,  21.550
   225.2,0.016698,0.009224,0.170619,0.000140,  21.521
   225.4,0.016600,0.009171,0.169482,0.000189,  21.495
   225.6,0.016519,0.009121,0.168226,0.000189,  21.464
   225.8,0.016430,0.009075,0.166773,0.000154,  21.444
   226.0,0.016329,0.009022,0.165662,0.000203,  21.422
   226.2,0.016245,0.008977,0.164654,0.000203,  21.392
   226.4,0.016157,0.008930,0.163720,0.000203,  21.365
   226.6,0.016059,0.008877,0.162447,0.000167,  21.335
   226.8,0.015975,0.008830,0.161022,0.000167,  21.314
   227.0,0.015890,0.008783,0.159496,0.000203,  21.287
   227.2,0.015798,0.008737,0.158990,0.000180,  21.262
   227.4,0.015717,0.008692,0.158927,0.000203,  21.235
   227.6,0.015636,0.008650,0.159288,0.000189,  21.199
   227.8,0.015547,0.008606,0.159014,0.000154,  21.185
   228.0,0.015466,0.008570,0.158627,0.000203,  21.159
   228.2,0.015380,0.008524,0.158114,0.000203,  21.134
   228.4,0.015301,0.008474,0.157735,0.000167,  21.114
   228.6,0.015223,0.008435,0.157405,0.000180,  21.085
   228.8,0.015137,0.008393,0.157040,0.000167,  21.058
   229.0,0.015062,0.008344,0.156704,0.000131,  21.029
   229.2,0.014983,0.008303,0.156200,0.000144,  21.011
   229.4,0.014905,0.008262,0.155577,0.000167,  20.981
   229.6,0.014824,0.008216,0.154921,0.000131,  20.950
   229.8,0.014753,0.008181,0.154321,0.000144,  20.934
   230.0,0.014674,0.008141,0.153729,0.000167,  20.911
   230.2,0.014589,0.008107,0.153089,0.000144,  20.882
   230.4,0.014513,0.008076,0.152464,0.000144,  20.858
   230.6,0.014438,0.008046,0.151854,0.000180,  20.829
   230.8,0.014365,0.008018,0.151244,0.000158,  20.813
   231.0,0.014296,0.007984,0.150546,0.000180,  20.789
   231.2,0.014223,0.007943,0.149814,0.000216,  20.760
   231.4,0.014144,0.007899,0.149035,0.000193,  20.736
   231.6,0.014068,0.007861,0.148190,0.000216,  20.707
   231.8,0.013999,0.007817,0.147216,0.000216,  20.690
   232.0,0.013919,0.007778,0.146177,0.000193,  20.663
   232.2,0.013854,0.007737,0.145596,0.000229,  20.641
   232.4,0.013784,0.007695,0.145152,0.000229,  20.618
   232.6,0.013708,0.007654,0.144891,0.000207,  20.588
   232.8,0.013642,0.007619,0.144414,0.000207,  20.568
   233.0,0.013576,0.007589,0.143923,0.000207,  20.546
   233.2,0.013506,0.007552,0.143385,0.000184,  20.523
   233.4,0.013443,0.007518,0.142882,0.000207,  20.501
   233.6,0.013386,0.007482,0.142380,0.000242,  20.473
   233.8,0.013335,0.007446,0.141865,0.000220,  20.455
   234.0,0.013280,0.007407,0.141263,0.000242,  20.434
   234.2,0.013244,0.007370,0.140635,0.000242,  20.408
   234.4,0.013180,0.007341,0.139934,0.000220,  20.386
   234.6,0.013114,0.007302,0.139348,0.000207,  20.360
   234.8,0.013044,0.007268,0.138823,0.000207,  20.337
   235.0,0.012974,0.007229,0.138285,0.000171,  20.322
   235.2,0.012911,0.007197,0.137701,0.000220,  20.296
   235.4,0.012842,0.007168,0.137132,0.000184,  20.273
   235.6,0.012771,0.007136,0.136503,0.000220,  20.248
   235.8,0.012711,0.007101,0.135968,0.000220,  20.229
   236.0,0.012655,0.007067,0.135500,0.000256,  20.205
   236.2,0.012588,0.007033,0.135026,0.000256,  20.186
   236.4,0.012525,0.006999,0.134519,0.000233,  20.165
   236.6,0.012471,0.006970,0.134000,0.000269,  20.139
   236.8,0.012404,0.006941,0.133468,0.000256,  20.118
   237.0,0.012351,0.006912,0.133050,0.000233,  20.096
   237.2,0.012298,0.006880,0.132698,0.000269,  20.081
   237.4,0.012234,0.006847,0.132373,0.000269,  20.059
   237.6,0.012180,0.006813,0.132080,0.000233,  20.035
   237.8,0.012120,0.006784,0.131571,0.000269,  20.022
   238.0,0.012056,0.006753,0.130971,0.000269,  19.994
   238.2,0.012006,0.006715,0.130306,0.000233,  19.972
   238.4,0.011949,0.006685,0.129811,0.000269,  19.954
   238.6,0.011885,0.006657,0.129318,0.000269,  19.929
   238.8,0.011828,0.006632,0.128864,0.000233,  19.916
   239.0,0.011774,0.006607,0.128449,0.000269,  19.896
   239.2,0.011716,0.006589,0.128054,0.000269,  19.874
   239.4,0.011659,0.006570,0.127652,0.000246,  19.851
   239.6,0.011611,0.006542,0.127193,0.000282,  19.828
   239.8,0.011553,0.006511,0.126722,0.000282,  19.814
   240.0,0.011506,0.006482,0.126186,0.000260,  19.789
   240.2,0.011462,0.006449,0.125645,0.000295,  19.775
   240.4,0.011404,0.006422,0.125067,0.000282,  19.753
   240.6,0.011357,0.006402,0.124457,0.000246,  19.731
   240.8,0.011303,0.006372,0.123969,0.000282,  19.714
   241.0,0.011245,0.006348,0.123516,0.000282,  19.695
   241.2,0.011204,0.006323,0.123068,0.000246,  19.676
   241.4,0.011150,0.006291,0.122697,0.000282,  19.652
   241.6,0.011092,0.006266,0.122372,0.000282,  19.631
   241.8,0.011048,0.006232,0.122053,0.000246,  19.619
   242.0,0.010997,0.006202,0.121651,0.000282,  19.598
   242.2,0.010952,0.006180,0.121251,0.000282,  19.580
   242.4,0.010916,0.006152,0.120773,0.000246,  19.562
   242.6,0.010883,0.006127,0.120328,0.000295,  19.538
   242.8,0.010853,0.006100,0.119872,0.000295,  19.523
   243.0,0.010801,0.006072,0.119396,0.000260,  19.505
   243.2,0.010760,0.006047,0.119023,0.000309,  19.489
   243.4,0.010706,0.006018,0.118643,0.000295,  19.469
   243.6,0.010651,0.005986,0.118282,0.000260,  19.449
   243.8,0.010607,0.005959,0.117922,0.000309,  19.437
   244.0,0.010560,0.005932,0.117550,0.000295,  19.415
   244.2,0.010508,0.005905,0.117165,0.000295,  19.400
   244.4,0.010467,0.005875,0.116806,0.000273,  19.377
   244.6,0.010416,0.005857,0.116421,0.000273,  19.359
   244.8,0.010364,0.005841,0.116050,0.000295,  19.339
   245.0,0.010326,0.005816,0.115622,0.000273,  19.321
   245.2,0.010278,0.005788,0.115196,0.000295,  19.300
   245.4,0.010230,0.005765,0.114732,0.000295,  19.287
   245.6,0.010185,0.005739,0.114262,0.000260,  19.264
   245.8,0.010147,0.005712,0.113800,0.000309,  19.249
   246.0,0.010099,0.005684,0.113345,0.000295,  19.234
   246.2,0.010047,0.005658,0.112983,0.000260,  19.211
   246.4,0.010013,0.005638,0.112672,0.000309,  19.196
   246.6,0.009971,0.005618,0.112425,0.000295,  19.175
   246.8,0.009919,0.005590,0.112229,0.000260,  19.161
   247.0,0.009881,0.005570,0.111844,0.000309,  19.143
   247.2,0.009839,0.005545,0.111377,0.000295,  19.126
   247.4,0.009790,0.005517,0.110887,0.000260,  19.105
   247.6,0.009752,0.005497,0.110497,0.000309,  19.086
   247.8,0.009710,0.005475,0.110112,0.000295,  19.074
   248.0,0.009662,0.005454,0.109735,0.000260,  19.059
   248.2,0.009630,0.005438,0.109265,0.000273,  19.037
   248.4,0.009591,0.005420,0.108742,0.000260,  19.025
   248.6,0.009542,0.005404,0.108158,0.000224,  19.001
   248.8,0.009510,0.005381,0.107844,0.000237,  18.986
   249.0,0.009471,0.005359,0.107621,0.000260,  18.969
   249.2,0.009425,0.005336,0.107490,0.000224,  18.956
   249.4,0.009394,0.005313,0.107207,0.000237,  18.937
   249.6,0.009355,0.005290,0.106874,0.000273,  18.915
   249.8,0.009309,0.005275,0.106525,0.000237,  18.904
   250.0,0.009277,0.005249,0.106188,0.000237,  18.888
   250.2,0.009237,0.005234,0.105814,0.000273,  18.868
   250.4,0.009201,0.005216,0.105454,0.000237,  18.853
   250.6,0.009163,0.005193,0.105148,0.000237,  18.833
   250.8,0.009133,0.005177,0.104842,0.000273,  18.821
   251.0,0.009103,0.005162,0.104562,0.000237,  18.806
   251.2,0.009079,0.005135,0.104257,0.000237,  18.785
   251.4,0.009055,0.005114,0.103952,0.000273,  18.770
   251.6,0.009015,0.005101,0.103647,0.000237,  18.751
   251.8,0.008982,0.005082,0.103343,0.000273,  18.738
   252.0,0.008950,0.005062,0.103027,0.000309,  18.726
   252.2,0.008910,0.005052,0.102729,0.000273,  18.708
   252.4,0.008881,0.005041,0.102426,0.000309,  18.687
   252.6,0.008852,0.005023,0.102122,0.000309,  18.669
   252.8,0.008819,0.005005,0.101825,0.000309,  18.660
   253.0,0.008789,0.004993,0.101348,0.000273,  18.644
   253.2,0.008761,0.004976,0.100782,0.000273,  18.626
   253.4,0.008728,0.004956,0.100153,0.000309,  18.612
   253.6,0.008688,0.004940,0.099906,0.000273,  18.590
   253.8,0.008659,0.004920,0.099754,0.000309,  18.577
   254.0,0.008625,0.004906,0.099758,0.000309,  18.568
   254.2,0.008595,0.004886,0.099541,0.000273,  18.552
   254.4,0.008569,0.004872,0.099276,0.000322,  18.536
   254.6,0.008535,0.004861,0.098952,0.000322,  18.518
   254.8,0.008509,0.004842,0.098742,0.000286,  18.508
   255.0,0.008476,0.004826,0.098599,0.000335,  18.486
   255.2,0.008439,0.004811,0.098438,0.000322,  18.473
   255.4,0.008410,0.004793,0.098325,0.000286,  18.460
   255.6,0.008380,0.004778,0.097613,0.000335,  18.443
   255.8,0.008343,0.004764,0.096661,0.000322,  18.432
   256.0,0.008317,0.004745,0.095499,0.000299,  18.415
   256.2,0.008291,0.004731,0.095232,0.000335,  18.403
   256.4,0.008262,0.004717,0.095263,0.000335,  18.389
   256.6,0.008232,0.004703,0.095604,0.000313,  18.368
   256.8,0.008203,0.004687,0.095555,0.000348,  18.355
   257.0,0.008166,0.004678,0.095483,0.000348,  18.345
   257.2,0.008139,0.004668,0.095364,0.000326,  18.326
   257.4,0.008110,0.004656,0.095168,0.000362,  18.312
   257.6,0.008076,0.004643,0.094912,0.000348,  18.296
   257.8,0.008059,0.004624,0.094612,0.000326,  18.282
   258.0,0.008029,0.004608,0.094423,0.000362,  18.269
   258.2,0.007995,0.004590,0.094245,0.000348,  18.253
   258.4,0.007978,0.004578,0.094086,0.000326,  18.241
   258.6,0.007949,0.004559,0.093908,0.000362,  18.224
   258.8,0.007918,0.004548,0.093730,0.000348,  18.214
   259.0,0.007904,0.004539,0.093509,0.000326,  18.198
   259.2,0.007880,0.004523,0.093259,0.000326,  18.188
   259.4,0.007849,0.004513,0.093012,0.000313,  18.176
   259.6,0.007823,0.004498,0.092699,0.000290,  18.162
   259.8,0.007793,0.004487,0.092438,0.000290,  18.150
   260.0,0.007765,0.004473,0.092209,0.000313,  18.136
   260.2,0.007744,0.004461,0.091981,0.000290,  18.123
   260.4,0.007726,0.004447,0.091727,0.000290,  18.114
   260.6,0.007712,0.004430,0.091499,0.000326,  18.095
   260.8,0.007692,0.004414,0.091260,0.000303,  18.086
   261.0,0.007668,0.004400,0.091072,0.000290,  18.075
   261.2,0.007644,0.004388,0.090888,0.000326,  18.060
   261.4,0.007616,0.004377,0.090712,0.000303,  18.045
   261.6,0.007589,0.004358,0.090477,0.000326,  18.031
   261.8,0.007570,0.004350,0.090202,0.000362,  18.018
   262.0,0.007539,0.004333,0.089906,0.000397,  18.002
   262.2,0.007515,0.004314,0.089718,0.000326,  17.995
   262.4,0.007498,0.004304,0.089571,0.000362,  17.983
   262.6,0.007470,0.004294,0.089460,0.000348,  17.959
   262.8,0.007447,0.004285,0.089244,0.000326,  17.951
   263.0,0.007430,0.004271,0.088988,0.000326,  17.943
   263.2,0.007402,0.004258,0.088697,0.000313,  17.927
   263.4,0.007388,0.004254,0.088517,0.000290,  17.913
   263.6,0.007371,0.004243,0.088406,0.000290,  17.902
   263.8,0.007344,0.004224,0.088302,0.000313,  17.891
   264.0,0.007327,0.004213,0.088256,0.000290,  17.872
   264.2,0.007300,0.004202,0.088034,0.000290,  17.868
   264.4,0.007272,0.004186,0.087797,0.000313,  17.858
   264.6,0.007254,0.004172,0.087495,0.000290,  17.841
   264.8,0.007231,0.004164,0.087297,0.000290,  17.832
   265.0,0.007203,0.004156,0.087093,0.000313,  17.823
   265.2,0.007186,0.004146,0.086932,0.000290,  17.805
   265.4,0.007169,0.004135,0.086782,0.000290,  17.793
   265.6,0.007144,0.004137,0.086625,0.000313,  17.784
   265.8,0.007133,0.004128,0.086486,0.000290,  17.770
   266.0,0.007113,0.004114,0.086260,0.000290,  17.762
   266.2,0.007092,0.004100,0.085977,0.000313,  17.745
   266.4,0.007074,0.004089,0.085659,0.000290,  17.730
   266.6,0.007060,0.004070,0.085405,0.000326,  17.722
   266.8,0.007039,0.004061,0.085169,0.000348,  17.713
   267.0,0.007012,0.004054,0.084923,0.000326,  17.698
   267.2,0.007001,0.004040,0.084698,0.000362,  17.690
   267.4,0.006986,0.004026,0.084509,0.000348,  17.676
   267.6,0.006958,0.004020,0.084310,0.000326,  17.662
   267.8,0.006947,0.004013,0.084171,0.000362,  17.652
   268.0,0.006932,0.003999,0.084104,0.000362,  17.641
   268.2,0.006905,0.003997,0.084051,0.000339,  17.631
   268.4,0.006894,0.003989,0.083849,0.000362,  17.623
   268.6,0.006879,0.003981,0.083621,0.000362,  17.603
   268.8,0.006867,0.003974,0.083329,0.000339,  17.594
   269.0,0.006848,0.003965,0.083123,0.000362,  17.589
   269.2,0.006843,0.003958,0.082953,0.000362,  17.577
   269.4,0.006821,0.003945,0.082747,0.000339,  17.566
   269.6,0.006804,0.003934,0.082569,0.000362,  17.547
   269.8,0.006783,0.003927,0.082428,0.000362,  17.547
   270.0,0.006761,0.003916,0.082261,0.000339,  17.534
   270.2,0.006747,0.003902,0.082123,0.000362,  17.521
   270.4,0.006726,0.003896,0.081992,0.000362,  17.511
   270.6,0.006705,0.003884,0.081862,0.000362,  17.497
   270.8,0.006691,0.003870,0.081752,0.000339,  17.492
   271.0,0.006670,0.003864,0.081650,0.000339,  17.481
   271.2,0.006648,0.003860,0.081565,0.000375,  17.471
   271.4,0.006640,0.003849,0.081377,0.000352,  17.461
   271.6,0.006622,0.003838,0.081137,0.000388,  17.442
   271.8,0.006601,0.003830,0.080882,0.000375,  17.439
   272.0,0.006590,0.003824,0.080776,0.000352,  17.426
   272.2,0.006572,0.003814,0.080685,0.000388,  17.417
   272.4,0.006554,0.003814,0.080689,0.000375,  17.410
   272.6,0.006536,0.003809,0.080696,0.000352,  17.398
   272.8,0.006525,0.003793,0.080382,0.000388,  17.390
   273.0,0.006504,0.003789,0.079948,0.000375,  17.379
   273.2,0.006489,0.003782,0.079447,0.000352,  17.367
   273.4,0.006474,0.003766,0.079232,0.000388,  17.360
   273.6,0.006452,0.003760,0.079120,0.000388,  17.342
   273.8,0.006444,0.003750,0.079113,0.000352,  17.335
   274.0,0.006424,0.003740,0.079064,0.000388,  17.325
   274.2,0.006402,0.003730,0.079036,0.000388,  17.314
   274.4,0.006387,0.003721,0.079015,0.000352,  17.309
   274.6,0.006365,0.003714,0.078966,0.000352,  17.290
   274.8,0.006346,0.003711,0.078917,0.000352,  17.282
   275.0,0.006335,0.003705,0.078839,0.000317,  17.275
   275.2,0.006328,0.003701,0.078706,0.000317,  17.263
   275.4,0.006306,0.003694,0.078502,0.000352,  17.257
   275.6,0.006298,0.003684,0.078277,0.000317,  17.242
   275.8,0.006287,0.003675,0.078102,0.000317,  17.238
   276.0,0.006265,0.003663,0.077916,0.000352,  17.225
   276.2,0.006257,0.003652,0.077754,0.000317,  17.222
   276.4,0.006246,0.003640,0.077285,0.000317,  17.214
   276.6,0.006234,0.003641,0.076679,0.000352,  17.201
   276.8,0.006219,0.003635,0.075928,0.000317,  17.189
   277.0,0.006211,0.003625,0.075789,0.000317,  17.181
   277.2,0.006199,0.003623,0.075904,0.000352,  17.171
   277.4,0.006190,0.003619,0.076274,0.000317,  17.162
   277.6,0.006171,0.003611,0.076298,0.000317,  17.153
   277.8,0.006172,0.003602,0.076267,0.000352,  17.148
   278.0,0.006154,0.003592,0.076190,0.000330,  17.135
   278.2,0.006142,0.003585,0.076159,0.000330,  17.132
   278.4,0.006134,0.003584,0.076092,0.000366,  17.117
   278.6,0.006122,0.003580,0.076033,0.000343,  17.109
   278.8,0.006103,0.003566,0.075900,0.000343,  17.105
   279.0,0.006095,0.003564,0.075712,0.000366,  17.100
   279.2,0.006086,0.003557,0.075485,0.000366,  17.089
   279.4,0.006068,0.003548,0.075429,0.000366,  17.086
   279.6,0.006063,0.003540,0.075447,0.000366,  17.072
   279.8,0.006054,0.003534,0.075509,0.000366,  17.062
   280.0,0.006035,0.003525,0.075454,0.000366,  17.060
   280.2,0.006024,0.003514,0.075377,0.000401,  17.050
   280.4,0.006012,0.003511,0.075262,0.000401,  17.039
   280.6,0.005996,0.003506,0.075129,0.000366,  17.031
   280.8,0.005991,0.003500,0.074959,0.000401,  17.026
   281.0,0.005973,0.003496,0.074718,0.000401,  17.019
   281.2,0.005961,0.003486,0.074597,0.000366,  17.011
   281.4,0.005949,0.003479,0.074537,0.000401,  17.005
   281.6,0.005933,0.003475,0.074489,0.000401,  16.993
   281.8,0.005928,0.003464,0.074492,0.000366,  16.984
   282.0,0.005910,0.003464,0.074405,0.000415,  16.982
   282.2,0.005892,0.003468,0.074283,0.000415,  16.975
   282.4,0.005890,0.003456,0.074144,0.000379,  16.966
   282.6,0.005878,0.003453,0.074023,0.000428,  16.954
   282.8,0.005859,0.003452,0.073918,0.000415,  16.947
   283.0,0.005857,0.003447,0.073786,0.000379,  16.941
   283.2,0.005851,0.003438,0.073689,0.000428,  16.933
   283.4,0.005835,0.003433,0.073568,0.000415,  16.924
   283.6,0.005833,0.003434,0.073477,0.000379,  16.910
   283.8,0.005821,0.003429,0.073408,0.000428,  16.906
   284.0,0.005809,0.003424,0.073321,0.000415,  16.904
   284.2,0.005804,0.003418,0.073252,0.000379,  16.895
   284.4,0.005789,0.003416,0.073186,0.000428,  16.888
   284.6,0.005773,0.003407,0.073120,0.000415,  16.875
   284.8,0.005768,0.003398,0.073043,0.000379,  16.873
   285.0,0.005753,0.003394,0.072960,0.000428,  16.864
   285.2,0.005744,0.003389,0.072901,0.000428,  16.853
   285.4,0.005736,0.003385,0.072821,0.000392,  16.846
   285.6,0.005731,0.003378,0.072745,0.000428,  16.833
   285.8,0.005715,0.003374,0.072659,0.000428,  16.832
   286.0,0.005709,0.003371,0.072562,0.000392,  16.822
   286.2,0.005697,0.003365,0.072496,0.000406,  16.814
   286.4,0.005688,0.003360,0.072454,0.000406,  16.807
   286.6,0.005685,0.003363,0.072378,0.000370,  16.801
   286.8,0.005673,0.003355,0.072302,0.000406,  16.798
   287.0,0.005667,0.003354,0.072218,0.000415,  16.787
   287.2,0.005652,0.003350,0.072132,0.000379,  16.780
   287.4,0.005647,0.003340,0.071962,0.000428,  16.772
   287.6,0.005632,0.003336,0.071721,0.000415,  16.763
   287.8,0.005616,0.003327,0.071458,0.000415,  16.760
   288.0,0.005611,0.003318,0.071382,0.000379,  16.754
   288.2,0.005605,0.003313,0.071368,0.000379,  16.743
   288.4,0.005589,0.003308,0.071430,0.000415,  16.735
   288.6,0.005584,0.003301,0.071364,0.000379,  16.725
   288.8,0.005570,0.003297,0.071285,0.000415,  16.721
   289.0,0.005554,0.003292,0.071171,0.000428,  16.717
   289.2,0.005548,0.003286,0.071123,0.000392,  16.707
   289.4,0.005529,0.003280,0.071098,0.000406,  16.698
   289.6,0.005513,0.003273,0.071060,0.000406,  16.691
   289.8,0.005511,0.003264,0.071063,0.000370,  16.689
   290.0,0.005506,0.003261,0.070960,0.000406,  16.683
   290.2,0.005488,0.003258,0.070811,0.000428,  16.677
   290.4,0.005483,0.003253,0.070643,0.000392,  16.674
   290.6,0.005475,0.003244,0.070556,0.000428,  16.660
   290.8,0.005459,0.003232,0.070480,0.000428,  16.655
   291.0,0.005454,0.003222,0.070436,0.000392,  16.650
   291.2,0.005442,0.003223,0.070377,0.000428,  16.645
   291.4,0.005429,0.003221,0.070311,0.000428,  16.639
   291.6,0.005428,0.003219,0.070287,0.000392,  16.628
   291.8,0.005416,0.003212,0.070184,0.000428,  16.623
   292.0,0.005400,0.003204,0.070053,0.000428,  16.614
   292.2,0.005395,0.003197,0.069902,0.000392,  16.608
   292.4,0.005380,0.003195,0.069823,0.000428,  16.604
   292.6,0.005364,0.003185,0.069719,0.000428,  16.600
   292.8,0.005362,0.003186,0.069647,0.000392,  16.596
   293.0,0.005351,0.003182,0.069383,0.000428,  16.589
   293.2,0.005339,0.003175,0.069012,0.000428,  16.586
   293.4,0.005330,0.003163,0.068570,0.000392,  16.579
   293.6,0.005325,0.003158,0.068433,0.000428,  16.575
   293.8,0.005316,0.003156,0.068374,0.000428,  16.569
   294.0,0.005300,0.003146,0.068446,0.000392,  16.566
   294.2,0.005301,0.003139,0.068415,0.000428,  16.557
   294.4,0.005288,0.003137,0.068394,0.000428,  16.547
   294.6,0.005282,0.003136,0.068387,0.000392,  16.544
   294.8,0.005271,0.003124,0.068349,0.000428,  16.538
   295.0,0.005262,0.003123,0.068308,0.000428,  16.531
   295.2,0.005259,0.003123,0.068277,0.000392,  16.526
   295.4,0.005247,0.003111,0.068218,0.000441,  16.521
   295.6,0.005245,0.003110,0.068105,0.000441,  16.519
   295.8,0.005229,0.003103,0.067989,0.000406,  16.513
   296.0,0.005220,0.003098,0.067893,0.000441,  16.508
   296.2,0.005218,0.003095,0.067773,0.000428,  16.502
   296.4,0.005212,0.003089,0.067667,0.000428,  16.493
   296.6,0.005197,0.003089,0.067619,0.000406,  16.488
   296.8,0.005195,0.003082,0.067605,0.000392,  16.482
   297.0,0.005189,0.003079,0.067601,0.000428,  16.476
   297.2,0.005176,0.003069,0.067563,0.000392,  16.473
   297.4,0.005171,0.003064,0.067549,0.000428,  16.466
   297.6,0.005155,0.003067,0.067532,0.000428,  16.456
   297.8,0.005149,0.003058,0.067429,0.000392,  16.456
   298.0,0.005137,0.003052,0.067299,0.000428,  16.446
   298.2,0.005126,0.003054,0.067149,0.000428,  16.447
   298.4,0.005125,0.003049,0.067037,0.000392,  16.440
   298.6,0.005121,0.003043,0.066924,0.000428,  16.433
   298.8,0.005112,0.003043,0.066845,0.000428,  16.425
   299.0,0.005099,0.003041,0.066750,0.000392,  16.425
   299.2,0.005089,0.003031,0.066719,0.000428,  16.417
   299.4,0.005086,0.003029,0.066705,0.000428,  16.412
   299.6,0.005077,0.003025,0.066708,0.000392,  16.403
   299.8,0.005068,0.003020,0.066639,0.000428,  16.400
   300.0,0.005063,0.003018,0.066544,0.000428,  16.397
   300.2,0.005057,0.003014,0.066404,0.000392,  16.388
   300.4,0.005045,0.003007,0.066230,0.000428,  16.389
   300.6,0.005036,0.003006,0.066036,0.000428,  16.383
   300.8,0.005030,0.002999,0.065788,0.000392,  16.371
   301.0,0.005018,0.002991,0.065703,0.000428,  16.367
   301.2,0.005009,0.002989,0.065662,0.000428,  16.362
   301.4,0.005006,0.002983,0.065682,0.000392,  16.357
   301.6,0.004997,0.002979,0.065678,0.000392,  16.346
   301.8,0.004989,0.002977,0.065674,0.000392,  16.348
   302.0,0.004983,0.002973,0.065670,0.000356,  16.341
   302.2,0.004971,0.002969,0.065073,0.000392,  16.334
   302.4,0.004965,0.002967,0.064175,0.000415,  16.330
   302.6,0.004952,0.002964,0.062980,0.000379,  16.324
   302.8,0.004943,0.002960,0.062815,0.000428,  16.320
   303.0,0.004937,0.002955,0.063000,0.000415,  16.315
   303.2,0.004931,0.002951,0.063546,0.000379,  16.308
   303.4,0.004921,0.002949,0.063664,0.000428,  16.309
   303.6,0.004925,0.002941,0.063735,0.000428,  16.306
   303.8,0.004913,0.002941,0.063772,0.000392,  16.302
   304.0,0.004907,0.002941,0.063900,0.000406,  16.293
   304.2,0.004908,0.002935,0.064035,0.000406,  16.290
   304.4,0.004905,0.002933,0.064173,0.000370,  16.284
   304.6,0.004892,0.002929,0.064213,0.000383,  16.280
   304.8,0.004890,0.002926,0.064240,0.000406,  16.278
   305.0,0.004880,0.002922,0.064189,0.000441,  16.271
   305.2,0.004867,0.002913,0.064202,0.000419,  16.266
   305.4,0.004861,0.002911,0.064215,0.000441,  16.258
   305.6,0.004848,0.002913,0.064235,0.000441,  16.250
   305.8,0.004849,0.002909,0.064248,0.000406,  16.250
   306.0,0.004848,0.002905,0.064244,0.000441,  16.249
   306.2,0.004839,0.002904,0.064247,0.000441,  16.237
   306.4,0.004830,0.002899,0.064115,0.000406,  16.234
   306.6,0.004825,0.002902,0.063905,0.000455,  16.234
   306.8,0.004819,0.002898,0.063638,0.000441,  16.226
   307.0,0.004809,0.002890,0.063534,0.000406,  16.220
   307.2,0.004810,0.002888,0.063510,0.000455,  16.214
   307.4,0.004807,0.002884,0.063503,0.000441,  16.213
   307.6,0.004797,0.002881,0.063566,0.000406,  16.205
   307.8,0.004798,0.002883,0.063613,0.000455,  16.198
   308.0,0.004795,0.002885,0.063653,0.000441,  16.196
   308.2,0.004788,0.002883,0.063727,0.000406,  16.193
   308.4,0.004789,0.002878,0.063666,0.000419,  16.181
   308.6,0.004786,0.002879,0.063551,0.000406,  16.182
   308.8,0.004777,0.002879,0.063349,0.000370,  16.177
   309.0,0.004778,0.002879,0.063200,0.000383,  16.174
   309.2,0.004775,0.002877,0.063076,0.000406,  16.171
   309.4,0.004765,0.002875,0.062917,0.000383,  16.165
   309.6,0.004766,0.002870,0.062860,0.000419,  16.158
   309.8,0.004763,0.002871,0.062843,0.000455,  16.158
   310.0,0.004750,0.002874,0.062863,0.000468,  16.151
   310.2,0.004754,0.002871,0.062899,0.000455,  16.147
   310.4,0.004751,0.002876,0.062912,0.000490,  16.141
   310.6,0.004738,0.002873,0.062942,0.000468,  16.131
   310.8,0.004736,0.002868,0.062969,0.000455,  16.129
   311.0,0.004733,0.002869,0.062938,0.000455,  16.126
   311.2,0.004720,0.002862,0.062914,0.000432,  16.124
   311.4,0.004718,0.002852,0.062856,0.000432,  16.114
   311.6,0.004713,0.002853,0.062755,0.000432,  16.107
   311.8,0.004710,0.002844,0.062640,0.000410,  16.103
   312.0,0.004697,0.002834,0.062580,0.000410,  16.104
   312.2,0.004701,0.002834,0.062495,0.000432,  16.096
   312.4,0.004688,0.002834,0.062424,0.000410,  16.093
   312.6,0.004682,0.002827,0.062410,0.000410,  16.084
   312.8,0.004686,0.002822,0.062440,0.000432,  16.082
   313.0,0.004680,0.002820,0.062497,0.000410,  16.071
   313.2,0.004670,0.002815,0.062230,0.000410,  16.067
   313.4,0.004671,0.002818,0.061853,0.000432,  16.064
   313.6,0.004668,0.002813,0.061336,0.000432,  16.057
   313.8,0.004662,0.002804,0.061259,0.000432,  16.053
   314.0,0.004660,0.002807,0.061339,0.000432,  16.051
   314.2,0.004657,0.002797,0.061541,0.000432,  16.048
   314.4,0.004652,0.002792,0.061587,0.000432,  16.039
   314.6,0.004646,0.002792,0.061624,0.000432,  16.036
   314.8,0.004643,0.002795,0.061661,0.000432,  16.032
   315.0,0.004633,0.002787,0.061680,0.000410,  16.026
   315.2,0.004627,0.002783,0.061690,0.000410,  16.023
   315.4,0.004624,0.002783,0.061700,0.000432,  16.019
   315.6,0.004611,0.002776,0.061676,0.000410,  16.011
   315.8,0.004612,0.002777,0.061689,0.000410,  16.008
   316.0,0.004603,0.002779,0.061726,0.000432,  16.006
   316.2,0.004601,0.002772,0.061763,0.000410,  15.999
   316.4,0.004600,0.002770,0.061702,0.000410,  15.994
   316.6,0.004595,0.002769,0.061598,0.000445,  15.988
   316.8,0.004585,0.002772,0.061433,0.000423,  15.981
   317.0,0.004585,0.002767,0.061147,0.000410,  15.977
   317.2,0.004585,0.002764,0.060782,0.000445,  15.977
   317.4,0.004575,0.002764,0.060329,0.000423,  15.973
   317.6,0.004566,0.002767,0.060289,0.000410,  15.966
   317.8,0.004563,0.002764,0.060402,0.000445,  15.958
   318.0,0.004563,0.002764,0.060650,0.000423,  15.955
   318.2,0.004557,0.002759,0.060703,0.000410,  15.952
   318.4,0.004557,0.002762,0.060706,0.000445,  15.946
   318.6,0.004547,0.002763,0.060696,0.000423,  15.942
   318.8,0.004544,0.002758,0.060716,0.000410,  15.939
   319.0,0.004544,0.002760,0.060736,0.000445,  15.936
   319.2,0.004541,0.002752,0.060755,0.000423,  15.933
   319.4,0.004539,0.002745,0.060738,0.000410,  15.925
   319.6,0.004536,0.002748,0.060705,0.000445,  15.917
   319.8,0.004533,0.002743,0.060611,0.000423,  15.917
   320.0,0.004524,0.002735,0.060540,0.000432,  15.914
   320.2,0.004522,0.002733,0.060446,0.000455,  15.912
   320.4,0.004519,0.002732,0.060326,0.000432,  15.904
   320.6,0.004509,0.002727,0.060305,0.000455,  15.899
   320.8,0.004509,0.002725,0.060351,0.000455,  15.899
   321.0,0.004499,0.002726,0.060441,0.000432,  15.895
   321.2,0.004496,0.002726,0.060357,0.000455,  15.891
   321.4,0.004497,0.002725,0.060250,0.000455,  15.887
   321.6,0.004494,0.002728,0.060066,0.000455,  15.884
   321.8,0.004481,0.002726,0.060052,0.000432,  15.879
   322.0,0.004482,0.002722,0.060115,0.000432,  15.875
   322.2,0.004479,0.002719,0.060215,0.000455,  15.872
   322.4,0.004469,0.002714,0.060228,0.000432,  15.871
   322.6,0.004473,0.002707,0.060221,0.000455,  15.869
   322.8,0.004470,0.002705,0.060187,0.000455,  15.862
   323.0,0.004460,0.002694,0.060153,0.000432,  15.859
   323.2,0.004464,0.002694,0.060093,0.000455,  15.855
   323.4,0.004457,0.002696,0.059996,0.000455,  15.849
   323.6,0.004454,0.002689,0.059963,0.000432,  15.847
   323.8,0.004449,0.002681,0.059939,0.000468,  15.845
   324.0,0.004439,0.002687,0.059905,0.000468,  15.839
   324.2,0.004440,0.002682,0.059898,0.000445,  15.834
   324.4,0.004431,0.002675,0.059684,0.000481,  15.833
   324.6,0.004421,0.002676,0.059396,0.000468,  15.831
   324.8,0.004425,0.002679,0.059022,0.000445,  15.825
   325.0,0.004419,0.002674,0.058722,0.000481,  15.823
   325.2,0.004409,0.002672,0.058442,0.000468,  15.816
   325.4,0.004416,0.002675,0.058123,0.000445,  15.817
   325.6,0.004410,0.002672,0.058142,0.000481,  15.810
   325.8,0.004400,0.002673,0.058318,0.000468,  15.810
   326.0,0.004404,0.002673,0.058658,0.000445,  15.809
   326.2,0.004398,0.002669,0.058790,0.000481,  15.809
   326.4,0.004388,0.002675,0.058887,0.000468,  15.806
   326.6,0.004392,0.002669,0.058957,0.000445,  15.799
   326.8,0.004386,0.002663,0.058993,0.000481,  15.797
   327.0,0.004377,0.002666,0.059010,0.000468,  15.791
   327.2,0.004384,0.002675,0.058976,0.000445,  15.793
   327.4,0.004386,0.002672,0.059023,0.000481,  15.790
   327.6,0.004380,0.002670,0.059086,0.000468,  15.787
   327.8,0.004384,0.002673,0.059175,0.000445,  15.788
   328.0,0.004381,0.002666,0.059161,0.000481,  15.785
   328.2,0.004381,0.002662,0.059144,0.000468,  15.780
   328.4,0.004385,0.002658,0.059074,0.000445,  15.779
   328.6,0.004386,0.002653,0.058991,0.000481,  15.777
   328.8,0.004386,0.002655,0.058904,0.000468,  15.772
   329.0,0.004386,0.002662,0.058797,0.000445,  15.769
   329.2,0.004383,0.002652,0.058720,0.000481,  15.769
   329.4,0.004383,0.002656,0.058644,0.000468,  15.767
   329.6,0.004380,0.002657,0.058597,0.000445,  15.763
   329.8,0.004377,0.002649,0.058591,0.000481,  15.764
   330.0,0.004374,0.002650,0.058600,0.000468,  15.764
   330.2,0.004374,0.002648,0.058653,0.000445,  15.761
   330.4,0.004368,0.002646,0.058690,0.000481,  15.762
   330.6,0.004362,0.002644,0.058719,0.000468,  15.756
   330.8,0.004362,0.002642,0.058756,0.000445,  15.756
   331.0,0.004356,0.002642,0.058758,0.000481,  15.754
   331.2,0.004350,0.002639,0.058768,0.000468,  15.754
   331.4,0.004347,0.002638,0.058751,0.000468,  15.751
   331.6,0.004347,0.002637,0.058684,0.000432,  15.749
   331.8,0.004344,0.002637,0.058598,0.000445,  15.746
   332.0,0.004344,0.002632,0.058458,0.000481,  15.748
   332.2,0.004341,0.002632,0.058407,0.000445,  15.749
   332.4,0.004338,0.002627,0.058407,0.000481,  15.744
   332.6,0.004338,0.002628,0.058417,0.000481,  15.740
   332.8,0.004332,0.002620,0.058410,0.000459,  15.744
   333.0,0.004324,0.002622,0.058403,0.000481,  15.741
   333.2,0.004321,0.002625,0.058403,0.000481,  15.736
   333.4,0.004314,0.002625,0.058403,0.000459,  15.742
   333.6,0.004314,0.002627,0.058353,0.000481,  15.733
   333.8,0.004311,0.002631,0.058283,0.000481,  15.732
   334.0,0.004301,0.002626,0.058204,0.000459,  15.726
   334.2,0.004308,0.002627,0.058197,0.000481,  15.725
   334.4,0.004308,0.002616,0.058216,0.000468,  15.727
   334.6,0.004295,0.002606,0.058245,0.000445,  15.728
   334.8,0.004296,0.002609,0.058245,0.000481,  15.722
   335.0,0.004293,0.002612,0.058212,0.000468,  15.725
   335.2,0.004283,0.002607,0.058178,0.000445,  15.720
   335.4,0.004284,0.002606,0.058162,0.000481,  15.719
   335.6,0.004284,0.002606,0.058111,0.000468,  15.714
   335.8,0.004274,0.002608,0.058068,0.000445,  15.713
   336.0,0.004278,0.002608,0.058054,0.000481,  15.710
   336.2,0.004278,0.002611,0.058030,0.000468,  15.710
   336.4,0.004268,0.002609,0.058040,0.000445,  15.713
   336.6,0.004269,0.002602,0.058033,0.000468,  15.706
   336.8,0.004262,0.002599,0.058000,0.000455,  15.701
   337.0,0.004262,0.002600,0.057963,0.000432,  15.701
   337.2,0.004259,0.002593,0.057920,0.000455,  15.704
   337.4,0.004250,0.002593,0.057860,0.000455,  15.700
   337.6,0.004254,0.002592,0.057757,0.000432,  15.699
   337.8,0.004245,0.002589,0.057750,0.000455,  15.695
   338.0,0.004242,0.002590,0.057786,0.000455,  15.697
   338.2,0.004239,0.002596,0.057832,0.000432,  15.692
   338.4,0.004242,0.002591,0.057782,0.000432,  15.688
   338.6,0.004242,0.002590,0.057712,0.000432,  15.690
   338.8,0.004235,0.002585,0.057580,0.000410,  15.686
   339.0,0.004239,0.002585,0.057477,0.000410,  15.684
   339.2,0.004233,0.002585,0.057371,0.000432,  15.681
   339.4,0.004223,0.002588,0.057248,0.000410,  15.684
   339.6,0.004230,0.002585,0.057178,0.000445,  15.676
   339.8,0.004227,0.002587,0.057109,0.000468,  15.679
   340.0,0.004224,0.002589,0.057056,0.000504,  15.676
   340.2,0.004224,0.002592,0.057049,0.000432,  15.675
   340.4,0.004231,0.002589,0.057092,0.000468,  15.677
   340.6,0.004234,0.002592,0.057145,0.000468,  15.671
   340.8,0.004227,0.002594,0.057174,0.000432,  15.672
   341.0,0.004231,0.002589,0.057244,0.000468,  15.667
   341.2,0.004234,0.002597,0.057314,0.000468,  15.664
   341.4,0.004224,0.002596,0.057244,0.000445,  15.663
   341.6,0.004228,0.002593,0.057117,0.000481,  15.664
   341.8,0.004228,0.002590,0.056892,0.000468,  15.661
   342.0,0.004218,0.002585,0.056633,0.000445,  15.663
   342.2,0.004219,0.002593,0.056520,0.000481,  15.660
   342.4,0.004219,0.002592,0.056375,0.000481,  15.655
   342.6,0.004212,0.002586,0.056245,0.000459,  15.654
   342.8,0.004213,0.002586,0.056272,0.000481,  15.651
   343.0,0.004213,0.002584,0.056401,0.000481,  15.651
   343.2,0.004209,0.002581,0.056597,0.000459,  15.651
   343.4,0.004213,0.002578,0.056683,0.000481,  15.650
   343.6,0.004210,0.002576,0.056726,0.000481,  15.650
   343.8,0.004203,0.002574,0.056760,0.000459,  15.647
   344.0,0.004207,0.002567,0.056561,0.000494,  15.646
   344.2,0.004204,0.002572,0.056216,0.000494,  15.643
   344.4,0.004195,0.002569,0.055720,0.000472,  15.640
   344.6,0.004199,0.002564,0.055677,0.000472,  15.644
   344.8,0.004201,0.002562,0.055796,0.000459,  15.641
   345.0,0.004192,0.002567,0.056061,0.000436,  15.641
   345.2,0.004196,0.002560,0.056193,0.000436,  15.640
   345.4,0.004196,0.002563,0.056358,0.000459,  15.635
   345.6,0.004186,0.002571,0.056523,0.000436,  15.633
   345.8,0.004190,0.002563,0.056629,0.000436,  15.635
   346.0,0.004187,0.002563,0.056708,0.000459,  15.635
   346.2,0.004184,0.002571,0.056744,0.000436,  15.629
   346.4,0.004185,0.002570,0.056572,0.000472,  15.625
   346.6,0.004185,0.002567,0.056260,0.000494,  15.630
   346.8,0.004175,0.002572,0.055821,0.000472,  15.629
   347.0,0.004175,0.002559,0.055840,0.000508,  15.625
   347.2,0.004172,0.002538,0.056048,0.000494,  15.622
   347.4,0.004175,0.002517,0.056421,0.000472,  15.621
   347.6,0.004165,0.002512,0.056527,0.000508,  15.620
   347.8,0.004175,0.002516,0.056580,0.000494,  15.619
   348.0,0.004171,0.002538,0.056620,0.000472,  15.617
   348.2,0.004168,0.002541,0.056647,0.000508,  15.615
   348.4,0.004172,0.002543,0.056630,0.000494,  15.609
   348.6,0.004172,0.002550,0.056601,0.000472,  15.608
   348.8,0.004172,0.002555,0.056634,0.000508,  15.613
   349.0,0.004180,0.002553,0.056670,0.000494,  15.607
   349.2,0.004180,0.002554,0.056720,0.000494,  15.607
   349.4,0.004173,0.002557,0.056737,0.000459,  15.605
   349.6,0.004177,0.002557,0.056747,0.000459,  15.602
   349.8,0.004174,0.002561,0.056737,0.000494,  15.600
   350.0,0.004164,0.002558,0.056757,0.000459,  15.599
   350.2,0.004161,0.002553,0.056786,0.000494,  15.597
   350.4,0.004158,0.002558,0.056839,0.000494,  15.592
   350.6,0.004152,0.002556,0.056839,0.000472,  15.595
   350.8,0.004149,0.002556,0.056805,0.000494,  15.589
   351.0,0.004149,0.002556,0.056745,0.000481,  15.590
   351.2,0.004146,0.002549,0.056683,0.000459,  15.588
   351.4,0.004141,0.002550,0.056719,0.000494,  15.584
   351.6,0.004141,0.002544,0.056788,0.000494,  15.584
   351.8,0.004141,0.002542,0.056851,0.000472,  15.583
   352.0,0.004138,0.002545,0.056688,0.000508,  15.581
   352.2,0.004135,0.002544,0.056403,0.000494,  15.578
   352.4,0.004128,0.002539,0.056023,0.000472,  15.576
   352.6,0.004128,0.002542,0.055980,0.000508,  15.574
   352.8,0.004125,0.002535,0.056049,0.000494,  15.573
   353.0,0.004115,0.002533,0.056221,0.000472,  15.570
   353.2,0.004119,0.002530,0.056310,0.000508,  15.568
   353.4,0.004119,0.002533,0.056416,0.000494,  15.569
   353.6,0.004112,0.002535,0.056538,0.000472,  15.566
   353.8,0.004113,0.002533,0.056531,0.000472,  15.564
   354.0,0.004113,0.002534,0.056471,0.000459,  15.567
   354.2,0.004106,0.002529,0.056356,0.000436,  15.562
   354.4,0.004107,0.002529,0.056356,0.000436,  15.559
   354.6,0.004107,0.002525,0.056366,0.000459,  15.554
   354.8,0.004100,0.002522,0.056409,0.000436,  15.555
   355.0,0.004104,0.002522,0.056438,0.000436,  15.554
   355.2,0.004101,0.002522,0.056491,0.000459,  15.552
   355.4,0.004091,0.002518,0.056520,0.000436,  15.548
   355.6,0.004092,0.002514,0.056549,0.000459,  15.549
   355.8,0.004089,0.002514,0.056585,0.000481,  15.548
   356.0,0.004086,0.002518,0.056595,0.000459,  15.544
   356.2,0.004079,0.002515,0.056571,0.000494,  15.545
   356.4,0.004083,0.002512,0.056554,0.000494,  15.542
   356.6,0.004076,0.002512,0.056492,0.000472,  15.538
   356.8,0.004071,0.002511,0.056518,0.000472,  15.535
   357.0,0.004072,0.002513,0.056554,0.000459,  15.535
   357.2,0.004072,0.002508,0.056624,0.000423,  15.533
   357.4,0.004065,0.002506,0.056617,0.000459,  15.528
   357.6,0.004072,0.002506,0.056590,0.000423,  15.526
   357.8,0.004075,0.002506,0.056524,0.000459,  15.524
   358.0,0.004062,0.002503,0.056500,0.000459,  15.525
   358.2,0.004063,0.002498,0.056474,0.000445,  15.522
   358.4,0.004063,0.002501,0.056440,0.000445,  15.517
   358.6,0.004056,0.002496,0.056407,0.000423,  15.518
   358.8,0.004060,0.002495,0.056380,0.000410,  15.516
   359.0,0.004060,0.002495,0.056323,0.000445,  15.517
   359.2,0.004053,0.002490,0.056297,0.000423,  15.513
   359.4,0.004054,0.002486,0.056280,0.000423,  15.512
   359.6,0.004051,0.002490,0.056254,0.000459,  15.507
   359.8,0.004044,0.002491,0.056204,0.000436,  15.504
   360.0,0.004048,0.002488,0.056170,0.000436,  15.504
   360.2,0.004038,0.002491,0.056137,0.000459,  15.504
   360.4,0.004035,0.002488,0.056094,0.000436,  15.499
   360.6,0.004035,0.002483,0.055905,0.000472,  15.498
   360.8,0.004028,0.002482,0.055614,0.000494,  15.494
   361.0,0.004029,0.002479,0.055234,0.000472,  15.494
   361.2,0.004023,0.002472,0.055036,0.000508,  15.491
   361.4,0.004023,0.002477,0.054858,0.000494,  15.494
   361.6,0.004020,0.002475,0.054696,0.000472,  15.490
   361.8,0.004024,0.002470,0.054393,0.000508,  15.490
   362.0,0.004014,0.002472,0.054022,0.000494,  15.487
   362.2,0.004014,0.002480,0.053582,0.000472,  15.481
   362.4,0.004012,0.002478,0.053670,0.000508,  15.480
   362.6,0.004005,0.002476,0.054024,0.000494,  15.474
   362.8,0.004006,0.002479,0.054603,0.000472,  15.478
   363.0,0.004003,0.002479,0.054813,0.000472,  15.479
   363.2,0.004003,0.002476,0.055001,0.000459,  15.473
   363.4,0.004003,0.002479,0.055097,0.000436,  15.474
   363.6,0.004007,0.002481,0.055185,0.000436,  15.471
   363.8,0.004007,0.002475,0.055254,0.000459,  15.472
   364.0,0.004003,0.002477,0.055288,0.000436,  15.465
   364.2,0.004007,0.002474,0.055324,0.000459,  15.470
   364.4,0.004007,0.002474,0.055326,0.000481,  15.463
   364.6,0.004004,0.002474,0.055343,0.000459,  15.464
   364.8,0.004000,0.002472,0.055369,0.000481,  15.463
   365.0,0.004001,0.002469,0.055362,0.000481,  15.460
   365.2,0.004001,0.002466,0.055346,0.000459,  15.459
   365.4,0.003995,0.002460,0.055141,0.000481,  15.456
   365.6,0.003996,0.002462,0.054814,0.000481,  15.451
   365.8,0.003996,0.002465,0.054376,0.000459,  15.451
   366.0,0.003993,0.002462,0.054264,0.000481,  15.452
   366.2,0.003996,0.002456,0.054254,0.000481,  15.450
   366.4,0.003999,0.002459,0.054330,0.000481,  15.448
   366.6,0.003993,0.002455,0.054442,0.000445,  15.441
   366.8,0.003990,0.002458,0.054616,0.000459,  15.444
   367.0,0.003990,0.002456,0.054836,0.000481,  15.441
   367.2,0.003987,0.002454,0.054898,0.000445,  15.440
   367.4,0.003984,0.002452,0.054898,0.000459,  15.437
   367.6,0.003984,0.002455,0.054846,0.000459,  15.434
   367.8,0.003984,0.002455,0.054872,0.000436,  15.427
   368.0,0.003981,0.002452,0.054891,0.000436,  15.430
   368.2,0.003981,0.002455,0.054924,0.000459,  15.428
   368.4,0.003981,0.002457,0.054967,0.000436,  15.430
   368.6,0.003978,0.002454,0.054967,0.000436,  15.425
   368.8,0.003975,0.002456,0.054934,0.000459,  15.425
   369.0,0.003975,0.002455,0.054874,0.000436,  15.422
   369.2,0.003975,0.002445,0.054874,0.000436,  15.419
   369.4,0.003972,0.002450,0.054851,0.000459,  15.418
   369.6,0.003972,0.002447,0.054841,0.000436,  15.422
   369.8,0.003975,0.002450,0.054825,0.000436,  15.416
   370.0,0.003975,0.002452,0.054801,0.000459,  15.417
   370.2,0.003968,0.002449,0.054775,0.000436,  15.412
   370.4,0.003965,0.002449,0.054758,0.000436,  15.414
   370.6,0.003968,0.002446,0.054718,0.000459,  15.411
   370.8,0.003958,0.002443,0.054692,0.000436,  15.411
   371.0,0.003959,0.002445,0.054161,0.000472,  15.411
   371.2,0.003962,0.002445,0.053374,0.000494,  15.409
   371.4,0.003955,0.002443,0.052325,0.000472,  15.409
   371.6,0.003959,0.002443,0.052325,0.000508,  15.407
   371.8,0.003962,0.002443,0.052685,0.000494,  15.406
   372.0,0.003959,0.002446,0.053453,0.000472,  15.402
   372.2,0.003963,0.002438,0.053197,0.000508,  15.407
   372.4,0.003963,0.002444,0.052600,0.000494,  15.405
   372.6,0.003963,0.002447,0.051703,0.000472,  15.401
   372.8,0.003960,0.002442,0.051772,0.000494,  15.399
   373.0,0.003960,0.002445,0.052155,0.000481,  15.401
   373.2,0.003958,0.002447,0.052862,0.000459,  15.397
   373.4,0.003960,0.002444,0.053223,0.000481,  15.398
   373.6,0.003958,0.002444,0.053558,0.000481,  15.397
   373.8,0.003958,0.002442,0.053869,0.000459,  15.395
   374.0,0.003955,0.002440,0.054033,0.000481,  15.395
   374.2,0.003955,0.002438,0.054126,0.000481,  15.393
   374.4,0.003955,0.002439,0.054133,0.000459,  15.395
   374.6,0.003948,0.002436,0.054238,0.000481,  15.392
   374.8,0.003945,0.002431,0.054333,0.000481,  15.391
   375.0,0.003945,0.002434,0.054445,0.000481,  15.391
   375.2,0.003938,0.002434,0.054462,0.000445,  15.393
   375.4,0.003945,0.002434,0.054392,0.000459,  15.393
   375.6,0.003945,0.002437,0.054271,0.000481,  15.387
   375.8,0.003938,0.002434,0.054271,0.000445,  15.389
   376.0,0.003945,0.002433,0.054307,0.000481,  15.388
   376.2,0.003942,0.002435,0.054376,0.000481,  15.386
   376.4,0.003942,0.002432,0.054385,0.000459,  15.387
   376.6,0.003949,0.002434,0.054369,0.000481,  15.385
   376.8,0.003946,0.002438,0.054352,0.000481,  15.384
   377.0,0.003946,0.002437,0.054300,0.000459,  15.382
   377.2,0.003946,0.002437,0.054309,0.000481,  15.386
   377.4,0.003949,0.002435,0.054319,0.000481,  15.385
   377.6,0.003946,0.002431,0.054362,0.000459,  15.379
   377.8,0.003943,0.002434,0.054329,0.000481,  15.381
   378.0,0.003946,0.002433,0.054286,0.000481,  15.377
   378.2,0.003943,0.002433,0.054224,0.000459,  15.376
   378.4,0.003940,0.002428,0.054224,0.000481,  15.375
   378.6,0.003943,0.002430,0.054217,0.000481,  15.372
   378.8,0.003943,0.002430,0.054217,0.000459,  15.371
   379.0,0.003940,0.002432,0.054174,0.000481,  15.371
   379.2,0.003943,0.002427,0.054095,0.000481,  15.368
   379.4,0.003940,0.002430,0.053967,0.000459,  15.365
   379.6,0.003937,0.002433,0.053888,0.000481,  15.369
   379.8,0.003937,0.002434,0.053767,0.000481,  15.363
   380.0,0.003934,0.002431,0.053629,0.000459,  15.363
   380.2,0.003931,0.002429,0.053356,0.000481,  15.360
   380.4,0.003931,0.002431,0.053015,0.000481,  15.362
   380.6,0.003931,0.002428,0.052565,0.000494,  15.358
   380.8,0.003931,0.002422,0.052626,0.000481,  15.360
   381.0,0.003931,0.002424,0.052875,0.000504,  15.361
   381.2,0.003931,0.002418,0.053331,0.000517,  15.359
   381.4,0.003928,0.002413,0.053495,0.000481,  15.359
   381.6,0.003925,0.002416,0.053616,0.000504,  15.350
   381.8,0.003925,0.002417,0.053675,0.000517,  15.353
   382.0,0.003929,0.002414,0.053744,0.000481,  15.352
   382.2,0.003929,0.002411,0.053780,0.000504,  15.354
   382.4,0.003929,0.002411,0.053797,0.000517,  15.350
   382.6,0.003926,0.002411,0.053599,0.000481,  15.350
   382.8,0.003933,0.002411,0.053248,0.000504,  15.351
   383.0,0.003929,0.002417,0.052759,0.000517,  15.349
   383.2,0.003929,0.002416,0.052779,0.000481,  15.351
   383.4,0.003926,0.002415,0.052982,0.000517,  15.350
   383.6,0.003929,0.002424,0.053350,0.000530,  15.350
   383.8,0.003922,0.002424,0.053488,0.000481,  15.343
   384.0,0.003922,0.002422,0.053573,0.000517,  15.345
   384.2,0.003925,0.002424,0.053633,0.000517,  15.342
   384.4,0.003928,0.002422,0.053685,0.000481,  15.343
   384.6,0.003931,0.002419,0.053718,0.000530,  15.339
   384.8,0.003934,0.002424,0.053718,0.000517,  15.343
   385.0,0.003930,0.002424,0.053728,0.000481,  15.339
   385.2,0.003927,0.002425,0.053744,0.000517,  15.336
   385.4,0.003927,0.002428,0.053728,0.000517,  15.338
   385.6,0.003924,0.002426,0.053770,0.000530,  15.337
   385.8,0.003925,0.002425,0.053823,0.000481,  15.337
   386.0,0.003922,0.002417,0.053892,0.000517,  15.334
   386.2,0.003915,0.002413,0.053954,0.000494,  15.334
   386.4,0.003915,0.002414,0.053963,0.000481,  15.337
   386.6,0.003912,0.002416,0.053937,0.000481,  15.332
   386.8,0.003909,0.002413,0.053887,0.000459,  15.333
   387.0,0.003913,0.002410,0.053845,0.000481,  15.333
   387.2,0.003916,0.002413,0.053792,0.000481,  15.330
   387.4,0.003913,0.002415,0.053723,0.000459,  15.330
   387.6,0.003910,0.002414,0.053714,0.000481,  15.327
   387.8,0.003913,0.002411,0.053714,0.000481,  15.328
   388.0,0.003910,0.002411,0.053697,0.000459,  15.327
   388.2,0.003910,0.002410,0.053690,0.000494,  15.328
   388.4,0.003913,0.002415,0.053707,0.000508,  15.327
   388.6,0.003916,0.002419,0.053707,0.000472,  15.327
   388.8,0.003919,0.002419,0.053742,0.000508,  15.328
   389.0,0.003925,0.002426,0.053802,0.000508,  15.327
   389.2,0.003925,0.002428,0.053887,0.000472,  15.327
   389.4,0.003925,0.002425,0.053923,0.000508,  15.327
   389.6,0.003931,0.002431,0.053956,0.000508,  15.321
   389.8,0.003937,0.002433,0.053980,0.000472,  15.324
   390.0,0.003943,0.002437,0.054049,0.000508,  15.324
   390.2,0.003949,0.002435,0.054135,0.000508,  15.323
   390.4,0.003952,0.002449,0.054227,0.000472,  15.322
   390.6,0.003955,0.002452,0.054261,0.000508,  15.324
   390.8,0.003958,0.002455,0.054261,0.000508,  15.324
   391.0,0.003963,0.002458,0.054248,0.000472,  15.323
   391.2,0.003954,0.002465,0.054291,0.000508,  15.325
   391.4,0.003954,0.002468,0.054367,0.000508,  15.328
   391.6,0.003950,0.002470,0.054477,0.000472,  15.323
   391.8,0.003952,0.002477,0.054477,0.000508,  15.319
   392.0,0.003962,0.002478,0.054467,0.000508,  15.319
   392.2,0.003965,0.002477,0.054421,0.000508,  15.321
   392.4,0.003958,0.002476,0.054402,0.000485,  15.320
   392.6,0.003965,0.002472,0.054373,0.000472,  15.316
   392.8,0.003968,0.002470,0.054295,0.000508,  15.318
   393.0,0.003958,0.002468,0.054340,0.000485,  15.320
   393.2,0.003962,0.002464,0.054462,0.000521,  15.317
   393.4,0.003962,0.002459,0.054626,0.000521,  15.316
   393.6,0.003952,0.002460,0.054672,0.000498,  15.317
   393.8,0.003954,0.002458,0.054707,0.000534,  15.315
   394.0,0.003958,0.002456,0.054731,0.000521,  15.315
   394.2,0.003959,0.002457,0.054757,0.000485,  15.314
   394.4,0.003964,0.002455,0.054781,0.000521,  15.316
   394.6,0.003964,0.002451,0.054791,0.000521,  15.317
   394.8,0.003961,0.002444,0.054781,0.000485,  15.318
   395.0,0.003954,0.002443,0.054755,0.000521,  15.316
   395.2,0.003950,0.002448,0.054702,0.000521,  15.315
   395.4,0.003943,0.002443,0.054640,0.000485,  15.314
   395.6,0.003947,0.002443,0.054623,0.000521,  15.314
   395.8,0.003950,0.002441,0.054633,0.000521,  15.313
   396.0,0.003940,0.002438,0.054659,0.000485,  15.315
   396.2,0.003937,0.002438,0.054679,0.000521,  15.316
   396.4,0.003937,0.002433,0.054681,0.000521,  15.312
   396.6,0.003934,0.002431,0.054681,0.000485,  15.310
   396.8,0.003928,0.002429,0.054665,0.000521,  15.310
   397.0,0.003925,0.002426,0.054605,0.000521,  15.313
   397.2,0.003925,0.002432,0.054560,0.000472,  15.312
   397.4,0.003926,0.002430,0.054500,0.000508,  15.314
   397.6,0.003926,0.002428,0.054414,0.000508,  15.313
   397.8,0.003913,0.002425,0.054319,0.000459,  15.311
   398.0,0.003910,0.002420,0.054319,0.000494,  15.314
   398.2,0.003913,0.002420,0.054352,0.000508,  15.309
   398.4,0.003910,0.002423,0.054395,0.000472,  15.312
   398.6,0.003917,0.002418,0.054362,0.000508,  15.312
   398.8,0.003917,0.002418,0.054293,0.000494,  15.310
   399.0,0.003907,0.002421,0.054181,0.000472,  15.311
   399.2,0.003901,0.002414,0.054174,0.000508,  15.310
   399.4,0.003901,0.002411,0.054193,0.000494,  15.309
   399.6,0.003901,0.002414,0.054262,0.000472,  15.305
   399.8,0.003899,0.002404,0.054281,0.000508,  15.306
   400.0,0.003896,0.002402,0.054284,0.000494,  15.305
   400.2,0.003896,0.002404,0.054294,0.000472,  15.305
   400.4,0.003893,0.002402,0.054330,0.000508,  15.303
   400.6,0.003893,0.002401,0.054332,0.000494,  15.305
   400.8,0.003893,0.002405,0.054382,0.000472,  15.304
   401.0,0.003890,0.002405,0.054392,0.000508,  15.297
   401.2,0.003881,0.002402,0.054375,0.000494,  15.304
   401.4,0.003881,0.002398,0.054332,0.000494,  15.297
   401.6,0.003881,0.002393,0.054309,0.000459,  15.303
   401.8,0.003875,0.002389,0.054292,0.000459,  15.301
   402.0,0.003872,0.002389,0.054266,0.000494,  15.301
   402.2,0.003872,0.002384,0.054190,0.000459,  15.297
   402.4,0.003866,0.002380,0.054094,0.000481,  15.299
   402.6,0.003866,0.002380,0.053980,0.000481,  15.297
   402.8,0.003863,0.002373,0.053937,0.000459,  15.295
   403.0,0.003860,0.002371,0.053930,0.000481,  15.297
   403.2,0.003863,0.002371,0.053940,0.000481,  15.296
   403.4,0.003863,0.002369,0.053976,0.000459,  15.296
   403.6,0.003860,0.002371,0.053985,0.000481,  15.297
   403.8,0.003863,0.002375,0.053952,0.000481,  15.292
   404.0,0.003863,0.002374,0.053926,0.000459,  15.290
   404.2,0.003860,0.002372,0.053945,0.000481,  15.290
   404.4,0.003863,0.002373,0.053988,0.000481,  15.294
   404.6,0.003863,0.002360,0.054024,0.000459,  15.293
   404.8,0.003860,0.002364,0.053803,0.000481,  15.288
   405.0,0.003860,0.002368,0.053484,0.000481,  15.290
   405.2,0.003860,0.002366,0.053045,0.000459,  15.285
   405.4,0.003854,0.002362,0.052969,0.000481,  15.287
   405.6,0.003854,0.002362,0.053005,0.000481,  15.285
   405.8,0.003851,0.002365,0.053192,0.000459,  15.286
   406.0,0.003852,0.002365,0.052936,0.000481,  15.283
   406.2,0.003849,0.002368,0.052519,0.000481,  15.279
   406.4,0.003842,0.002365,0.051956,0.000459,  15.279
   406.6,0.003840,0.002365,0.051979,0.000481,  15.276
   406.8,0.003840,0.002367,0.052159,0.000468,  15.280
   407.0,0.003833,0.002372,0.052559,0.000445,  15.277
   407.2,0.003833,0.002373,0.052723,0.000481,  15.278
   407.4,0.003836,0.002374,0.052851,0.000481,  15.277
   407.6,0.003833,0.002373,0.052952,0.000459,  15.275
   407.8,0.003837,0.002368,0.053047,0.000481,  15.272
   408.0,0.003840,0.002371,0.053126,0.000481,  15.276
   408.2,0.003834,0.002369,0.053162,0.000494,  15.276
   408.4,0.003831,0.002364,0.053266,0.000481,  15.274
   408.6,0.003828,0.002369,0.053404,0.000517,  15.271
   408.8,0.003831,0.002373,0.053525,0.000494,  15.274
   409.0,0.003828,0.002368,0.053551,0.000481,  15.279
   409.2,0.003828,0.002368,0.053525,0.000481,  15.275
   409.4,0.003824,0.002366,0.053430,0.000459,  15.274
   409.6,0.003821,0.002363,0.053423,0.000481,  15.275
   409.8,0.003821,0.002363,0.053423,0.000481,  15.273
   410.0,0.003821,0.002366,0.053423,0.000459,  15.271
   410.2,0.003821,0.002365,0.053442,0.000481,  15.274
   410.4,0.003825,0.002362,0.053468,0.000481,  15.272
   410.6,0.003825,0.002362,0.053488,0.000481,  15.274
   410.8,0.003825,0.002357,0.053523,0.000445,  15.273
   411.0,0.003822,0.002356,0.053566,0.000459,  15.273
   411.2,0.003822,0.002356,0.053609,0.000481,  15.275
   411.4,0.003818,0.002353,0.053592,0.000445,  15.274
   411.6,0.003815,0.002348,0.053566,0.000481,  15.273
   411.8,0.003815,0.002356,0.053490,0.000481,  15.268
   412.0,0.003808,0.002358,0.053483,0.000459,  15.271
   412.2,0.003812,0.002353,0.053509,0.000481,  15.273
   412.4,0.003802,0.002351,0.053529,0.000481,  15.275
   412.6,0.003802,0.002352,0.053571,0.000459,  15.268
   412.8,0.003802,0.002353,0.053571,0.000494,  15.272
   413.0,0.003799,0.002350,0.053538,0.000494,  15.274
   413.2,0.003799,0.002347,0.053495,0.000472,  15.271
   413.4,0.003809,0.002352,0.053498,0.000494,  15.270
   413.6,0.003809,0.002350,0.053524,0.000468,  15.265
   413.8,0.003802,0.002352,0.053550,0.000445,  15.271
   414.0,0.003806,0.002347,0.053491,0.000481,  15.270
   414.2,0.003809,0.002351,0.053396,0.000481,  15.270
   414.4,0.003802,0.002348,0.053256,0.000459,  15.269
   414.6,0.003806,0.002348,0.052682,0.000481,  15.267
   414.8,0.003809,0.002348,0.051856,0.000468,  15.267
   415.0,0.003809,0.002343,0.050801,0.000445,  15.267
   415.2,0.003813,0.002340,0.050775,0.000481,  15.266
   415.4,0.003816,0.002337,0.051107,0.000481,  15.264
   415.6,0.003816,0.002347,0.051830,0.000459,  15.266
   415.8,0.003813,0.002350,0.052042,0.000481,  15.265
   416.0,0.003816,0.002348,0.052154,0.000481,  15.264
   416.2,0.003816,0.002350,0.052220,0.000459,  15.263
   416.4,0.003813,0.002345,0.052400,0.000481,  15.262
   416.6,0.003816,0.002342,0.052573,0.000481,  15.264
   416.8,0.003806,0.002343,0.052772,0.000459,  15.265
   417.0,0.003803,0.002340,0.052634,0.000481,  15.265
   417.2,0.003800,0.002341,0.052303,0.000481,  15.262
   417.4,0.003803,0.002347,0.051816,0.000459,  15.262
   417.6,0.003800,0.002347,0.051790,0.000481,  15.261
   417.8,0.003810,0.002355,0.051901,0.000468,  15.266
   418.0,0.003806,0.002350,0.052163,0.000445,  15.259
   418.2,0.003803,0.002344,0.052248,0.000481,  15.264
   418.4,0.003803,0.002350,0.052317,0.000481,  15.261
   418.6,0.003796,0.002350,0.052350,0.000481,  15.259
   418.8,0.003793,0.002347,0.052461,0.000445,  15.261
   419.0,0.003787,0.002348,0.052582,0.000459,  15.262
   419.2,0.003780,0.002351,0.052713,0.000481,  15.262
   419.4,0.003790,0.002348,0.052834,0.000445,  15.260
   419.6,0.003787,0.002346,0.052945,0.000481,  15.259
   419.8,0.003780,0.002345,0.053040,0.000481,  15.256
   420.0,0.003787,0.002339,0.053050,0.000459,  15.261
   420.2,0.003784,0.002342,0.053017,0.000481,  15.260
   420.4,0.003777,0.002339,0.052922,0.000468,  15.255
   420.6,0.003784,0.002339,0.052922,0.000445,  15.252
   420.8,0.003784,0.002336,0.052908,0.000481,  15.256
   421.0,0.003784,0.002342,0.052974,0.000468,  15.256
   421.2,0.003787,0.002342,0.053000,0.000445,  15.258
   421.4,0.003794,0.002347,0.052984,0.000481,  15.255
   421.6,0.003794,0.002342,0.052974,0.000481,  15.253
   421.8,0.003787,0.002342,0.052924,0.000459,  15.253
   422.0,0.003791,0.002347,0.052915,0.000481,  15.250
   422.2,0.003791,0.002350,0.052882,0.000481,  15.253
   422.4,0.003784,0.002352,0.052872,0.000459,  15.250
   422.6,0.003791,0.002351,0.052607,0.000481,  15.245
   422.8,0.003794,0.002356,0.052237,0.000481,  15.245
   423.0,0.003787,0.002357,0.051724,0.000459,  15.246
   423.2,0.003797,0.002357,0.051743,0.000481,  15.248
   423.4,0.003797,0.002357,0.051965,0.000481,  15.245
   423.6,0.003790,0.002352,0.052393,0.000459,  15.245
   423.8,0.003794,0.002346,0.052514,0.000481,  15.243
   424.0,0.003787,0.002339,0.052583,0.000481,  15.245
   424.2,0.003790,0.002345,0.052583,0.000459,  15.239
   424.4,0.003787,0.002343,0.052600,0.000481,  15.240
   424.6,0.003787,0.002340,0.052583,0.000481,  15.238
   424.8,0.003790,0.002343,0.052538,0.000459,  15.239
   425.0,0.003794,0.002345,0.052607,0.000481,  15.239
   425.2,0.003797,0.002343,0.052685,0.000481,  15.239
   425.4,0.003790,0.002349,0.052789,0.000459,  15.241
   425.6,0.003797,0.002352,0.052792,0.000481,  15.232
   425.8,0.003797,0.002344,0.052766,0.000481,  15.233
   426.0,0.003801,0.002345,0.052704,0.000459,  15.232
   426.2,0.003791,0.002348,0.052740,0.000481,  15.237
   426.4,0.003799,0.002345,0.052785,0.000481,  15.235
   426.6,0.003795,0.002348,0.052870,0.000459,  15.235
   426.8,0.003798,0.002353,0.052939,0.000481,  15.234
   427.0,0.003801,0.002349,0.052991,0.000481,  15.231
   427.2,0.003801,0.002349,0.053034,0.000459,  15.233
   427.4,0.003804,0.002346,0.053051,0.000481,  15.230
   427.6,0.003801,0.002344,0.053024,0.000481,  15.231
   427.8,0.003801,0.002349,0.052965,0.000481,  15.229
   428.0,0.003801,0.002347,0.052863,0.000445,  15.226
   428.2,0.003798,0.002345,0.052749,0.000459,  15.231
   428.4,0.003798,0.002354,0.052593,0.000481,  15.229
   428.6,0.003798,0.002348,0.052593,0.000445,  15.227
   428.8,0.003798,0.002348,0.052661,0.000481,  15.224
   429.0,0.003798,0.002353,0.052806,0.000481,  15.222
   429.2,0.003798,0.002348,0.052806,0.000459,  15.220
   429.4,0.003798,0.002348,0.052763,0.000481,  15.219
   429.6,0.003798,0.002344,0.052678,0.000481,  15.222
   429.8,0.003798,0.002344,0.052573,0.000459,  15.220
   430.0,0.003795,0.002344,0.052557,0.000481,  15.225
   430.2,0.003792,0.002347,0.052580,0.000481,  15.221
   430.4,0.003792,0.002346,0.052573,0.000459,  15.220
   430.6,0.003796,0.002341,0.052426,0.000481,  15.217
   430.8,0.003793,0.002340,0.052154,0.000468,  15.217
   431.0,0.003786,0.002334,0.051797,0.000445,  15.217
   431.2,0.003789,0.002331,0.051618,0.000481,  15.221
   431.4,0.003792,0.002334,0.051457,0.000481,  15.213
   431.6,0.003792,0.002331,0.051299,0.000459,  15.216
   431.8,0.003792,0.002334,0.051325,0.000481,  15.215
   432.0,0.003792,0.002333,0.051427,0.000481,  15.214
   432.2,0.003792,0.002334,0.051597,0.000459,  15.214
   432.4,0.003789,0.002332,0.051753,0.000481,  15.214
   432.6,0.003786,0.002337,0.051933,0.000481,  15.212
   432.8,0.003783,0.002343,0.052122,0.000459,  15.216
   433.0,0.003783,0.002340,0.052243,0.000481,  15.216
   433.2,0.003786,0.002339,0.052304,0.000468,  15.215
   433.4,0.003779,0.002341,0.052371,0.000445,  15.213
   433.6,0.003779,0.002338,0.052371,0.000481,  15.209
   433.8,0.003782,0.002338,0.052302,0.000468,  15.212
   434.0,0.003782,0.002337,0.052205,0.000445,  15.215
   434.2,0.003786,0.002334,0.052214,0.000481,  15.212
   434.4,0.003792,0.002336,0.052266,0.000468,  15.213
   434.6,0.003792,0.002336,0.052351,0.000445,  15.211
   434.8,0.003792,0.002331,0.052378,0.000481,  15.211
   435.0,0.003792,0.002339,0.052371,0.000468,  15.209
   435.2,0.003799,0.002337,0.052385,0.000445,  15.209
   435.4,0.003786,0.002337,0.052401,0.000481,  15.209
   435.6,0.003787,0.002338,0.052411,0.000468,  15.209
   435.8,0.003781,0.002335,0.052427,0.000445,  15.209
   436.0,0.003783,0.002337,0.052418,0.000481,  15.207
   436.2,0.003789,0.002337,0.052358,0.000481,  15.206
   436.4,0.003792,0.002340,0.052290,0.000459,  15.206
   436.6,0.003792,0.002333,0.052264,0.000481,  15.203
   436.8,0.003799,0.002333,0.052221,0.000481,  15.206
   437.0,0.003802,0.002338,0.052185,0.000481,  15.207
   437.2,0.003795,0.002330,0.052212,0.000445,  15.204
   437.4,0.003799,0.002333,0.052231,0.000459,  15.207
   437.6,0.003799,0.002338,0.052283,0.000481,  15.203
   437.8,0.003792,0.002335,0.052385,0.000445,  15.207
   438.0,0.003799,0.002341,0.052496,0.000494,  15.209
   438.2,0.003799,0.002348,0.052617,0.000494,  15.203
   438.4,0.003798,0.002345,0.052686,0.000472,  15.202
   438.6,0.003801,0.002350,0.052712,0.000508,  15.202
   438.8,0.003804,0.002352,0.052745,0.000494,  15.202
   439.0,0.003804,0.002349,0.052719,0.000472,  15.203
   439.2,0.003804,0.002359,0.052735,0.000508,  15.207
   439.4,0.003807,0.002357,0.052735,0.000494,  15.198
   439.6,0.003804,0.002352,0.052752,0.000472,  15.200
   439.8,0.003811,0.002362,0.052512,0.000508,  15.202
   440.0,0.003814,0.002362,0.052155,0.000494,  15.203
   440.2,0.003804,0.002359,0.051684,0.000472,  15.204
   440.4,0.003811,0.002364,0.051658,0.000494,  15.197
   440.6,0.003814,0.002361,0.051795,0.000481,  15.200
   440.8,0.003807,0.002360,0.052110,0.000459,  15.196
   441.0,0.003817,0.002357,0.052202,0.000481,  15.194
   441.2,0.003820,0.002357,0.052235,0.000481,  15.198
   441.4,0.003813,0.002357,0.052233,0.000459,  15.201
   441.6,0.003813,0.002354,0.052318,0.000481,  15.194
   441.8,0.003816,0.002354,0.052422,0.000481,  15.194
   442.0,0.003809,0.002356,0.052550,0.000459,  15.194
   442.2,0.003806,0.002358,0.052602,0.000481,  15.198
   442.4,0.003809,0.002355,0.052628,0.000481,  15.197
   442.6,0.003802,0.002355,0.052628,0.000494,  15.191
   442.8,0.003806,0.002358,0.052671,0.000468,  15.195
   443.0,0.003806,0.002354,0.052704,0.000490,  15.191
   443.2,0.003810,0.002351,0.052730,0.000468,  15.189
   443.4,0.003815,0.002350,0.052740,0.000468,  15.193
   443.6,0.003815,0.002351,0.052747,0.000468,  15.191
   443.8,0.003815,0.002350,0.052730,0.000445,  15.193
   444.0,0.003809,0.002345,0.052723,0.000481,  15.191
   444.2,0.003809,0.002344,0.052730,0.000468,  15.186
   444.4,0.003805,0.002343,0.052737,0.000445,  15.191
   444.6,0.003802,0.002341,0.052747,0.000481,  15.193
   444.8,0.003802,0.002343,0.052773,0.000468,  15.190
   445.0,0.003798,0.002347,0.052806,0.000445,  15.194
   445.2,0.003798,0.002344,0.052825,0.000481,  15.195
   445.4,0.003795,0.002343,0.052835,0.000468,  15.188
   445.6,0.003795,0.002348,0.052851,0.000445,  15.187
   445.8,0.003798,0.002346,0.052844,0.000481,  15.189
   446.0,0.003795,0.002348,0.052837,0.000481,  15.195
   446.2,0.003795,0.002352,0.052818,0.000481,  15.197
   446.4,0.003798,0.002352,0.052451,0.000445,  15.192
   446.6,0.003798,0.002347,0.051871,0.000459,  15.189
   446.8,0.003798,0.002345,0.051129,0.000481,  15.194
   447.0,0.003798,0.002342,0.050839,0.000445,  15.193
   447.2,0.003802,0.002336,0.050660,0.000481,  15.194
   447.4,0.003802,0.002335,0.050592,0.000504,  15.192
   447.6,0.003798,0.002333,0.050677,0.000517,  15.193
   447.8,0.003802,0.002341,0.050882,0.000481,  15.194
   448.0,0.003802,0.002346,0.051205,0.000517,  15.195
   448.2,0.003798,0.002347,0.051649,0.000494,  15.196
   448.4,0.003795,0.002348,0.051845,0.000481,  15.192
   448.6,0.003792,0.002345,0.051999,0.000481,  15.192
   448.8,0.003792,0.002345,0.052126,0.000459,  15.195
   449.0,0.003796,0.002344,0.052221,0.000494,  15.194
   449.2,0.003793,0.002341,0.052280,0.000494,  15.193
   449.4,0.003786,0.002337,0.052304,0.000472,  15.192
   449.6,0.003796,0.002337,0.052330,0.000494,  15.190
   449.8,0.003799,0.002341,0.052320,0.000481,  15.191
   450.0,0.003792,0.002343,0.052311,0.000459,  15.194
   450.2,0.003792,0.002341,0.052353,0.000481,  15.197
   450.4,0.003792,0.002338,0.052386,0.000481,  15.192
   450.6,0.003792,0.002341,0.052429,0.000459,  15.192
   450.8,0.003789,0.002338,0.052472,0.000481,  15.194
   451.0,0.003786,0.002335,0.052505,0.000481,  15.192
   451.2,0.003786,0.002340,0.052514,0.000459,  15.194
   451.4,0.003789,0.002335,0.052557,0.000481,  15.194
   451.6,0.003789,0.002338,0.052600,0.000481,  15.196
   451.8,0.003789,0.002341,0.052626,0.000494,  15.196
   452.0,0.003789,0.002336,0.052661,0.000481,  15.196
   452.2,0.003792,0.002333,0.052730,0.000504,  15.198
   452.4,0.003795,0.002335,0.052773,0.000517,  15.201
   452.6,0.003795,0.002333,0.052782,0.000481,  15.198
   452.8,0.003798,0.002335,0.052782,0.000517,  15.193
   453.0,0.003798,0.002341,0.052756,0.000494,  15.199
   453.2,0.003798,0.002338,0.052733,0.000481,  15.199
   453.4,0.003792,0.002335,0.052714,0.000481,  15.199
   453.6,0.003788,0.002333,0.052694,0.000459,  15.200
   453.8,0.003785,0.002333,0.052799,0.000494,  15.198
   454.0,0.003785,0.002338,0.052956,0.000494,  15.199
   454.2,0.003785,0.002341,0.053188,0.000472,  15.202
   454.4,0.003781,0.002337,0.053188,0.000494,  15.205
   454.6,0.003788,0.002342,0.053093,0.000481,  15.202
   454.8,0.003785,0.002341,0.052894,0.000468,  15.203
   455.0,0.003778,0.002343,0.052789,0.000445,  15.205
   455.2,0.003782,0.002341,0.052659,0.000445,  15.207
   455.4,0.003779,0.002342,0.052495,0.000481,  15.202
   455.6,0.003773,0.002342,0.052488,0.000445,  15.202
   455.8,0.003782,0.002344,0.052573,0.000481,  15.202
   456.0,0.003782,0.002342,0.052704,0.000481,  15.203
   456.2,0.003782,0.002335,0.052740,0.000459,  15.204
   456.4,0.003786,0.002338,0.052792,0.000481,  15.205
   456.6,0.003789,0.002338,0.052801,0.000481,  15.208
   456.8,0.003789,0.002335,0.052818,0.000459,  15.209
   457.0,0.003796,0.002341,0.052837,0.000481,  15.211
   457.2,0.003796,0.002345,0.052854,0.000481,  15.208
   457.4,0.003789,0.002340,0.052880,0.000459,  15.208
   457.6,0.003789,0.002348,0.052870,0.000481,  15.208
   457.8,0.003792,0.002348,0.052835,0.000481,  15.208
   458.0,0.003785,0.002351,0.052740,0.000459,  15.207
   458.2,0.003785,0.002346,0.052749,0.000481,  15.211
   458.4,0.003785,0.002349,0.052801,0.000481,  15.210
   458.6,0.003778,0.002342,0.052870,0.000459,  15.208
   458.8,0.003779,0.002341,0.052640,0.000481,  15.211
   459.0,0.003773,0.002338,0.052283,0.000481,  15.213
   459.2,0.003773,0.002335,0.051819,0.000459,  15.211
   459.4,0.003773,0.002332,0.051724,0.000481,  15.208
   459.6,0.003769,0.002334,0.051767,0.000481,  15.210
   459.8,0.003773,0.002334,0.051968,0.000459,  15.208
   460.0,0.003770,0.002332,0.052095,0.000481,  15.212
   460.2,0.003773,0.002330,0.052226,0.000481,  15.210
   460.4,0.003770,0.002330,0.052399,0.000459,  15.210
   460.6,0.003777,0.002335,0.052484,0.000445,  15.217
   460.8,0.003779,0.002333,0.052510,0.000445,  15.220
   461.0,0.003770,0.002331,0.052484,0.000423,  15.218
   461.2,0.003777,0.002325,0.052510,0.000445,  15.217
   461.4,0.003777,0.002325,0.052519,0.000481,  15.214
   461.6,0.003777,0.002324,0.052526,0.000459,  15.216
   461.8,0.003770,0.002321,0.052569,0.000481,  15.217
   462.0,0.003774,0.002318,0.052621,0.000481,  15.216
   462.2,0.003774,0.002321,0.052690,0.000459,  15.217
   462.4,0.003774,0.002324,0.052700,0.000481,  15.218
   462.6,0.003781,0.002322,0.052690,0.000481,  15.213
   462.8,0.003783,0.002324,0.052631,0.000459,  15.213
   463.0,0.003781,0.002324,0.052676,0.000481,  15.214
   463.2,0.003778,0.002324,0.052778,0.000481,  15.213
   463.4,0.003781,0.002321,0.052866,0.000481,  15.214
   463.6,0.003774,0.002318,0.052859,0.000445,  15.211
   463.8,0.003774,0.002318,0.052833,0.000459,  15.210
   464.0,0.003777,0.002323,0.052738,0.000481,  15.216
   464.2,0.003770,0.002325,0.052705,0.000445,  15.215
   464.4,0.003774,0.002325,0.052695,0.000481,  15.214
   464.6,0.003777,0.002325,0.052693,0.000481,  15.214
   464.8,0.003767,0.002327,0.052693,0.000459,  15.211
   465.0,0.003771,0.002327,0.052719,0.000481,  15.212
   465.2,0.003767,0.002325,0.052728,0.000481,  15.214
   465.4,0.003764,0.002333,0.052771,0.000459,  15.213
   465.6,0.003764,0.002333,0.052764,0.000494,  15.209
   465.8,0.003764,0.002334,0.052771,0.000494,  15.217
   466.0,0.003765,0.002334,0.052771,0.000472,  15.216
   466.2,0.003773,0.002339,0.052761,0.000508,  15.212
   466.4,0.003773,0.002332,0.052702,0.000494,  15.211
   466.6,0.003769,0.002332,0.052633,0.000472,  15.213
   466.8,0.003772,0.002334,0.052598,0.000508,  15.209
   467.0,0.003772,0.002332,0.052529,0.000494,  15.214
   467.2,0.003772,0.002332,0.052467,0.000472,  15.213
   467.4,0.003779,0.002329,0.052477,0.000494,  15.211
   467.6,0.003779,0.002332,0.052529,0.000481,  15.211
   467.8,0.003772,0.002334,0.052598,0.000459,  15.209
   468.0,0.003779,0.002331,0.052659,0.000494,  15.210
   468.2,0.003779,0.002331,0.052761,0.000494,  15.213
   468.4,0.003772,0.002326,0.052833,0.000472,  15.206
   468.6,0.003779,0.002326,0.052783,0.000508,  15.208
   468.8,0.003779,0.002329,0.052702,0.000494,  15.211
   469.0,0.003772,0.002332,0.052529,0.000472,  15.206
   469.2,0.003772,0.002329,0.052470,0.000494,  15.209
   469.4,0.003772,0.002334,0.052434,0.000481,  15.210
   469.6,0.003775,0.002336,0.052408,0.000459,  15.206
   469.8,0.003772,0.002330,0.052434,0.000445,  15.211
   470.0,0.003772,0.002335,0.052486,0.000445,  15.211
   470.2,0.003765,0.002334,0.052548,0.000423,  15.207
   470.4,0.003768,0.002334,0.052548,0.000445,  15.211
   470.6,0.003768,0.002330,0.052505,0.000481,  15.209
   470.8,0.003768,0.002328,0.052420,0.000459,  15.207
   471.0,0.003761,0.002333,0.052394,0.000481,  15.209
   471.2,0.003765,0.002336,0.052325,0.000481,  15.209
   471.4,0.003765,0.002338,0.052264,0.000481,  15.209
   471.6,0.003765,0.002338,0.052316,0.000445,  15.212
   471.8,0.003772,0.002342,0.052392,0.000459,  15.210
   472.0,0.003775,0.002342,0.052512,0.000481,  15.208
   472.2,0.003775,0.002342,0.052591,0.000445,  15.211
   472.4,0.003778,0.002344,0.052669,0.000481,  15.208
   472.6,0.003781,0.002341,0.052738,0.000481,  15.212
   472.8,0.003781,0.002335,0.052790,0.000459,  15.211
   473.0,0.003781,0.002341,0.052833,0.000481,  15.212
   473.2,0.003783,0.002341,0.052833,0.000481,  15.203
   473.4,0.003783,0.002338,0.052840,0.000459,  15.213
   473.6,0.003781,0.002343,0.052847,0.000481,  15.210
   473.8,0.003783,0.002346,0.052804,0.000481,  15.210
   474.0,0.003777,0.002342,0.052745,0.000459,  15.206
   474.2,0.003777,0.002336,0.052738,0.000481,  15.209
   474.4,0.003773,0.002336,0.052764,0.000481,  15.205
   474.6,0.003770,0.002335,0.052807,0.000459,  15.210
   474.8,0.003770,0.002330,0.052764,0.000481,  15.204
   475.0,0.003773,0.002338,0.052695,0.000481,  15.204
   475.2,0.003770,0.002336,0.052607,0.000459,  15.202
   475.4,0.003777,0.002336,0.052581,0.000481,  15.208
   475.6,0.003779,0.002331,0.052555,0.000481,  15.206
   475.8,0.003770,0.002332,0.052536,0.000459,  15.204
   476.0,0.003774,0.002330,0.052562,0.000481,  15.207
   476.2,0.003774,0.002327,0.052598,0.000481,  15.203
   476.4,0.003767,0.002330,0.052666,0.000459,  15.206
   476.6,0.003768,0.002333,0.052683,0.000481,  15.203
   476.8,0.003768,0.002331,0.052640,0.000481,  15.203
   477.0,0.003765,0.002326,0.052581,0.000459,  15.203
   477.2,0.003766,0.002321,0.052584,0.000481,  15.202
   477.4,0.003770,0.002324,0.052617,0.000481,  15.199
   477.6,0.003774,0.002326,0.052643,0.000459,  15.200
   477.8,0.003782,0.002324,0.052626,0.000481,  15.200
   478.0,0.003778,0.002326,0.052584,0.000481,  15.201
   478.2,0.003774,0.002328,0.052532,0.000459,  15.198
   478.4,0.003773,0.002325,0.052472,0.000481,  15.200
   478.6,0.003773,0.002325,0.052394,0.000481,  15.196
   478.8,0.003769,0.002327,0.052309,0.000459,  15.200
   479.0,0.003769,0.002325,0.052309,0.000481,  15.200
   479.2,0.003776,0.002324,0.052311,0.000481,  15.197
   479.4,0.003772,0.002325,0.052371,0.000459,  15.194
   479.6,0.003769,0.002325,0.052072,0.000481,  15.194
   479.8,0.003773,0.002325,0.051611,0.000481,  15.196
   480.0,0.003773,0.002320,0.050965,0.000481,  15.194
   480.2,0.003759,0.002312,0.051085,0.000445,  15.195
   480.4,0.003759,0.002315,0.051486,0.000459,  15.195
   480.6,0.003756,0.002316,0.052170,0.000481,  15.192
   480.8,0.003749,0.002311,0.052317,0.000445,  15.192
   481.0,0.003756,0.002316,0.052352,0.000481,  15.194
   481.2,0.003753,0.002318,0.052274,0.000481,  15.193
   481.4,0.003750,0.002315,0.052293,0.000459,  15.192
   481.6,0.003757,0.002318,0.052319,0.000481,  15.190
   481.8,0.003760,0.002323,0.052362,0.000481,  15.192
   482.0,0.003754,0.002320,0.052362,0.000459,  15.191
   482.2,0.003751,0.002316,0.052352,0.000481,  15.193
   482.4,0.003754,0.002319,0.052293,0.000468,  15.188
   482.6,0.003751,0.002316,0.052231,0.000445,  15.192
   482.8,0.003751,0.002316,0.052231,0.000481,  15.187
   483.0,0.003754,0.002321,0.052222,0.000468,  15.191
   483.2,0.003754,0.002318,0.052215,0.000445,  15.189
   483.4,0.003757,0.002318,0.052215,0.000481,  15.189
   483.6,0.003760,0.002316,0.052182,0.000468,  15.189
   483.8,0.003757,0.002311,0.052156,0.000445,  15.188
   484.0,0.003754,0.002311,0.052123,0.000481,  15.189
   484.2,0.003754,0.002311,0.052113,0.000468,  15.186
   484.4,0.003754,0.002314,0.052077,0.000445,  15.189
   484.6,0.003748,0.002310,0.052104,0.000481,  15.188
   484.8,0.003751,0.002317,0.052149,0.000468,  15.189
   485.0,0.003751,0.002316,0.052210,0.000445,  15.186
   485.2,0.003751,0.002311,0.052246,0.000481,  15.184
   485.4,0.003754,0.002313,0.052272,0.000468,  15.186
   485.6,0.003751,0.002311,0.052289,0.000445,  15.187
   485.8,0.003751,0.002311,0.052076,0.000481,  15.187
   486.0,0.003754,0.002313,0.051735,0.000481,  15.182
   486.2,0.003754,0.002318,0.051288,0.000459,  15.183
   486.4,0.003754,0.002318,0.051262,0.000481,  15.184
   486.6,0.003757,0.002315,0.051399,0.000481,  15.181
   486.8,0.003757,0.002314,0.051680,0.000459,  15.179
   487.0,0.003757,0.002316,0.051818,0.000481,  15.180
   487.2,0.003757,0.002320,0.051945,0.000468,  15.181
   487.4,0.003763,0.002326,0.052066,0.000445,  15.175
   487.6,0.003760,0.002324,0.052109,0.000481,  15.180
   487.8,0.003763,0.002324,0.052099,0.000481,  15.184
   488.0,0.003763,0.002324,0.052047,0.000459,  15.185
   488.2,0.003763,0.002321,0.052158,0.000481,  15.181
   488.4,0.003770,0.002324,0.052305,0.000481,  15.174
   488.6,0.003773,0.002331,0.052511,0.000459,  15.178
   488.8,0.003766,0.002325,0.052521,0.000481,  15.179
   489.0,0.003773,0.002330,0.052485,0.000481,  15.178
   489.2,0.003776,0.002332,0.052371,0.000494,  15.182
   489.4,0.003769,0.002329,0.052397,0.000445,  15.177
   489.6,0.003773,0.002331,0.052443,0.000472,  15.177
   489.8,0.003773,0.002334,0.052544,0.000494,  15.172
   490.0,0.003769,0.002337,0.052544,0.000459,  15.177
   490.2,0.003776,0.002335,0.052509,0.000494,  15.178
   490.4,0.003779,0.002335,0.052430,0.000494,  15.175
   490.6,0.003775,0.002333,0.052404,0.000472,  15.172
   490.8,0.003785,0.002337,0.052395,0.000508,  15.173
   491.0,0.003787,0.002336,0.052385,0.000494,  15.171
   491.2,0.003781,0.002336,0.052359,0.000472,  15.172
   491.4,0.003790,0.002338,0.052369,0.000508,  15.174
   491.6,0.003793,0.002341,0.052402,0.000494,  15.173
   491.8,0.003786,0.002346,0.052444,0.000472,  15.174
   492.0,0.003796,0.002346,0.052471,0.000508,  15.174
   492.2,0.003796,0.002347,0.052497,0.000494,  15.169
   492.4,0.003789,0.002344,0.052520,0.000472,  15.170
   492.6,0.003793,0.002342,0.052465,0.000508,  15.170
   492.8,0.003796,0.002344,0.052328,0.000494,  15.171
   493.0,0.003786,0.002344,0.052152,0.000472,  15.168
   493.2,0.003790,0.002339,0.052185,0.000508,  15.173
   493.4,0.003793,0.002340,0.052257,0.000494,  15.171
   493.6,0.003783,0.002342,0.052387,0.000472,  15.169
   493.8,0.003790,0.002341,0.052456,0.000508,  15.167
   494.0,0.003793,0.002344,0.052491,0.000494,  15.166
   494.2,0.003783,0.002349,0.052525,0.000472,  15.168
   494.4,0.003783,0.002351,0.052525,0.000472,  15.166
   494.6,0.003786,0.002349,0.052456,0.000459,  15.164
   494.8,0.003786,0.002349,0.052385,0.000436,  15.164
   495.0,0.003789,0.002352,0.052394,0.000436,  15.162
   495.2,0.003789,0.002352,0.052420,0.000459,  15.162
   495.4,0.003789,0.002353,0.052479,0.000436,  15.169
   495.6,0.003789,0.002356,0.052522,0.000472,  15.162
   495.8,0.003792,0.002356,0.052555,0.000494,  15.161
   496.0,0.003792,0.002356,0.052588,0.000472,  15.166
   496.2,0.003795,0.002353,0.052306,0.000472,  15.163
   496.4,0.003792,0.002351,0.051871,0.000472,  15.165
   496.6,0.003795,0.002353,0.051266,0.000436,  15.165
   496.8,0.003792,0.002348,0.051214,0.000436,  15.162
   497.0,0.003792,0.002345,0.051325,0.000459,  15.162
   497.2,0.003792,0.002349,0.051639,0.000436,  15.167
   497.4,0.003792,0.002349,0.051854,0.000436,  15.162
   497.6,0.003792,0.002347,0.052119,0.000459,  15.164
   497.8,0.003789,0.002351,0.052451,0.000459,  15.167
   498.0,0.003789,0.002353,0.052555,0.000459,  15.164
   498.2,0.003796,0.002349,0.052591,0.000459,  15.159
   498.4,0.003793,0.002337,0.052548,0.000459,  15.163
   498.6,0.003786,0.002333,0.052548,0.000459,  15.159
   498.8,0.003793,0.002335,0.052512,0.000459,  15.159
   499.0,0.003796,0.002337,0.052427,0.000459,  15.161
   499.2,0.003783,0.002329,0.052427,0.000436,  15.160
   499.4,0.003785,0.002329,0.052444,0.000436,  15.161
   499.6,0.003785,0.002332,0.052479,0.000459,  15.161
   499.8,0.003775,0.002327,0.052515,0.000436,  15.160
   500.0,0.003776,0.002324,0.052491,0.000459,  15.162
   500.2,0.003773,0.002322,0.052472,0.000481,  15.157
   500.4,0.003766,0.002317,0.052446,0.000459,  15.159
   500.6,0.003767,0.002319,0.052387,0.000481,  15.160
   500.8,0.003767,0.002317,0.052325,0.000481,  15.156
   501.0,0.003757,0.002317,0.052231,0.000459,  15.158
   501.2,0.003761,0.002319,0.052165,0.000481,  15.158
   501.4,0.003761,0.002317,0.052145,0.000481,  15.157
   501.6,0.003754,0.002319,0.052112,0.000459,  15.156
   501.8,0.003755,0.002318,0.052122,0.000481,  15.157
   502.0,0.003755,0.002318,0.052148,0.000481,  15.157
   502.2,0.003751,0.002312,0.052184,0.000459,  15.153
   502.4,0.003755,0.002303,0.052184,0.000481,  15.152
   502.6,0.003755,0.002296,0.052151,0.000481,  15.158
   502.8,0.003748,0.002300,0.052108,0.000459,  15.157
   503.0,0.003749,0.002298,0.052084,0.000481,  15.158
   503.2,0.003749,0.002293,0.052068,0.000481,  15.157
   503.4,0.003742,0.002294,0.052075,0.000459,  15.155
   503.6,0.003746,0.002293,0.052120,0.000481,  15.155
   503.8,0.003743,0.002297,0.052189,0.000481,  15.154
   504.0,0.003736,0.002296,0.052283,0.000494,  15.152
   504.2,0.003736,0.002298,0.052276,0.000481,  15.154
   504.4,0.003736,0.002300,0.052267,0.000504,  15.150
   504.6,0.003739,0.002301,0.052205,0.000481,  15.152
   504.8,0.003739,0.002304,0.052182,0.000481,  15.154
   505.0,0.003739,0.002302,0.052198,0.000468,  15.155
   505.2,0.003739,0.002303,0.052198,0.000445,  15.154
   505.4,0.003739,0.002306,0.052234,0.000481,  15.154
   505.6,0.003739,0.002302,0.052286,0.000468,  15.150
   505.8,0.003736,0.002299,0.052348,0.000445,  15.153
   506.0,0.003736,0.002294,0.052348,0.000481,  15.154
   506.2,0.003736,0.002295,0.052305,0.000468,  15.152
   506.4,0.003733,0.002299,0.052236,0.000468,  15.149
   506.6,0.003726,0.002297,0.052236,0.000432,  15.149
   506.8,0.003729,0.002300,0.052236,0.000445,  15.152
   507.0,0.003729,0.002301,0.052229,0.000481,  15.149
   507.2,0.003722,0.002304,0.052246,0.000445,  15.149
   507.4,0.003729,0.002304,0.052246,0.000481,  15.147
   507.6,0.003729,0.002302,0.052236,0.000481,  15.148
   507.8,0.003729,0.002297,0.052227,0.000459,  15.151
   508.0,0.003733,0.002299,0.052210,0.000481,  15.149
   508.2,0.003736,0.002304,0.052184,0.000481,  15.146
   508.4,0.003736,0.002299,0.052142,0.000459,  15.141
   508.6,0.003740,0.002300,0.052099,0.000481,  15.146
   508.8,0.003746,0.002306,0.052063,0.000468,  15.146
   509.0,0.003739,0.002306,0.051995,0.000445,  15.140
   509.2,0.003746,0.002306,0.051978,0.000481,  15.148
   509.4,0.003749,0.002318,0.051978,0.000468,  15.147
   509.6,0.003742,0.002317,0.051995,0.000445,  15.145
   509.8,0.003746,0.002316,0.051891,0.000481,  15.141
   510.0,0.003743,0.002318,0.051687,0.000468,  15.141
   510.2,0.003736,0.002320,0.051406,0.000445,  15.141
   510.4,0.003743,0.002315,0.051416,0.000481,  15.142
   510.6,0.003740,0.002316,0.051543,0.000468,  15.140
   510.8,0.003733,0.002316,0.051749,0.000445,  15.143
   511.0,0.003743,0.002314,0.051860,0.000481,  15.137
   511.2,0.003743,0.002312,0.051995,0.000468,  15.142
   511.4,0.003736,0.002307,0.052146,0.000445,  15.142
   511.6,0.003740,0.002300,0.052215,0.000481,  15.138
   511.8,0.003743,0.002300,0.052234,0.000468,  15.143
   512.0,0.003740,0.002307,0.052227,0.000445,  15.139
   512.2,0.003741,0.002302,0.052263,0.000481,  15.143
   512.4,0.003744,0.002298,0.052272,0.000468,  15.139
   512.6,0.003741,0.002302,0.052282,0.000481,  15.141
   512.8,0.003738,0.002299,0.052282,0.000481,  15.138
   513.0,0.003738,0.002297,0.052239,0.000504,  15.136
   513.2,0.003734,0.002300,0.052187,0.000481,  15.139
   513.4,0.003738,0.002300,0.052161,0.000481,  15.138
   513.6,0.003735,0.002298,0.052128,0.000468,  15.133
   513.8,0.003731,0.002294,0.052111,0.000445,  15.132
   514.0,0.003728,0.002297,0.052071,0.000481,  15.134
   514.2,0.003726,0.002290,0.052062,0.000468,  15.132
   514.4,0.003726,0.002288,0.052036,0.000445,  15.129
   514.6,0.003719,0.002286,0.052019,0.000481,  15.134
   514.8,0.003723,0.002287,0.051993,0.000468,  15.132
   515.0,0.003723,0.002289,0.051941,0.000432,  15.132
   515.2,0.003719,0.002287,0.051286,0.000432,  15.130
   515.4,0.003723,0.002286,0.050327,0.000396,  15.130
   515.6,0.003723,0.002290,0.049066,0.000432,  15.125
   515.8,0.003719,0.002290,0.049033,0.000432,  15.124
   516.0,0.003723,0.002292,0.049455,0.000432,  15.127
   516.2,0.003723,0.002299,0.050344,0.000445,  15.131
   516.4,0.003722,0.002299,0.050624,0.000423,  15.121
   516.6,0.003722,0.002300,0.050803,0.000410,  15.124
   516.8,0.003724,0.002309,0.050937,0.000445,  15.127
   517.0,0.003724,0.002303,0.050970,0.000423,  15.123
   517.2,0.003724,0.002306,0.051183,0.000423,  15.124
   517.4,0.003727,0.002312,0.051371,0.000459,  15.124
   517.6,0.003727,0.002307,0.051577,0.000436,  15.118
   517.8,0.003734,0.002312,0.051679,0.000436,  15.123
   518.0,0.003737,0.002312,0.051719,0.000459,  15.117
   518.2,0.003727,0.002312,0.051687,0.000436,  15.124
   518.4,0.003731,0.002309,0.051730,0.000472,  15.122
   518.6,0.003731,0.002308,0.051766,0.000494,  15.122
   518.8,0.003724,0.002306,0.051785,0.000472,  15.118
   519.0,0.003728,0.002300,0.051794,0.000508,  15.123
   519.2,0.003731,0.002303,0.051811,0.000494,  15.123
   519.4,0.003724,0.002306,0.051794,0.000472,  15.118
   519.6,0.003731,0.002301,0.051813,0.000494,  15.122
   519.8,0.003731,0.002304,0.051849,0.000481,  15.122
   520.0,0.003724,0.002307,0.051875,0.000459,  15.118
   520.2,0.003728,0.002299,0.051877,0.000481,  15.122
   520.4,0.003728,0.002305,0.051894,0.000481,  15.123
   520.6,0.003719,0.002305,0.051884,0.000459,  15.119
   520.8,0.003720,0.002298,0.051877,0.000481,  15.121
   521.0,0.003720,0.002296,0.051887,0.000481,  15.123
   521.2,0.003713,0.002296,0.051880,0.000459,  15.122
   521.4,0.003720,0.002293,0.051379,0.000494,  15.121
   521.6,0.003720,0.002296,0.050631,0.000494,  15.118
   521.8,0.003716,0.002301,0.049622,0.000472,  15.121
   522.0,0.003716,0.002300,0.049066,0.000494,  15.120
   522.2,0.003716,0.002299,0.048626,0.000481,  15.123
   522.4,0.003719,0.002302,0.048270,0.000459,  15.121
   522.6,0.003726,0.002299,0.048506,0.000481,  15.125
   522.8,0.003726,0.002303,0.049057,0.000481,  15.121
   523.0,0.003726,0.002306,0.049954,0.000459,  15.125
   523.2,0.003722,0.002302,0.050335,0.000481,  15.124
   523.4,0.003726,0.002302,0.050605,0.000468,  15.122
   523.6,0.003719,0.002306,0.050759,0.000445,  15.123
   523.8,0.003719,0.002299,0.050997,0.000481,  15.121
   524.0,0.003720,0.002301,0.051202,0.000481,  15.122
   524.2,0.003717,0.002301,0.051391,0.000459,  15.125
   524.4,0.003710,0.002301,0.051502,0.000481,  15.120
   524.6,0.003714,0.002300,0.051528,0.000481,  15.122
   524.8,0.003714,0.002294,0.051526,0.000481,  15.123
   525.0,0.003704,0.002294,0.051526,0.000445,  15.123
   525.2,0.003704,0.002292,0.051483,0.000459,  15.122
   525.4,0.003707,0.002290,0.051422,0.000481,  15.119
   525.6,0.003704,0.002283,0.051438,0.000445,  15.124
   525.8,0.003704,0.002281,0.051438,0.000481,  15.124
   526.0,0.003707,0.002281,0.051448,0.000481,  15.123
   526.2,0.003701,0.002274,0.051474,0.000459,  15.124
   526.4,0.003705,0.002275,0.051526,0.000481,  15.124
   526.6,0.003705,0.002278,0.051561,0.000481,  15.124
   526.8,0.003705,0.002276,0.051623,0.000494,  15.121
   527.0,0.003709,0.002274,0.051351,0.000481,  15.124
   527.2,0.003709,0.002284,0.050976,0.000517,  15.123
   527.4,0.003712,0.002284,0.050450,0.000494,  15.123
   527.6,0.003709,0.002279,0.050417,0.000481,  15.121
   527.8,0.003709,0.002284,0.050545,0.000481,  15.122
   528.0,0.003712,0.002284,0.050841,0.000459,  15.124
   528.2,0.003709,0.002281,0.050606,0.000481,  15.125
   528.4,0.003709,0.002276,0.050199,0.000481,  15.127
   528.6,0.003706,0.002278,0.049606,0.000459,  15.125
   528.8,0.003700,0.002278,0.049667,0.000481,  15.123
   529.0,0.003700,0.002276,0.049957,0.000481,  15.123
   529.2,0.003700,0.002279,0.050474,0.000459,  15.127
   529.4,0.003700,0.002276,0.050644,0.000481,  15.126
   529.6,0.003700,0.002278,0.050712,0.000481,  15.122
   529.8,0.003693,0.002280,0.050703,0.000459,  15.123
   530.0,0.003693,0.002275,0.050797,0.000481,  15.127
   530.2,0.003693,0.002278,0.050889,0.000481,  15.127
   530.4,0.003689,0.002276,0.050974,0.000459,  15.121
   530.6,0.003696,0.002271,0.051009,0.000481,  15.120
   530.8,0.003696,0.002276,0.051000,0.000481,  15.123
   531.0,0.003689,0.002274,0.050974,0.000459,  15.124
   531.2,0.003693,0.002267,0.051009,0.000481,  15.124
   531.4,0.003690,0.002272,0.051045,0.000481,  15.122
   531.6,0.003693,0.002270,0.051113,0.000459,  15.121
   531.8,0.003690,0.002267,0.051123,0.000481,  15.125
   532.0,0.003697,0.002267,0.051116,0.000468,  15.124
   532.2,0.003693,0.002264,0.051106,0.000445,  15.122
   532.4,0.003697,0.002262,0.051097,0.000481,  15.122
   532.6,0.003694,0.002262,0.051087,0.000468,  15.124
   532.8,0.003697,0.002264,0.051045,0.000445,  15.121
   533.0,0.003697,0.002261,0.051019,0.000481,  15.117
   533.2,0.003694,0.002262,0.050983,0.000468,  15.123
   533.4,0.003700,0.002271,0.050908,0.000468,  15.122
   533.6,0.003693,0.002272,0.050953,0.000432,  15.113
   533.8,0.003693,0.002275,0.051040,0.000445,  15.116
   534.0,0.003696,0.002282,0.051187,0.000481,  15.117
   534.2,0.003692,0.002277,0.051258,0.000445,  15.117
   534.4,0.003696,0.002279,0.051310,0.000481,  15.115
   534.6,0.003696,0.002285,0.051369,0.000481,  15.117
   534.8,0.003699,0.002287,0.051371,0.000459,  15.116
   535.0,0.003706,0.002283,0.051345,0.000481,  15.114
   535.2,0.003706,0.002282,0.051277,0.000481,  15.112
   535.4,0.003706,0.002284,0.051251,0.000459,  15.113
   535.6,0.003706,0.002281,0.051211,0.000481,  15.108
   535.8,0.003706,0.002277,0.051215,0.000468,  15.113
   536.0,0.003706,0.002274,0.051206,0.000445,  15.111
   536.2,0.003706,0.002271,0.051163,0.000481,  15.115
   536.4,0.003706,0.002282,0.051121,0.000468,  15.114
   536.6,0.003709,0.002281,0.051085,0.000445,  15.109
   536.8,0.003709,0.002280,0.051154,0.000481,  15.111
   537.0,0.003712,0.002278,0.051274,0.000481,  15.111
   537.2,0.003712,0.002272,0.051437,0.000459,  15.111
   537.4,0.003712,0.002275,0.051447,0.000481,  15.111
   537.6,0.003715,0.002270,0.051369,0.000481,  15.111
   537.8,0.003705,0.002273,0.051222,0.000459,  15.112
   538.0,0.003705,0.002272,0.051196,0.000481,  15.114
   538.2,0.003708,0.002277,0.051196,0.000481,  15.109
   538.4,0.003701,0.002279,0.051213,0.000459,  15.109
   538.6,0.003708,0.002281,0.051161,0.000481,  15.108
   538.8,0.003711,0.002283,0.051099,0.000481,  15.111
   539.0,0.003711,0.002281,0.051021,0.000459,  15.109
   539.2,0.003715,0.002283,0.051038,0.000481,  15.109
   539.4,0.003718,0.002283,0.051057,0.000481,  15.112
   539.6,0.003718,0.002283,0.051116,0.000459,  15.112
   539.8,0.003715,0.002285,0.051116,0.000494,  15.115
   540.0,0.003715,0.002285,0.051106,0.000494,  15.112
   540.2,0.003711,0.002290,0.051071,0.000472,  15.113
   540.4,0.003718,0.002285,0.051123,0.000508,  15.111
   540.6,0.003718,0.002290,0.051217,0.000494,  15.115
   540.8,0.003714,0.002291,0.051338,0.000472,  15.115
   541.0,0.003718,0.002288,0.051354,0.000508,  15.113
   541.2,0.003718,0.002293,0.051302,0.000494,  15.114
   541.4,0.003721,0.002295,0.051208,0.000472,  15.114
   541.6,0.003721,0.002294,0.051215,0.000508,  15.114
   541.8,0.003724,0.002297,0.051215,0.000494,  15.113
   542.0,0.003727,0.002302,0.051231,0.000494,  15.111
   542.2,0.003730,0.002294,0.051316,0.000459,  15.116
   542.4,0.003732,0.002300,0.051387,0.000459,  15.117
   542.6,0.003735,0.002299,0.051498,0.000494,  15.119
   542.8,0.003735,0.002296,0.051524,0.000459,  15.116
   543.0,0.003732,0.002296,0.051508,0.000481,  15.118
   543.2,0.003735,0.002299,0.051463,0.000517,  15.118
   543.4,0.003728,0.002294,0.051463,0.000530,  15.118
   543.6,0.003731,0.002297,0.051463,0.000481,  15.121
   543.8,0.003731,0.002301,0.051463,0.000517,  15.120
   544.0,0.003724,0.002296,0.051463,0.000530,  15.121
   544.2,0.003728,0.002296,0.051505,0.000481,  15.121
   544.4,0.003728,0.002301,0.051531,0.000517,  15.120
   544.6,0.003731,0.002300,0.051600,0.000530,  15.123
   544.8,0.003735,0.002299,0.051574,0.000481,  15.124
   545.0,0.003735,0.002297,0.051496,0.000517,  15.120
   545.2,0.003728,0.002294,0.051382,0.000530,  15.126
   545.4,0.003726,0.002294,0.051000,0.000481,  15.122
   545.6,0.003726,0.002298,0.050465,0.000517,  15.126
   545.8,0.003719,0.002301,0.049768,0.000530,  15.125
   546.0,0.003726,0.002296,0.049710,0.000481,  15.126
   546.2,0.003726,0.002296,0.049895,0.000517,  15.122
   546.4,0.003719,0.002293,0.050293,0.000530,  15.123
   546.6,0.003723,0.002289,0.050462,0.000481,  15.123
   546.8,0.003720,0.002292,0.050615,0.000517,  15.126
   547.0,0.003713,0.002296,0.050769,0.000530,  15.130
   547.2,0.003717,0.002293,0.050872,0.000481,  15.127
   547.4,0.003717,0.002292,0.050990,0.000517,  15.131
   547.6,0.003713,0.002291,0.051059,0.000494,  15.127
   547.8,0.003719,0.002291,0.051085,0.000481,  15.128
   548.0,0.003722,0.002292,0.051075,0.000481,  15.129
   548.2,0.003719,0.002293,0.051030,0.000459,  15.125
   548.4,0.003713,0.002290,0.051092,0.000481,  15.131
   548.6,0.003713,0.002284,0.051203,0.000481,  15.132
   548.8,0.003713,0.002286,0.051356,0.000459,  15.133
   549.0,0.003713,0.002286,0.051434,0.000481,  15.130
   549.2,0.003713,0.002287,0.051503,0.000468,  15.133
   549.4,0.003713,0.002291,0.051555,0.000445,  15.132
   549.6,0.003713,0.002288,0.051460,0.000481,  15.129
   549.8,0.003710,0.002292,0.051271,0.000468,  15.131
   550.0,0.003707,0.002297,0.050978,0.000468,  15.131
   550.2,0.003707,0.002297,0.051021,0.000432,  15.133
   550.4,0.003710,0.002299,0.051160,0.000445,  15.131
   550.6,0.003710,0.002298,0.051418,0.000481,  15.134
   550.8,0.003710,0.002292,0.051512,0.000445,  15.131
   551.0,0.003710,0.002293,0.051564,0.000481,  15.127
   551.2,0.003713,0.002296,0.051597,0.000481,  15.132
   551.4,0.003716,0.002293,0.051597,0.000459,  15.134
   551.6,0.003716,0.002289,0.051522,0.000494,  15.134
   551.8,0.003719,0.002293,0.051444,0.000494,  15.134
   552.0,0.003719,0.002292,0.051411,0.000472,  15.134
   552.2,0.003713,0.002284,0.051418,0.000508,  15.131
   552.4,0.003713,0.002288,0.051411,0.000494,  15.134
   552.6,0.003716,0.002285,0.051427,0.000472,  15.129
   552.8,0.003719,0.002290,0.051392,0.000494,  15.131
   553.0,0.003719,0.002296,0.051330,0.000481,  15.135
   553.2,0.003719,0.002293,0.051219,0.000459,  15.132
   553.4,0.003719,0.002296,0.051262,0.000481,  15.129
   553.6,0.003719,0.002296,0.051356,0.000481,  15.129
   553.8,0.003719,0.002293,0.051493,0.000494,  15.129
   554.0,0.003719,0.002288,0.051552,0.000481,  15.129
   554.2,0.003719,0.002292,0.051552,0.000504,  15.132
   554.4,0.003719,0.002292,0.051519,0.000517,  15.128
   554.6,0.003716,0.002290,0.051538,0.000481,  15.130
   554.8,0.003713,0.002294,0.051564,0.000504,  15.129
   555.0,0.003710,0.002294,0.051574,0.000517,  15.129
   555.2,0.003704,0.002289,0.051590,0.000481,  15.130
   555.4,0.003704,0.002288,0.051597,0.000504,  15.131
   555.6,0.003701,0.002292,0.051604,0.000517,  15.125
   555.8,0.003704,0.002290,0.051578,0.000481,  15.126
   556.0,0.003707,0.002293,0.051519,0.000504,  15.129
   556.2,0.003704,0.002291,0.051434,0.000517,  15.130
   556.4,0.003704,0.002291,0.051444,0.000481,  15.129
   556.6,0.003704,0.002292,0.051486,0.000504,  15.129
   556.8,0.003704,0.002287,0.051538,0.000517,  15.129
   557.0,0.003704,0.002284,0.051564,0.000481,  15.129
   557.2,0.003701,0.002290,0.051557,0.000504,  15.130
   557.4,0.003701,0.002289,0.051564,0.000517,  15.130
   557.6,0.003701,0.002287,0.051590,0.000481,  15.127
   557.8,0.003698,0.002284,0.051616,0.000504,  15.128
   558.0,0.003698,0.002286,0.051642,0.000481,  15.130
   558.2,0.003695,0.002284,0.051609,0.000481,  15.129
   558.4,0.003692,0.002282,0.051574,0.000468,  15.131
   558.6,0.003692,0.002280,0.051496,0.000468,  15.131
   558.8,0.003689,0.002281,0.050833,0.000432,  15.128
   559.0,0.003693,0.002282,0.049858,0.000468,  15.131
   559.2,0.003690,0.002281,0.048605,0.000504,  15.131
   559.4,0.003683,0.002278,0.048579,0.000468,  15.130
   559.6,0.003690,0.002277,0.049017,0.000504,  15.124
   559.8,0.003687,0.002269,0.049881,0.000504,  15.132
   560.0,0.003680,0.002263,0.050161,0.000517,  15.132
   560.2,0.003683,0.002262,0.050366,0.000481,  15.131
   560.4,0.003683,0.002265,0.050510,0.000504,  15.131
   560.6,0.003683,0.002260,0.050562,0.000517,  15.132
   560.8,0.003687,0.002262,0.050665,0.000481,  15.131
   561.0,0.003690,0.002261,0.050750,0.000517,  15.135
   561.2,0.003677,0.002256,0.050835,0.000530,  15.136
   561.4,0.003678,0.002263,0.050922,0.000481,  15.129
   561.6,0.003681,0.002261,0.051007,0.000517,  15.127
   561.8,0.003671,0.002258,0.051092,0.000530,  15.128
   562.0,0.003678,0.002262,0.051161,0.000481,  15.127
   562.2,0.003678,0.002262,0.051203,0.000517,  15.131
   562.4,0.003668,0.002262,0.051229,0.000530,  15.132
   562.6,0.003672,0.002257,0.051229,0.000481,  15.134
   562.8,0.003679,0.002265,0.051210,0.000504,  15.139
   563.0,0.003679,0.002263,0.051125,0.000517,  15.135
   563.2,0.003683,0.002260,0.051085,0.000481,  15.131
   563.4,0.003683,0.002257,0.051092,0.000504,  15.134
   563.6,0.003686,0.002257,0.051092,0.000517,  15.130
   563.8,0.003676,0.002252,0.051102,0.000481,  15.130
   564.0,0.003670,0.002257,0.051128,0.000504,  15.132
   564.2,0.003672,0.002263,0.051163,0.000517,  15.134
   564.4,0.003679,0.002262,0.051222,0.000481,  15.130
   564.6,0.003682,0.002265,0.051258,0.000504,  15.130
   564.8,0.003682,0.002269,0.051300,0.000517,  15.132
   565.0,0.003685,0.002269,0.051300,0.000481,  15.129
   565.2,0.003688,0.002265,0.051258,0.000504,  15.130
   565.4,0.003681,0.002268,0.051213,0.000517,  15.129
   565.6,0.003688,0.002265,0.051187,0.000481,  15.128
   565.8,0.003682,0.002265,0.051144,0.000517,  15.129
   566.0,0.003678,0.002271,0.051102,0.000530,  15.131
   566.2,0.003685,0.002269,0.051078,0.000481,  15.129
   566.4,0.003688,0.002273,0.051078,0.000517,  15.129
   566.6,0.003691,0.002276,0.051069,0.000530,  15.129
   566.8,0.003691,0.002276,0.051043,0.000481,  15.127
   567.0,0.003688,0.002281,0.050974,0.000517,  15.126
   567.2,0.003691,0.002287,0.050920,0.000517,  15.128
   567.4,0.003687,0.002287,0.050988,0.000481,  15.128
   567.6,0.003687,0.002291,0.051099,0.000530,  15.127
   567.8,0.003690,0.002291,0.051253,0.000517,  15.130
   568.0,0.003690,0.002293,0.051236,0.000481,  15.128
   568.2,0.003694,0.002291,0.051191,0.000517,  15.132
   568.4,0.003697,0.002293,0.051052,0.000504,  15.131
   568.6,0.003697,0.002293,0.051061,0.000481,  15.131
   568.8,0.003694,0.002286,0.051097,0.000481,  15.129
   569.0,0.003697,0.002290,0.051182,0.000481,  15.134
   569.2,0.003690,0.002290,0.051021,0.000459,  15.133
   569.4,0.003687,0.002286,0.050741,0.000481,  15.133
   569.6,0.003690,0.002287,0.050369,0.000481,  15.133
   569.8,0.003680,0.002280,0.049884,0.000459,  15.137
   570.0,0.003684,0.002284,0.049952,0.000481,  15.135
   570.2,0.003687,0.002281,0.050190,0.000481,  15.134
   570.4,0.003677,0.002273,0.050564,0.000459,  15.131
   570.6,0.003681,0.002273,0.050701,0.000481,  15.134
   570.8,0.003684,0.002270,0.050769,0.000481,  15.135
   571.0,0.003674,0.002270,0.050795,0.000459,  15.136
   571.2,0.003678,0.002270,0.050847,0.000481,  15.135
   571.4,0.003681,0.002270,0.050896,0.000481,  15.136
   571.6,0.003678,0.002271,0.050896,0.000459,  15.135
   571.8,0.003685,0.002278,0.050974,0.000481,  15.135
   572.0,0.003688,0.002275,0.051085,0.000481,  15.133
   572.2,0.003685,0.002276,0.051206,0.000459,  15.134
   572.4,0.003685,0.002274,0.051258,0.000481,  15.136
   572.6,0.003685,0.002279,0.051277,0.000481,  15.135
   572.8,0.003678,0.002274,0.051284,0.000459,  15.132
   573.0,0.003675,0.002272,0.051274,0.000481,  15.136
   573.2,0.003675,0.002267,0.051199,0.000481,  15.135
   573.4,0.003675,0.002268,0.051088,0.000459,  15.129
   573.6,0.003676,0.002266,0.051064,0.000481,  15.128
   573.8,0.003676,0.002266,0.051090,0.000481,  15.127
   574.0,0.003676,0.002271,0.051116,0.000459,  15.125
   574.2,0.003673,0.002270,0.051109,0.000481,  15.127
   574.4,0.003673,0.002268,0.051102,0.000481,  15.129
   574.6,0.003667,0.002261,0.051100,0.000459,  15.125
   574.8,0.003664,0.002258,0.051100,0.000481,  15.125
   575.0,0.003661,0.002256,0.051093,0.000481,  15.124
   575.2,0.003657,0.002257,0.051076,0.000494,  15.121
   575.4,0.003661,0.002258,0.051060,0.000481,  15.123
   575.6,0.003668,0.002251,0.051043,0.000517,  15.115
   575.8,0.003671,0.002252,0.051001,0.000530,  15.115
   576.0,0.003671,0.002252,0.050975,0.000481,  15.113
   576.2,0.003668,0.002260,0.050925,0.000517,  15.114
   576.4,0.003671,0.002261,0.050883,0.000517,  15.113
   576.6,0.003671,0.002258,0.050874,0.000481,  15.110
   576.8,0.003668,0.002265,0.050848,0.000530,  15.113
   577.0,0.003673,0.002267,0.050831,0.000517,  15.113
   577.2,0.003673,0.002269,0.050824,0.000481,  15.112
   577.4,0.003673,0.002269,0.050822,0.000517,  15.109
   577.6,0.003676,0.002270,0.050812,0.000517,  15.109
   577.8,0.003670,0.002264,0.050805,0.000530,  15.112
   578.0,0.003667,0.002267,0.050838,0.000481,  15.112
   578.2,0.003667,0.002267,0.050831,0.000517,  15.107
   578.4,0.003666,0.002267,0.050857,0.000530,  15.110
   578.6,0.003675,0.002264,0.050876,0.000481,  15.108
   578.8,0.003675,0.002265,0.050886,0.000517,  15.110
   579.0,0.003666,0.002270,0.050928,0.000530,  15.108
   579.2,0.003667,0.002268,0.050921,0.000481,  15.111
   579.4,0.003671,0.002258,0.050921,0.000504,  15.107
   579.6,0.003672,0.002261,0.050902,0.000517,  15.106
   579.8,0.003680,0.002263,0.050902,0.000481,  15.109
   580.0,0.003680,0.002265,0.050928,0.000504,  15.106
   580.2,0.003683,0.002265,0.050961,0.000517,  15.107
   580.4,0.003675,0.002265,0.050723,0.000481,  15.107
   580.6,0.003673,0.002268,0.050341,0.000517,  15.109
   580.8,0.003676,0.002263,0.049807,0.000530,  15.106
   581.0,0.003676,0.002261,0.049791,0.000481,  15.109
   581.2,0.003672,0.002260,0.049969,0.000517,  15.106
   581.4,0.003668,0.002264,0.050318,0.000530,  15.109
   581.6,0.003672,0.002262,0.050259,0.000481,  15.107
   581.8,0.003675,0.002262,0.050096,0.000517,  15.108
   582.0,0.003668,0.002267,0.049807,0.000530,  15.107
   582.2,0.003671,0.002270,0.049875,0.000481,  15.106
   582.4,0.003671,0.002272,0.050054,0.000517,  15.105
   582.6,0.003671,0.002271,0.050351,0.000530,  15.104
   582.8,0.003668,0.002271,0.049911,0.000481,  15.100
   583.0,0.003668,0.002276,0.049157,0.000504,  15.109
   583.2,0.003671,0.002271,0.048086,0.000517,  15.103
   583.4,0.003668,0.002269,0.048138,0.000481,  15.106
   583.6,0.003666,0.002270,0.048559,0.000504,  15.104
   583.8,0.003668,0.002272,0.049387,0.000517,  15.103
   584.0,0.003666,0.002272,0.049513,0.000504,  15.102
   584.2,0.003666,0.002267,0.049488,0.000526,  15.105
   584.4,0.003666,0.002263,0.049283,0.000539,  15.105
   584.6,0.003666,0.002263,0.049403,0.000539,  15.105
   584.8,0.003666,0.002262,0.049614,0.000539,  15.103
   585.0,0.003666,0.002266,0.049894,0.000553,  15.102
   585.2,0.003666,0.002261,0.050056,0.000553,  15.099
   585.4,0.003670,0.002258,0.050193,0.000539,  15.102
   585.6,0.003670,0.002260,0.050327,0.000539,  15.100
   585.8,0.003663,0.002258,0.050363,0.000504,  15.103
   586.0,0.003667,0.002260,0.050360,0.000504,  15.099
   586.2,0.003664,0.002260,0.050315,0.000504,  15.099
   586.4,0.003654,0.002258,0.050351,0.000468,  15.098
   586.6,0.003655,0.002254,0.050419,0.000504,  15.097
   586.8,0.003655,0.002252,0.050497,0.000504,  15.100
   587.0,0.003648,0.002249,0.050575,0.000504,  15.098
   587.2,0.003655,0.002246,0.050636,0.000504,  15.098
   587.4,0.003658,0.002253,0.050714,0.000513,  15.093
   587.6,0.003651,0.002251,0.050714,0.000513,  15.092
   587.8,0.003655,0.002251,0.050671,0.000526,  15.092
   588.0,0.003658,0.002248,0.050610,0.000513,  15.095
   588.2,0.003658,0.002245,0.050497,0.000513,  15.097
   588.4,0.003662,0.002248,0.050539,0.000526,  15.095
   588.6,0.003665,0.002250,0.050591,0.000513,  15.097
   588.8,0.003665,0.002248,0.050678,0.000526,  15.097
   589.0,0.003662,0.002248,0.050721,0.000504,  15.103
   589.2,0.003665,0.002255,0.050740,0.000504,  15.096
   589.4,0.003658,0.002255,0.050723,0.000517,  15.098
   589.6,0.003655,0.002259,0.050834,0.000481,  15.098
   589.8,0.003658,0.002256,0.050964,0.000504,  15.097
   590.0,0.003654,0.002257,0.051120,0.000517,  15.099
   590.2,0.003654,0.002254,0.051162,0.000481,  15.102
   590.4,0.003657,0.002260,0.051153,0.000504,  15.098
   590.6,0.003657,0.002257,0.051051,0.000517,  15.100
   590.8,0.003654,0.002257,0.050950,0.000481,  15.100
   591.0,0.003657,0.002259,0.050820,0.000504,  15.100
   591.2,0.003657,0.002263,0.050638,0.000481,  15.099
   591.4,0.003654,0.002263,0.050612,0.000481,  15.106
   591.6,0.003660,0.002263,0.050638,0.000468,  15.101
   591.8,0.003660,0.002263,0.050714,0.000481,  15.100
   592.0,0.003667,0.002260,0.050740,0.000481,  15.100
   592.2,0.003670,0.002255,0.050740,0.000504,  15.102
   592.4,0.003663,0.002257,0.050749,0.000517,  15.104
   592.6,0.003667,0.002257,0.050733,0.000468,  15.101
   592.8,0.003667,0.002253,0.050730,0.000490,  15.103
   593.0,0.003667,0.002258,0.050678,0.000504,  15.108
   593.2,0.003670,0.002261,0.050695,0.000455,  15.105
   593.4,0.003673,0.002259,0.050737,0.000490,  15.101
   593.6,0.003667,0.002252,0.050780,0.000504,  15.107
   593.8,0.003673,0.002247,0.050860,0.000455,  15.105
   594.0,0.003673,0.002251,0.050979,0.000490,  15.106
   594.2,0.003673,0.002254,0.051097,0.000490,  15.104
   594.4,0.003676,0.002249,0.051132,0.000468,  15.105
   594.6,0.003676,0.002258,0.051137,0.000468,  15.105
   594.8,0.003676,0.002261,0.051095,0.000455,  15.104
   595.0,0.003675,0.002258,0.050876,0.000432,  15.110
   595.2,0.003675,0.002260,0.050527,0.000455,  15.109
   595.4,0.003675,0.002262,0.050035,0.000455,  15.108
   595.6,0.003671,0.002262,0.049995,0.000432,  15.110
   595.8,0.003675,0.002261,0.050132,0.000468,  15.109
   596.0,0.003678,0.002269,0.050414,0.000468,  15.109
   596.2,0.003671,0.002269,0.050509,0.000445,  15.107
   596.4,0.003678,0.002266,0.050596,0.000481,  15.108
