Run Name,22% c group 10 march 17
Run Date,06:07:22 PM   03-17-14
Method Name,22% c group 10 march 17.7
Export Format Version, 1.00
Method ID, 1961
Points/Second, 5.00
Number of Records,   2254
Offset from Run Start Time,00:00:00
Run End Time,00:07:35
Time,Second
QuadTec 1, (280.0 nm), AU
QuadTec 2, (260.0 nm), AU
Gradient Pump,%B
QuadTec 3, (214.0 nm), AU
QuadTec 4, (405.0 nm), AU
Conductivity,mS/cm
Trace 6,<Not Available>
GP Pressure,PSI
Volume,<Not Selected>
Fraction,<Not Available>
Time,QuadTec 1,QuadTec 2,Gradient Pump,QuadTec 3,QuadTec 4,Conductivity,GP Pressure
     0.0,0.000532,0.000307, 22,0.005343,0.000033,  26.504,   87
     0.2,0.000528,0.000312, 22,0.005331,-0.000003,  26.503,   88
     0.4,0.000530,0.000312, 22,0.005325,0.000033,  26.507,   89
     0.6,0.000542,0.000307, 22,0.005314,0.000033,  26.502,   88
     0.8,0.000539,0.000307, 22,0.005344,-0.000003,  26.503,   87
     1.0,0.000544,0.000304, 22,0.005379,0.000046,  26.501,   89
     1.2,0.000369,0.000304, 22,0.005414,0.000046,  26.504,   90
     1.4,0.000349,0.000000, 22,0.005414,0.000010,  26.500,   89
     1.6,0.000356,0.000000, 22,0.005403,0.000059,  26.504,   87
     1.8,0.000354,0.000000, 22,0.005367,0.000046,  26.499,   87
     2.0,0.000000,0.000000, 22,0.005811,0.000010,  26.501,   86
     2.2,0.000000,0.000000, 22,0.006493,0.000059,  26.497,   86
     2.4,0.000000,0.000000, 22,0.003867,0.000000,  26.501,   86
     2.6,0.000000,0.000000, 22,0.003867,0.000000,  26.498,   87
     2.8,0.000000,0.000000, 22,0.003867,0.000000,  26.500,   89
     3.0,0.000000,0.000000, 22,0.003867,0.000000,  26.496,   87
     3.2,0.000000,0.000000, 22,0.003867,0.000000,  26.499,   86
     3.4,0.000000,0.000000, 22,0.000000,0.000000,  26.502,   86
     3.6,0.000000,0.000000, 22,0.000000,0.000000,  26.499,   86
     3.8,0.000000,0.000000, 22,0.000000,0.000000,  26.500,   89
     4.0,0.000000,0.000000, 22,0.000000,0.000000,  26.498,   91
     4.2,0.000000,0.000000, 22,0.000000,0.000000,  26.497,   90
     4.4,0.000000,0.000000, 22,0.000000,0.000000,  26.499,   88
     4.6,0.000000,0.000000, 22,0.000000,0.000000,  26.498,   87
     4.8,0.000000,0.000000, 22,0.000000,0.000000,  26.496,   87
     5.0,0.000000,0.000000, 22,0.000000,0.000000,  26.496,   87
     5.2,0.000000,0.000000, 22,0.000000,0.000000,  26.500,   87
     5.4,0.000016,0.000000, 22,0.000000,0.000000,  26.499,   87
     5.6,0.000006,0.000004, 22,0.000000,0.000000,  26.502,   87
     5.8,-0.000001,-0.000001, 22,0.000000,0.000000,  26.496,   87
     6.0,0.000006,-0.000003, 22,0.000000,0.000000,  26.499,   86
     6.2,-0.000001,-0.000002, 22,0.000000,0.000000,  26.498,   87
     6.4,0.000006,-0.000003, 22,0.000000,0.000000,  26.500,   88
     6.6,0.000010,0.000001, 22,0.000000,0.000000,  26.500,   88
     6.8,0.000010,0.000007, 22,0.000000,-0.000010,  26.494,   89
     7.0,0.000006,0.000008, 22,-0.000182,-0.000033,  26.495,   88
     7.2,0.000012,0.000007, 22,-0.000229,-0.000069,  26.494,   88
     7.4,0.000012,0.000005, 22,-0.000270,-0.000033,  26.489,   87
     7.6,0.000006,0.000004, 22,-0.000275,-0.000056,  26.492,   87
     7.8,0.000012,0.000008, 22,-0.000287,-0.000069,  26.496,   87
     8.0,0.000006,0.000010, 22,-0.000275,-0.000033,  26.493,   87
     8.2,0.000002,0.000012, 22,-0.000258,-0.000056,  26.493,   87
     8.4,0.000005,0.000014, 22,-0.000264,-0.000069,  26.492,   86
     8.6,0.000005,0.000016, 22,-0.000269,-0.000033,  26.497,   86
     8.8,0.000007,0.000018, 22,-0.000310,-0.000056,  26.494,   86
     9.0,0.000010,0.000020, 22,-0.000293,-0.000069,  26.493,   88
     9.2,0.000005,0.000018, 22,-0.000245,-0.000033,  26.493,   90
     9.4,0.000002,0.000016, 22,-0.000186,-0.000056,  26.497,   89
     9.6,0.000008,0.000015, 22,-0.000340,-0.000069,  26.496,   88
     9.8,0.000010,0.000014, 22,-0.000617,-0.000033,  26.494,   89
    10.0,0.000003,0.000009, 22,-0.001001,-0.000056,  26.498,   89
    10.2,0.000007,0.000009, 22,-0.001007,-0.000069,  26.496,   89
    10.4,0.000007,0.000014, 22,-0.000883,-0.000033,  26.498,   88
    10.6,0.000003,0.000014, 22,-0.000641,-0.000033,  26.496,   88
    10.8,0.000000,0.000010, 22,-0.000576,-0.000069,  26.498,   87
    11.0,-0.000002,0.000006, 22,-0.000535,-0.000033,  26.495,   88
    11.2,-0.000006,0.000006, 22,-0.000523,-0.000033,  26.496,   88
    11.4,-0.000009,0.000001, 22,-0.000493,-0.000033,  26.499,   87
    11.6,-0.000005,-0.000001, 22,-0.000452,-0.000046,  26.500,   86
    11.8,-0.000012,-0.000003, 22,-0.000428,-0.000046,  26.501,   89
    12.0,-0.000014,-0.000007, 22,-0.000387,-0.000082,  26.504,   92
    12.2,-0.000011,-0.000008, 22,-0.000346,-0.000069,  26.501,   90
    12.4,-0.000020,-0.000010, 22,-0.000287,-0.000046,  26.500,   88
    12.6,-0.000019,-0.000015, 22,-0.000240,-0.000082,  26.500,   88
    12.8,-0.000017,-0.000012, 22,-0.000234,-0.000069,  26.501,   87
    13.0,-0.000024,-0.000014, 22,-0.000246,-0.000046,  26.501,   87
    13.2,-0.000023,-0.000014, 22,-0.000288,-0.000082,  26.501,   87
    13.4,-0.000023,-0.000018, 22,-0.000317,-0.000069,  26.503,   88
    13.6,-0.000027,-0.000018, 22,-0.000347,-0.000046,  26.502,   89
    13.8,-0.000030,-0.000023, 22,-0.000370,-0.000082,  26.503,   87
    14.0,-0.000030,-0.000023, 22,-0.000382,-0.000046,  26.503,   85
    14.2,-0.000033,-0.000025, 22,-0.000382,-0.000023,  26.502,   86
    14.4,-0.000036,-0.000023, 22,-0.000377,-0.000059,  26.500,   87
    14.6,-0.000036,-0.000027, 22,-0.000400,-0.000059,  26.500,   88
    14.8,-0.000036,-0.000026, 22,-0.000430,-0.000059,  26.500,   90
    15.0,-0.000036,-0.000024, 22,-0.000465,-0.000095,  26.495,   89
    15.2,-0.000039,-0.000029, 22,-0.000459,-0.000095,  26.503,   88
    15.4,-0.000039,-0.000029, 22,-0.000448,-0.000059,  26.501,   89
    15.6,-0.000039,-0.000027, 22,-0.000413,-0.000095,  26.500,   89
    15.8,-0.000044,-0.000027, 22,-0.000430,-0.000095,  26.503,   89
    16.0,-0.000047,-0.000029, 22,-0.000501,-0.000059,  26.499,   88
    16.2,-0.000047,-0.000029, 22,-0.000596,-0.000095,  26.499,   88
    16.4,-0.000050,-0.000029, 22,-0.000637,-0.000095,  26.500,   88
    16.6,-0.000050,-0.000033, 22,-0.000679,-0.000059,  26.503,   87
    16.8,-0.000047,-0.000035, 22,-0.000726,-0.000095,  26.508,   86
    17.0,-0.000056,-0.000037, 22,-0.000690,-0.000095,  26.502,   87
    17.2,-0.000056,-0.000041, 22,-0.000614,-0.000059,  26.503,   87
    17.4,-0.000056,-0.000041, 22,-0.000532,-0.000095,  26.508,   88
    17.6,-0.000056,-0.000040, 22,-0.000526,-0.000095,  26.501,   89
    17.8,-0.000050,-0.000039, 22,-0.000568,-0.000059,  26.506,   88
    18.0,-0.000043,-0.000034, 22,-0.000632,-0.000095,  26.502,   87
    18.2,-0.000043,-0.000036, 22,-0.000651,-0.000095,  26.502,   87
    18.4,-0.000046,-0.000043, 22,-0.000668,-0.000059,  26.504,   87
    18.6,-0.000050,-0.000048, 22,-0.000674,-0.000095,  26.503,   85
    18.8,-0.000053,-0.000051, 22,-0.000698,-0.000095,  26.501,   84
    19.0,-0.000051,-0.000049, 22,-0.000703,-0.000095,  26.507,   86
    19.2,-0.000055,-0.000054, 22,-0.000733,-0.000132,  26.502,   88
    19.4,-0.000055,-0.000056, 22,-0.000710,-0.000095,  26.501,   88
    19.6,-0.000049,-0.000047, 22,-0.000657,-0.000095,  26.500,   87
    19.8,-0.000053,-0.000045, 22,-0.000592,-0.000132,  26.499,   87
    20.0,-0.000053,-0.000045, 22,-0.000574,-0.000095,  26.504,   88
    20.2,-0.000050,-0.000043, 22,-0.000569,-0.000095,  26.501,   88
    20.4,-0.000047,-0.000043, 22,-0.000592,-0.000095,  26.505,   89
    20.6,-0.000047,-0.000041, 22,-0.000610,-0.000132,  26.502,   88
    20.8,-0.000047,-0.000042, 22,-0.000627,-0.000095,  26.501,   88
    21.0,-0.000047,-0.000040, 22,-0.000674,-0.000095,  26.504,   88
    21.2,-0.000047,-0.000041, 22,-0.000680,-0.000095,  26.504,   88
    21.4,-0.000050,-0.000037, 22,-0.000674,-0.000095,  26.500,   88
    21.6,-0.000053,-0.000034, 22,-0.000674,-0.000082,  26.503,   88
    21.8,-0.000053,-0.000035, 22,-0.000657,-0.000119,  26.504,   88
    22.0,-0.000053,-0.000033, 22,-0.000693,-0.000069,  26.506,   88
    22.2,-0.000047,-0.000031, 22,-0.000722,-0.000082,  26.507,   88
    22.4,-0.000044,-0.000031, 22,-0.000780,-0.000119,  26.504,   87
    22.6,-0.000042,-0.000030, 22,-0.000892,-0.000069,  26.509,   87
    22.8,-0.000039,-0.000028, 22,-0.001052,-0.000082,  26.505,   87
    23.0,-0.000039,-0.000026, 22,-0.001240,-0.000119,  26.508,   89
    23.2,-0.000042,-0.000029, 22,-0.001258,-0.000069,  26.506,   90
    23.4,-0.000042,-0.000027, 22,-0.001229,-0.000082,  26.506,   89
    23.6,-0.000042,-0.000027, 22,-0.001128,-0.000119,  26.507,   87
    23.8,-0.000038,-0.000027, 22,-0.001075,-0.000069,  26.505,   87
    24.0,-0.000044,-0.000021, 22,-0.001010,-0.000082,  26.505,   86
    24.2,-0.000042,-0.000017, 22,-0.000939,-0.000119,  26.510,   87
    24.4,-0.000038,-0.000020, 22,-0.000887,-0.000069,  26.507,   87
    24.6,-0.000044,-0.000016, 22,-0.000845,-0.000082,  26.511,   86
    24.8,-0.000042,-0.000016, 22,-0.000816,-0.000119,  26.509,   85
    25.0,-0.000035,-0.000021, 22,-0.000786,-0.000069,  26.508,   86
    25.2,-0.000042,-0.000020, 22,-0.000763,-0.000082,  26.509,   86
    25.4,-0.000042,-0.000017, 22,-0.000739,-0.000119,  26.507,   87
    25.6,-0.000035,-0.000021, 22,-0.000698,-0.000082,  26.508,   88
    25.8,-0.000042,-0.000021, 22,-0.000663,-0.000095,  26.505,   88
    26.0,-0.000042,-0.000016, 22,-0.000633,-0.000132,  26.507,   89
    26.2,-0.000035,-0.000016, 22,-0.000615,-0.000095,  26.508,   88
    26.4,-0.000035,-0.000016, 22,-0.000609,-0.000095,  26.508,   87
    26.6,-0.000044,-0.000019, 22,-0.000627,-0.000132,  26.508,   87
    26.8,-0.000044,-0.000019, 22,-0.000609,-0.000095,  26.508,   88
    27.0,-0.000040,-0.000017, 22,-0.000585,-0.000095,  26.508,   87
    27.2,-0.000047,-0.000019, 22,-0.000580,-0.000132,  26.510,   87
    27.4,-0.000043,-0.000024, 22,-0.000592,-0.000082,  26.507,   87
    27.6,-0.000043,-0.000022, 22,-0.000603,-0.000082,  26.508,   87
    27.8,-0.000050,-0.000028, 22,-0.000662,-0.000119,  26.508,   87
    28.0,-0.000047,-0.000028, 22,-0.000828,-0.000069,  26.507,   87
    28.2,-0.000038,-0.000024, 22,-0.001040,-0.000082,  26.507,   90
    28.4,-0.000044,-0.000022, 22,-0.001323,-0.000119,  26.506,   92
    28.6,-0.000044,-0.000022, 22,-0.001440,-0.000069,  26.509,   91
    28.8,-0.000043,-0.000021, 22,-0.001523,-0.000082,  26.505,   89
    29.0,-0.000053,-0.000024, 22,-0.001552,-0.000119,  26.512,   88
    29.2,-0.000053,-0.000021, 22,-0.001482,-0.000069,  26.511,   87
    29.4,-0.000043,-0.000015, 22,-0.001334,-0.000082,  26.507,   87
    29.6,-0.000050,-0.000015, 22,-0.001128,-0.000119,  26.512,   87
    29.8,-0.000053,-0.000019, 22,-0.001034,-0.000069,  26.509,   88
    30.0,-0.000049,-0.000021, 22,-0.000958,-0.000082,  26.509,   88
    30.2,-0.000053,-0.000021, 22,-0.000887,-0.000119,  26.514,   87
    30.4,-0.000058,-0.000026, 22,-0.000799,-0.000069,  26.511,   86
    30.6,-0.000054,-0.000030, 22,-0.000716,-0.000082,  26.514,   86
    30.8,-0.000058,-0.000032, 22,-0.000628,-0.000082,  26.511,   86
    31.0,-0.000061,-0.000032, 22,-0.000616,-0.000105,  26.510,   88
    31.2,-0.000054,-0.000034, 22,-0.000651,-0.000082,  26.517,   91
    31.4,-0.000058,-0.000031, 22,-0.000728,-0.000082,  26.514,   89
    31.6,-0.000061,-0.000035, 22,-0.000857,-0.000082,  26.515,   87
    31.8,-0.000054,-0.000034, 22,-0.000845,-0.000082,  26.510,   87
    32.0,-0.000058,-0.000037, 22,-0.000828,-0.000082,  26.516,   88
    32.2,-0.000054,-0.000033, 22,-0.000781,-0.000119,  26.513,   88
    32.4,-0.000047,-0.000032, 22,-0.000769,-0.000069,  26.515,   88
    32.6,-0.000054,-0.000030, 22,-0.000752,-0.000082,  26.518,   89
    32.8,-0.000047,-0.000030, 22,-0.000734,-0.000119,  26.515,   89
    33.0,-0.000050,-0.000034, 22,-0.000704,-0.000069,  26.514,   88
    33.2,-0.000054,-0.000032, 22,-0.000681,-0.000082,  26.514,   86
    33.4,-0.000045,-0.000030, 22,-0.000681,-0.000119,  26.517,   86
    33.6,-0.000042,-0.000032, 22,-0.000675,-0.000069,  26.514,   86
    33.8,-0.000046,-0.000026, 22,-0.000675,-0.000082,  26.521,   88
    34.0,-0.000045,-0.000021, 22,-0.000693,-0.000119,  26.525,   89
    34.2,-0.000047,-0.000023, 22,-0.000723,-0.000069,  26.522,   88
    34.4,-0.000051,-0.000027, 22,-0.000734,-0.000082,  26.525,   86
    34.6,-0.000047,-0.000025, 22,-0.000757,-0.000119,  26.525,   87
    34.8,-0.000047,-0.000023, 22,-0.000781,-0.000069,  26.526,   88
    35.0,-0.000054,-0.000021, 22,-0.000805,-0.000082,  26.526,   87
    35.2,-0.000050,-0.000019, 22,-0.000823,-0.000119,  26.526,   86
    35.4,-0.000053,-0.000021, 22,-0.000787,-0.000069,  26.527,   87
    35.6,-0.000059,-0.000021, 22,-0.000735,-0.000082,  26.528,   88
    35.8,-0.000053,-0.000016, 22,-0.000646,-0.000105,  26.529,   87
    36.0,-0.000053,-0.000018, 22,-0.000616,-0.000069,  26.527,   85
    36.2,-0.000053,-0.000025, 22,-0.000623,-0.000069,  26.529,   86
    36.4,-0.000059,-0.000030, 22,-0.000628,-0.000105,  26.528,   87
    36.6,-0.000050,-0.000030, 22,-0.000616,-0.000069,  26.533,   87
    36.8,-0.000053,-0.000030, 22,-0.000623,-0.000082,  26.534,   88
    37.0,-0.000050,-0.000032, 22,-0.000616,-0.000119,  26.532,   87
    37.2,-0.000053,-0.000036, 22,-0.000634,-0.000069,  26.532,   87
    37.4,-0.000056,-0.000030, 22,-0.000687,-0.000082,  26.533,   88
    37.6,-0.000062,-0.000035, 22,-0.000752,-0.000119,  26.534,   89
    37.8,-0.000056,-0.000038, 22,-0.000782,-0.000069,  26.533,   88
    38.0,-0.000058,-0.000039, 22,-0.000823,-0.000082,  26.533,   87
    38.2,-0.000068,-0.000043, 22,-0.000834,-0.000119,  26.537,   88
    38.4,-0.000064,-0.000045, 22,-0.000846,-0.000069,  26.539,   88
    38.6,-0.000066,-0.000042, 22,-0.000858,-0.000082,  26.540,   88
    38.8,-0.000073,-0.000042, 22,-0.000852,-0.000119,  26.540,   87
    39.0,-0.000069,-0.000047, 22,-0.000846,-0.000069,  26.539,   87
    39.2,-0.000069,-0.000051, 22,-0.000841,-0.000082,  26.539,   88
    39.4,-0.000076,-0.000053, 22,-0.000823,-0.000119,  26.542,   88
    39.6,-0.000076,-0.000058, 22,-0.000847,-0.000069,  26.543,   88
    39.8,-0.000081,-0.000057, 22,-0.000900,-0.000082,  26.541,   87
    40.0,-0.000088,-0.000057, 22,-0.000953,-0.000119,  26.541,   87
    40.2,-0.000078,-0.000064, 22,-0.000930,-0.000069,  26.547,   87
    40.4,-0.000075,-0.000059, 22,-0.000871,-0.000082,  26.550,   86
    40.6,-0.000081,-0.000055, 22,-0.000789,-0.000082,  26.551,   86
    40.8,-0.000071,-0.000060, 22,-0.000795,-0.000105,  26.546,   86
    41.0,-0.000069,-0.000058, 22,-0.000795,-0.000082,  26.546,   87
    41.2,-0.000079,-0.000056, 22,-0.000854,-0.000082,  26.543,   87
    41.4,-0.000079,-0.000054, 22,-0.000913,-0.000082,  26.545,   87
    41.6,-0.000079,-0.000054, 22,-0.000936,-0.000082,  26.547,   86
    41.8,-0.000088,-0.000054, 22,-0.000960,-0.000082,  26.550,   86
    42.0,-0.000088,-0.000054, 22,-0.000984,-0.000119,  26.551,   87
    42.2,-0.000081,-0.000051, 22,-0.001002,-0.000082,  26.549,   88
    42.4,-0.000083,-0.000051, 22,-0.000995,-0.000095,  26.549,   89
    42.6,-0.000080,-0.000044, 22,-0.001007,-0.000132,  26.549,   89
    42.8,-0.000071,-0.000049, 22,-0.001014,-0.000095,  26.545,   88
    43.0,-0.000072,-0.000044, 22,-0.001002,-0.000095,  26.549,   88
    43.2,-0.000069,-0.000047, 22,-0.000984,-0.000132,  26.550,   88
    43.4,-0.000060,-0.000045, 22,-0.000966,-0.000095,  26.545,   88
    43.6,-0.000064,-0.000041, 22,-0.000943,-0.000095,  26.547,   87
    43.8,-0.000066,-0.000039, 22,-0.000937,-0.000132,  26.547,   87
    44.0,-0.000060,-0.000043, 22,-0.000907,-0.000082,  26.543,   87
    44.2,-0.000064,-0.000040, 22,-0.000896,-0.000082,  26.546,   87
    44.4,-0.000064,-0.000033, 22,-0.000879,-0.000119,  26.544,   87
    44.6,-0.000057,-0.000035, 22,-0.000873,-0.000069,  26.547,   90
    44.8,-0.000061,-0.000035, 22,-0.000873,-0.000082,  26.549,   92
    45.0,-0.000061,-0.000033, 22,-0.000890,-0.000105,  26.544,   91
    45.2,-0.000057,-0.000033, 22,-0.000890,-0.000069,  26.544,   89
    45.4,-0.000061,-0.000038, 22,-0.000902,-0.000069,  26.547,   88
    45.6,-0.000061,-0.000043, 22,-0.000919,-0.000092,  26.544,   86
    45.8,-0.000064,-0.000043, 22,-0.000925,-0.000069,  26.549,   87
    46.0,-0.000064,-0.000042, 22,-0.000925,-0.000069,  26.542,   88
    46.2,-0.000070,-0.000040, 22,-0.000931,-0.000105,  26.546,   87
    46.4,-0.000060,-0.000040, 22,-0.000913,-0.000069,  26.545,   87
    46.6,-0.000065,-0.000040, 22,-0.000884,-0.000082,  26.547,   86
    46.8,-0.000062,-0.000035, 22,-0.000837,-0.000119,  26.547,   85
    47.0,-0.000062,-0.000037, 22,-0.000801,-0.000069,  26.545,   86
    47.2,-0.000053,-0.000041, 22,-0.000754,-0.000082,  26.550,   87
    47.4,-0.000057,-0.000036, 22,-0.000713,-0.000105,  26.548,   89
    47.6,-0.000056,-0.000034, 22,-0.000713,-0.000069,  26.547,   91
    47.8,-0.000059,-0.000041, 22,-0.000724,-0.000069,  26.551,   90
    48.0,-0.000062,-0.000039, 22,-0.000789,-0.000092,  26.555,   90
    48.2,-0.000059,-0.000037, 22,-0.000813,-0.000069,  26.557,   88
    48.4,-0.000059,-0.000035, 22,-0.000818,-0.000069,  26.562,   87
    48.6,-0.000062,-0.000038, 22,-0.000824,-0.000092,  26.555,   87
    48.8,-0.000059,-0.000043, 22,-0.000854,-0.000069,  26.560,   88
    49.0,-0.000059,-0.000041, 22,-0.000883,-0.000069,  26.554,   88
    49.2,-0.000065,-0.000039, 22,-0.000918,-0.000092,  26.554,   87
    49.4,-0.000061,-0.000043, 22,-0.001024,-0.000069,  26.557,   87
    49.6,-0.000064,-0.000035, 22,-0.001189,-0.000069,  26.559,   87
    49.8,-0.000071,-0.000030, 22,-0.001419,-0.000105,  26.564,   87
    50.0,-0.000064,-0.000030, 22,-0.001449,-0.000069,  26.559,   87
    50.2,-0.000064,-0.000034, 22,-0.001401,-0.000082,  26.564,   89
    50.4,-0.000071,-0.000039, 22,-0.001319,-0.000082,  26.561,   91
    50.6,-0.000061,-0.000034, 22,-0.001295,-0.000119,  26.561,   89
    50.8,-0.000061,-0.000032, 22,-0.001248,-0.000069,  26.563,   87
    51.0,-0.000068,-0.000035, 22,-0.001219,-0.000069,  26.559,   88
    51.2,-0.000065,-0.000035, 22,-0.001189,-0.000069,  26.561,   88
    51.4,-0.000068,-0.000035, 22,-0.001172,-0.000069,  26.560,   87
    51.6,-0.000075,-0.000038, 22,-0.001136,-0.000069,  26.555,   86
    51.8,-0.000068,-0.000043, 22,-0.001136,-0.000092,  26.558,   87
    52.0,-0.000067,-0.000041, 22,-0.001089,-0.000069,  26.555,   88
    52.2,-0.000073,-0.000041, 22,-0.001036,-0.000069,  26.557,   88
    52.4,-0.000064,-0.000043, 22,-0.000977,-0.000092,  26.557,   87
    52.6,-0.000067,-0.000045, 22,-0.000959,-0.000069,  26.557,   87
    52.8,-0.000076,-0.000044, 22,-0.000965,-0.000069,  26.558,   87
    53.0,-0.000075,-0.000046, 22,-0.000977,-0.000092,  26.556,   89
    53.2,-0.000083,-0.000050, 22,-0.000971,-0.000069,  26.556,   91
    53.4,-0.000092,-0.000047, 22,-0.000954,-0.000069,  26.556,   88
    53.6,-0.000092,-0.000043, 22,-0.000919,-0.000092,  26.555,   86
    53.8,-0.000092,-0.000045, 22,-0.000925,-0.000069,  26.555,   88
    54.0,-0.000099,-0.000049, 22,-0.000943,-0.000069,  26.554,   89
    54.2,-0.000096,-0.000050, 22,-0.000960,-0.000092,  26.554,   88
    54.4,-0.000092,-0.000053, 22,-0.000978,-0.000069,  26.550,   88
    54.6,-0.000096,-0.000051, 22,-0.000990,-0.000069,  26.551,   89
    54.8,-0.000094,-0.000054, 22,-0.001007,-0.000105,  26.550,   91
    55.0,-0.000084,-0.000058, 22,-0.001031,-0.000069,  26.549,   88
    55.2,-0.000088,-0.000053, 22,-0.001061,-0.000082,  26.548,   85
    55.4,-0.000084,-0.000050, 22,-0.001084,-0.000119,  26.552,   86
    55.6,-0.000080,-0.000052, 22,-0.001037,-0.000069,  26.553,   87
    55.8,-0.000087,-0.000052, 22,-0.000966,-0.000082,  26.550,   87
    56.0,-0.000080,-0.000047, 22,-0.000872,-0.000119,  26.548,   87
    56.2,-0.000086,-0.000049, 22,-0.000879,-0.000069,  26.545,   87
    56.4,-0.000086,-0.000054, 22,-0.000914,-0.000082,  26.542,   86
    56.6,-0.000086,-0.000053, 22,-0.000997,-0.000119,  26.543,   86
    56.8,-0.000086,-0.000054, 22,-0.001009,-0.000069,  26.545,   86
    57.0,-0.000086,-0.000050, 22,-0.001003,-0.000082,  26.542,   85
    57.2,-0.000086,-0.000055, 22,-0.000997,-0.000119,  26.539,   85
    57.4,-0.000088,-0.000058, 22,-0.000985,-0.000069,  26.543,   87
    57.6,-0.000088,-0.000056, 22,-0.000986,-0.000082,  26.539,   89
    57.8,-0.000095,-0.000058, 22,-0.000974,-0.000119,  26.538,   87
    58.0,-0.000088,-0.000056, 22,-0.001003,-0.000082,  26.538,   86
    58.2,-0.000088,-0.000054, 22,-0.001062,-0.000095,  26.541,   86
    58.4,-0.000095,-0.000057, 22,-0.001121,-0.000132,  26.536,   86
    58.6,-0.000088,-0.000053, 22,-0.001162,-0.000095,  26.537,   86
    58.8,-0.000091,-0.000056, 22,-0.001203,-0.000095,  26.537,   87
    59.0,-0.000098,-0.000056, 22,-0.001227,-0.000132,  26.534,   87
    59.2,-0.000088,-0.000058, 22,-0.001209,-0.000095,  26.531,   86
    59.4,-0.000088,-0.000059, 22,-0.001191,-0.000095,  26.535,   86
    59.6,-0.000088,-0.000068, 22,-0.001150,-0.000132,  26.531,   86
    59.8,-0.000086,-0.000062, 22,-0.001109,-0.000095,  26.533,   86
    60.0,-0.000079,-0.000059, 22,-0.001079,-0.000095,  26.529,   86
    60.2,-0.000076,-0.000062, 22,-0.001068,-0.000095,  26.528,   86
    60.4,-0.000083,-0.000058, 22,-0.001056,-0.000132,  26.531,   86
    60.6,-0.000076,-0.000054, 22,-0.001056,-0.000108,  26.532,   86
    60.8,-0.000074,-0.000054, 22,-0.001080,-0.000108,  26.527,   86
    61.0,-0.000080,-0.000052, 22,-0.001121,-0.000108,  26.529,   88
    61.2,-0.000074,-0.000045, 22,-0.001139,-0.000108,  26.527,   89
    61.4,-0.000071,-0.000048, 22,-0.001157,-0.000108,  26.529,   89
    61.6,-0.000078,-0.000046, 22,-0.001168,-0.000145,  26.527,   89
    61.8,-0.000074,-0.000045, 22,-0.001169,-0.000095,  26.526,   87
    62.0,-0.000071,-0.000043, 22,-0.001163,-0.000095,  26.524,   85
    62.2,-0.000078,-0.000048, 22,-0.001134,-0.000132,  26.523,   87
    62.4,-0.000074,-0.000046, 22,-0.001116,-0.000095,  26.524,   88
    62.6,-0.000078,-0.000041, 22,-0.001110,-0.000095,  26.526,   87
    62.8,-0.000078,-0.000039, 22,-0.001092,-0.000132,  26.522,   86
    63.0,-0.000078,-0.000039, 22,-0.001080,-0.000095,  26.526,   85
    63.2,-0.000081,-0.000037, 22,-0.001092,-0.000095,  26.523,   85
    63.4,-0.000075,-0.000040, 22,-0.001086,-0.000132,  26.524,   85
    63.6,-0.000075,-0.000038, 22,-0.001239,-0.000082,  26.528,   85
    63.8,-0.000076,-0.000038, 22,-0.001487,-0.000082,  26.526,   88
    64.0,-0.000067,-0.000036, 22,-0.001804,-0.000119,  26.525,   92
    64.2,-0.000064,-0.000033, 22,-0.001792,-0.000069,  26.528,   90
    64.4,-0.000065,-0.000027, 22,-0.001669,-0.000082,  26.527,   87
    64.6,-0.000065,-0.000026, 22,-0.001416,-0.000119,  26.521,   87
    64.8,-0.000065,-0.000027, 22,-0.001363,-0.000069,  26.525,   87
    65.0,-0.000069,-0.000025, 22,-0.001374,-0.000082,  26.522,   87
    65.2,-0.000072,-0.000026, 22,-0.001409,-0.000119,  26.521,   88
    65.4,-0.000065,-0.000021, 22,-0.001320,-0.000069,  26.524,   87
    65.6,-0.000069,-0.000023, 22,-0.001203,-0.000082,  26.527,   86
    65.8,-0.000062,-0.000026, 22,-0.001038,-0.000119,  26.522,   86
    66.0,-0.000056,-0.000019, 22,-0.000956,-0.000069,  26.527,   86
    66.2,-0.000056,-0.000019, 22,-0.000914,-0.000082,  26.527,   86
    66.4,-0.000056,-0.000021, 22,-0.000897,-0.000119,  26.528,   86
    66.6,-0.000059,-0.000018, 22,-0.000902,-0.000069,  26.525,   89
    66.8,-0.000061,-0.000016, 22,-0.000949,-0.000082,  26.530,   91
    67.0,-0.000064,-0.000021, 22,-0.001031,-0.000105,  26.529,   91
    67.2,-0.000064,-0.000020, 22,-0.001031,-0.000069,  26.525,   91
    67.4,-0.000067,-0.000019, 22,-0.001013,-0.000069,  26.533,   89
    67.6,-0.000076,-0.000017, 22,-0.000984,-0.000092,  26.528,   88
    67.8,-0.000069,-0.000022, 22,-0.000996,-0.000069,  26.531,   87
    68.0,-0.000075,-0.000025, 22,-0.001031,-0.000069,  26.531,   87
    68.2,-0.000081,-0.000023, 22,-0.001084,-0.000105,  26.534,   88
    68.4,-0.000078,-0.000030, 22,-0.001096,-0.000069,  26.533,   89
    68.6,-0.000080,-0.000030, 22,-0.001090,-0.000082,  26.534,   87
    68.8,-0.000084,-0.000034, 22,-0.001066,-0.000119,  26.533,   85
    69.0,-0.000078,-0.000034, 22,-0.001061,-0.000069,  26.535,   86
    69.2,-0.000080,-0.000036, 22,-0.001037,-0.000082,  26.529,   88
    69.4,-0.000084,-0.000039, 22,-0.001007,-0.000119,  26.534,   89
    69.6,-0.000078,-0.000032, 22,-0.000972,-0.000069,  26.531,   90
    69.8,-0.000080,-0.000030, 22,-0.000925,-0.000082,  26.537,   88
    70.0,-0.000084,-0.000033, 22,-0.000860,-0.000082,  26.532,   87
    70.2,-0.000080,-0.000037, 22,-0.000837,-0.000105,  26.534,   88
    70.4,-0.000083,-0.000039, 22,-0.000837,-0.000082,  26.534,   90
    70.6,-0.000090,-0.000044, 22,-0.000866,-0.000082,  26.532,   89
    70.8,-0.000083,-0.000044, 22,-0.000901,-0.000082,  26.536,   87
    71.0,-0.000086,-0.000041, 22,-0.000889,-0.000082,  26.536,   88
    71.2,-0.000090,-0.000044, 22,-0.000896,-0.000082,  26.535,   89
    71.4,-0.000080,-0.000045, 22,-0.000914,-0.000119,  26.535,   87
    71.6,-0.000080,-0.000041, 22,-0.000937,-0.000069,  26.539,   86
    71.8,-0.000084,-0.000045, 22,-0.000949,-0.000082,  26.539,   86
    72.0,-0.000080,-0.000048, 22,-0.000978,-0.000119,  26.535,   87
    72.2,-0.000083,-0.000043, 22,-0.000985,-0.000069,  26.537,   88
    72.4,-0.000090,-0.000041, 22,-0.000967,-0.000082,  26.536,   89
    72.6,-0.000083,-0.000041, 22,-0.000937,-0.000119,  26.539,   88
    72.8,-0.000086,-0.000040, 22,-0.000944,-0.000069,  26.540,   86
    73.0,-0.000092,-0.000036, 22,-0.000956,-0.000082,  26.538,   87
    73.2,-0.000086,-0.000041, 22,-0.000955,-0.000119,  26.536,   88
    73.4,-0.000088,-0.000041, 22,-0.000961,-0.000082,  26.541,   87
    73.6,-0.000091,-0.000045, 22,-0.000996,-0.000059,  26.538,   86
    73.8,-0.000094,-0.000052, 22,-0.001038,-0.000095,  26.538,   87
    74.0,-0.000090,-0.000052, 22,-0.001050,-0.000095,  26.538,   88
    74.2,-0.000093,-0.000056, 22,-0.001073,-0.000095,  26.534,   87
    74.4,-0.000099,-0.000063, 22,-0.001103,-0.000132,  26.539,   85
    74.6,-0.000090,-0.000062, 22,-0.001091,-0.000095,  26.535,   86
    74.8,-0.000090,-0.000064, 22,-0.001044,-0.000095,  26.531,   86
    75.0,-0.000095,-0.000066, 22,-0.000997,-0.000132,  26.531,   87
    75.2,-0.000094,-0.000063, 22,-0.001021,-0.000095,  26.530,   88
    75.4,-0.000088,-0.000060, 22,-0.001068,-0.000095,  26.528,   87
    75.6,-0.000088,-0.000062, 22,-0.001133,-0.000132,  26.526,   87
    75.8,-0.000088,-0.000066, 22,-0.001157,-0.000095,  26.527,   88
    76.0,-0.000091,-0.000069, 22,-0.001157,-0.000108,  26.524,   88
    76.2,-0.000091,-0.000069, 22,-0.001151,-0.000145,  26.528,   87
    76.4,-0.000094,-0.000073, 22,-0.001151,-0.000095,  26.523,   87
    76.6,-0.000100,-0.000071, 22,-0.001175,-0.000108,  26.523,   88
    76.8,-0.000100,-0.000071, 22,-0.001204,-0.000145,  26.525,   90
    77.0,-0.000100,-0.000073, 22,-0.001199,-0.000095,  26.523,   89
    77.2,-0.000102,-0.000069, 22,-0.001176,-0.000108,  26.524,   87
    77.4,-0.000102,-0.000071, 22,-0.001147,-0.000145,  26.524,   88
    77.6,-0.000104,-0.000067, 22,-0.001136,-0.000095,  26.522,   88
    77.8,-0.000104,-0.000065, 22,-0.001124,-0.000108,  26.521,   88
    78.0,-0.000101,-0.000066, 22,-0.001112,-0.000145,  26.517,   88
    78.2,-0.000105,-0.000059, 22,-0.001130,-0.000095,  26.518,   88
    78.4,-0.000098,-0.000057, 22,-0.001183,-0.000072,  26.515,   88
    78.6,-0.000102,-0.000058, 22,-0.001247,-0.000108,  26.515,   88
    78.8,-0.000102,-0.000058, 22,-0.001372,-0.000095,  26.516,   87
    79.0,-0.000105,-0.000058, 22,-0.001536,-0.000072,  26.515,   87
    79.2,-0.000102,-0.000060, 22,-0.001748,-0.000108,  26.518,   88
    79.4,-0.000102,-0.000058, 22,-0.001795,-0.000095,  26.512,   86
    79.6,-0.000095,-0.000051, 22,-0.001789,-0.000072,  26.510,   85
    79.8,-0.000093,-0.000054, 22,-0.001706,-0.000072,  26.506,   85
    80.0,-0.000099,-0.000051, 22,-0.001699,-0.000095,  26.507,   86
    80.2,-0.000093,-0.000051, 22,-0.001676,-0.000072,  26.506,   89
    80.4,-0.000090,-0.000051, 22,-0.001658,-0.000072,  26.506,   92
    80.6,-0.000090,-0.000054, 22,-0.001646,-0.000059,  26.500,   89
    80.8,-0.000086,-0.000057, 22,-0.001611,-0.000059,  26.500,   87
    81.0,-0.000081,-0.000060, 22,-0.001564,-0.000059,  26.496,   88
    81.2,-0.000081,-0.000055, 22,-0.001505,-0.000095,  26.496,   88
    81.4,-0.000081,-0.000052, 22,-0.001452,-0.000095,  26.499,   88
    81.6,-0.000081,-0.000047, 22,-0.001423,-0.000059,  26.495,   87
    81.8,-0.000081,-0.000054, 22,-0.001370,-0.000095,  26.492,   87
    82.0,-0.000086,-0.000049, 22,-0.001352,-0.000095,  26.492,   86
    82.2,-0.000086,-0.000054, 22,-0.001364,-0.000059,  26.493,   86
    82.4,-0.000086,-0.000051, 22,-0.001393,-0.000095,  26.493,   87
    82.6,-0.000086,-0.000049, 22,-0.001364,-0.000095,  26.496,   87
    82.8,-0.000083,-0.000041, 22,-0.001323,-0.000059,  26.493,   87
    83.0,-0.000086,-0.000041, 22,-0.001282,-0.000095,  26.489,   90
    83.2,-0.000089,-0.000043, 22,-0.001282,-0.000095,  26.486,   93
    83.4,-0.000086,-0.000046, 22,-0.001317,-0.000059,  26.485,   91
    83.6,-0.000089,-0.000051, 22,-0.001376,-0.000095,  26.487,   89
    83.8,-0.000091,-0.000049, 22,-0.001382,-0.000095,  26.486,   88
    84.0,-0.000089,-0.000047, 22,-0.001394,-0.000059,  26.487,   87
    84.2,-0.000091,-0.000051, 22,-0.001382,-0.000095,  26.487,   87
    84.4,-0.000094,-0.000049, 22,-0.001347,-0.000095,  26.487,   88
    84.6,-0.000094,-0.000055, 22,-0.001318,-0.000059,  26.484,   88
    84.8,-0.000097,-0.000060, 22,-0.001259,-0.000095,  26.485,   88
    85.0,-0.000100,-0.000053, 22,-0.001236,-0.000082,  26.482,   87
    85.2,-0.000100,-0.000055, 22,-0.001207,-0.000046,  26.481,   86
    85.4,-0.000100,-0.000057, 22,-0.001183,-0.000082,  26.484,   86
    85.6,-0.000097,-0.000054, 22,-0.001189,-0.000069,  26.487,   86
    85.8,-0.000097,-0.000053, 22,-0.001189,-0.000046,  26.485,   88
    86.0,-0.000101,-0.000056, 22,-0.001194,-0.000082,  26.481,   91
    86.2,-0.000101,-0.000053, 22,-0.001206,-0.000069,  26.482,   90
    86.4,-0.000104,-0.000050, 22,-0.001241,-0.000046,  26.480,   90
    86.6,-0.000104,-0.000046, 22,-0.001276,-0.000082,  26.477,   90
    86.8,-0.000107,-0.000049, 22,-0.001247,-0.000069,  26.473,   90
    87.0,-0.000104,-0.000050, 22,-0.001224,-0.000046,  26.473,   89
    87.2,-0.000104,-0.000050, 22,-0.001165,-0.000082,  26.469,   88
    87.4,-0.000107,-0.000052, 22,-0.001194,-0.000069,  26.472,   88
    87.6,-0.000104,-0.000051, 22,-0.001259,-0.000046,  26.475,   88
    87.8,-0.000101,-0.000051, 22,-0.001370,-0.000082,  26.474,   87
    88.0,-0.000107,-0.000058, 22,-0.001406,-0.000069,  26.472,   86
    88.2,-0.000101,-0.000055, 22,-0.001412,-0.000046,  26.476,   87
    88.4,-0.000101,-0.000053, 22,-0.001412,-0.000082,  26.474,   88
    88.6,-0.000101,-0.000056, 22,-0.001406,-0.000069,  26.474,   89
    88.8,-0.000097,-0.000053, 22,-0.001377,-0.000046,  26.473,   90
    89.0,-0.000097,-0.000053, 22,-0.001359,-0.000082,  26.476,   89
    89.2,-0.000097,-0.000056, 22,-0.001330,-0.000069,  26.472,   88
    89.4,-0.000100,-0.000055, 22,-0.001283,-0.000046,  26.470,   87
    89.6,-0.000100,-0.000058, 22,-0.001236,-0.000046,  26.477,   86
    89.8,-0.000100,-0.000062, 22,-0.001236,-0.000069,  26.474,   86
    90.0,-0.000100,-0.000067, 22,-0.001254,-0.000046,  26.475,   86
    90.2,-0.000100,-0.000067, 22,-0.001301,-0.000046,  26.477,   89
    90.4,-0.000102,-0.000069, 22,-0.001371,-0.000046,  26.475,   91
    90.6,-0.000105,-0.000069, 22,-0.001377,-0.000046,  26.473,   88
    90.8,-0.000105,-0.000071, 22,-0.001360,-0.000059,  26.476,   85
    91.0,-0.000102,-0.000067, 22,-0.001342,-0.000095,  26.476,   86
    91.2,-0.000102,-0.000063, 22,-0.001331,-0.000095,  26.476,   87
    91.4,-0.000102,-0.000061, 22,-0.001313,-0.000059,  26.479,   87
    91.6,-0.000100,-0.000059, 22,-0.001301,-0.000095,  26.479,   87
    91.8,-0.000102,-0.000059, 22,-0.001278,-0.000095,  26.477,   88
    92.0,-0.000102,-0.000056, 22,-0.001260,-0.000059,  26.477,   89
    92.2,-0.000097,-0.000052, 22,-0.001237,-0.000095,  26.478,   88
    92.4,-0.000097,-0.000052, 22,-0.001237,-0.000095,  26.478,   88
    92.6,-0.000094,-0.000048, 22,-0.001267,-0.000059,  26.475,   87
    92.8,-0.000091,-0.000048, 22,-0.001326,-0.000095,  26.474,   87
    93.0,-0.000091,-0.000053, 22,-0.001331,-0.000095,  26.478,   88
    93.2,-0.000089,-0.000050, 22,-0.001337,-0.000059,  26.477,   89
    93.4,-0.000086,-0.000053, 22,-0.001355,-0.000095,  26.477,   87
    93.6,-0.000086,-0.000049, 22,-0.001384,-0.000095,  26.479,   86
    93.8,-0.000083,-0.000047, 22,-0.001419,-0.000059,  26.476,   87
    94.0,-0.000083,-0.000049, 22,-0.001478,-0.000095,  26.480,   88
    94.2,-0.000086,-0.000045, 22,-0.001448,-0.000095,  26.476,   88
    94.4,-0.000083,-0.000045, 22,-0.001407,-0.000059,  26.479,   87
    94.6,-0.000086,-0.000049, 22,-0.001319,-0.000095,  26.478,   87
    94.8,-0.000089,-0.000047, 22,-0.001307,-0.000095,  26.477,   86
    95.0,-0.000095,-0.000049, 22,-0.001336,-0.000059,  26.480,   87
    95.2,-0.000093,-0.000049, 22,-0.001389,-0.000095,  26.478,   87
    95.4,-0.000095,-0.000049, 22,-0.001424,-0.000095,  26.483,   87
    95.6,-0.000093,-0.000047, 22,-0.001465,-0.000059,  26.482,   87
    95.8,-0.000099,-0.000052, 22,-0.001518,-0.000095,  26.482,   89
    96.0,-0.000102,-0.000047, 22,-0.001630,-0.000095,  26.483,   90
    96.2,-0.000098,-0.000047, 22,-0.001771,-0.000059,  26.482,   89
    96.4,-0.000095,-0.000049, 22,-0.001948,-0.000095,  26.483,   88
    96.6,-0.000102,-0.000048, 22,-0.002036,-0.000095,  26.485,   88
    96.8,-0.000095,-0.000042, 22,-0.002100,-0.000059,  26.486,   88
    97.0,-0.000093,-0.000040, 22,-0.002165,-0.000095,  26.489,   88
    97.2,-0.000102,-0.000050, 22,-0.002130,-0.000082,  26.492,   88
    97.4,-0.000095,-0.000048, 22,-0.002030,-0.000046,  26.493,   87
    97.6,-0.000093,-0.000051, 22,-0.001865,-0.000082,  26.495,   87
    97.8,-0.000102,-0.000051, 22,-0.001765,-0.000069,  26.493,   87
    98.0,-0.000095,-0.000049, 22,-0.001665,-0.000046,  26.497,   88
    98.2,-0.000093,-0.000049, 22,-0.001548,-0.000082,  26.499,   87
    98.4,-0.000102,-0.000047, 22,-0.001489,-0.000069,  26.496,   87
    98.6,-0.000095,-0.000045, 22,-0.001489,-0.000046,  26.501,   87
    98.8,-0.000093,-0.000048, 22,-0.001513,-0.000082,  26.499,   86
    99.0,-0.000099,-0.000048, 22,-0.001495,-0.000069,  26.505,   87
    99.2,-0.000093,-0.000052, 22,-0.001471,-0.000046,  26.508,   88
    99.4,-0.000090,-0.000057, 22,-0.001471,-0.000046,  26.510,   89
    99.6,-0.000099,-0.000050, 22,-0.001466,-0.000069,  26.513,   91
    99.8,-0.000095,-0.000048, 22,-0.001459,-0.000046,  26.507,   90
   100.0,-0.000093,-0.000053, 22,-0.001459,-0.000046,  26.509,   88
   100.2,-0.000105,-0.000050, 22,-0.001589,-0.000046,  26.512,   87
   100.4,-0.000101,-0.000052, 22,-0.001748,-0.000046,  26.511,   86
   100.6,-0.000101,-0.000061, 22,-0.002018,-0.000046,  26.517,   87
   100.8,-0.000107,-0.000054, 22,-0.002318,-0.000082,  26.516,   88
   101.0,-0.000104,-0.000055, 22,-0.002271,-0.000069,  26.521,   88
   101.2,-0.000104,-0.000059, 22,-0.002130,-0.000046,  26.518,   88
   101.4,-0.000110,-0.000058, 22,-0.001866,-0.000082,  26.521,   87
   101.6,-0.000106,-0.000060, 22,-0.001766,-0.000069,  26.522,   85
   101.8,-0.000106,-0.000060, 22,-0.001695,-0.000046,  26.522,   86
   102.0,-0.000113,-0.000062, 22,-0.001689,-0.000082,  26.521,   87
   102.2,-0.000109,-0.000063, 22,-0.001654,-0.000069,  26.519,   89
   102.4,-0.000109,-0.000062, 22,-0.001601,-0.000046,  26.523,   91
   102.6,-0.000116,-0.000062, 22,-0.001583,-0.000082,  26.524,   89
   102.8,-0.000112,-0.000062, 22,-0.001560,-0.000069,  26.524,   86
   103.0,-0.000112,-0.000062, 22,-0.001525,-0.000046,  26.528,   88
   103.2,-0.000118,-0.000067, 22,-0.001507,-0.000082,  26.533,   90
   103.4,-0.000112,-0.000067, 22,-0.001519,-0.000082,  26.533,   89
   103.6,-0.000114,-0.000062, 22,-0.001543,-0.000059,  26.535,   88
   103.8,-0.000121,-0.000064, 22,-0.001595,-0.000095,  26.535,   88
   104.0,-0.000117,-0.000065, 22,-0.001572,-0.000095,  26.536,   88
   104.2,-0.000114,-0.000057, 22,-0.001519,-0.000059,  26.533,   87
   104.4,-0.000121,-0.000057, 22,-0.001431,-0.000095,  26.538,   87
   104.6,-0.000112,-0.000064, 22,-0.001437,-0.000095,  26.538,   87
   104.8,-0.000112,-0.000062, 22,-0.001478,-0.000059,  26.540,   86
   105.0,-0.000109,-0.000062, 22,-0.001548,-0.000095,  26.540,   88
   105.2,-0.000112,-0.000061, 22,-0.001566,-0.000095,  26.545,   90
   105.4,-0.000112,-0.000060, 22,-0.001595,-0.000072,  26.545,   89
   105.6,-0.000109,-0.000063, 22,-0.001613,-0.000108,  26.544,   89
   105.8,-0.000112,-0.000064, 22,-0.001607,-0.000095,  26.540,   88
   106.0,-0.000114,-0.000067, 22,-0.001578,-0.000059,  26.547,   88
   106.2,-0.000117,-0.000070, 22,-0.001543,-0.000095,  26.546,   87
   106.4,-0.000124,-0.000069, 22,-0.001507,-0.000095,  26.548,   86
   106.6,-0.000114,-0.000071, 22,-0.001472,-0.000059,  26.546,   87
   106.8,-0.000112,-0.000074, 22,-0.001413,-0.000095,  26.551,   88
   107.0,-0.000118,-0.000072, 22,-0.001384,-0.000095,  26.550,   87
   107.2,-0.000112,-0.000073, 22,-0.001390,-0.000059,  26.550,   85
   107.4,-0.000109,-0.000075, 22,-0.001402,-0.000095,  26.551,   86
   107.6,-0.000113,-0.000069, 22,-0.001543,-0.000095,  26.551,   87
   107.8,-0.000106,-0.000062, 22,-0.001778,-0.000059,  26.550,   88
   108.0,-0.000110,-0.000060, 22,-0.002095,-0.000095,  26.548,   88
   108.2,-0.000107,-0.000060, 22,-0.002083,-0.000082,  26.548,   88
   108.4,-0.000105,-0.000052, 22,-0.001966,-0.000046,  26.550,   87
   108.6,-0.000109,-0.000053, 22,-0.001737,-0.000082,  26.554,   88
   108.8,-0.000102,-0.000054, 22,-0.001666,-0.000069,  26.550,   89
   109.0,-0.000105,-0.000047, 22,-0.001630,-0.000046,  26.552,   88
   109.2,-0.000102,-0.000048, 22,-0.001630,-0.000046,  26.551,   88
   109.4,-0.000102,-0.000046, 22,-0.001619,-0.000069,  26.552,   88
   109.6,-0.000098,-0.000044, 22,-0.001607,-0.000046,  26.555,   88
   109.8,-0.000093,-0.000049, 22,-0.001612,-0.000046,  26.553,   86
   110.0,-0.000097,-0.000044, 22,-0.001635,-0.000046,  26.551,   84
   110.2,-0.000087,-0.000046, 22,-0.001577,-0.000046,  26.551,   86
   110.4,-0.000085,-0.000049, 22,-0.001500,-0.000046,  26.554,   88
   110.6,-0.000088,-0.000040, 22,-0.001424,-0.000082,  26.550,   87
   110.8,-0.000082,-0.000036, 22,-0.001401,-0.000069,  26.550,   86
   111.0,-0.000082,-0.000034, 22,-0.001371,-0.000046,  26.545,   88
   111.2,-0.000088,-0.000032, 22,-0.001400,-0.000082,  26.552,   89
   111.4,-0.000082,-0.000032, 22,-0.001389,-0.000069,  26.551,   87
   111.6,-0.000082,-0.000032, 22,-0.001360,-0.000046,  26.551,   85
   111.8,-0.000088,-0.000032, 22,-0.001330,-0.000082,  26.551,   86
   112.0,-0.000085,-0.000032, 22,-0.001313,-0.000069,  26.553,   87
   112.2,-0.000085,-0.000032, 22,-0.001295,-0.000046,  26.547,   87
   112.4,-0.000088,-0.000035, 22,-0.001271,-0.000069,  26.549,   87
   112.6,-0.000085,-0.000033, 22,-0.001282,-0.000069,  26.550,   86
   112.8,-0.000085,-0.000028, 22,-0.001317,-0.000033,  26.550,   86
   113.0,-0.000088,-0.000033, 22,-0.001376,-0.000056,  26.550,   86
   113.2,-0.000085,-0.000030, 22,-0.001334,-0.000069,  26.549,   86
   113.4,-0.000087,-0.000032, 22,-0.001258,-0.000033,  26.550,   87
   113.6,-0.000094,-0.000039, 22,-0.001170,-0.000056,  26.548,   87
   113.8,-0.000090,-0.000034, 22,-0.001140,-0.000069,  26.543,   88
   114.0,-0.000090,-0.000038, 22,-0.001158,-0.000033,  26.548,   89
   114.2,-0.000094,-0.000043, 22,-0.001193,-0.000056,  26.544,   88
   114.4,-0.000085,-0.000043, 22,-0.001216,-0.000069,  26.545,   87
   114.6,-0.000085,-0.000041, 22,-0.001263,-0.000033,  26.546,   87
   114.8,-0.000082,-0.000047, 22,-0.001322,-0.000056,  26.549,   87
   115.0,-0.000085,-0.000042, 22,-0.001310,-0.000069,  26.548,   88
   115.2,-0.000085,-0.000038, 22,-0.001304,-0.000033,  26.543,   89
   115.4,-0.000082,-0.000041, 22,-0.001269,-0.000056,  26.543,   88
   115.6,-0.000082,-0.000042, 22,-0.001257,-0.000069,  26.550,   88
   115.8,-0.000079,-0.000043, 22,-0.001263,-0.000033,  26.550,   90
   116.0,-0.000076,-0.000045, 22,-0.001280,-0.000056,  26.548,   93
   116.2,-0.000083,-0.000043, 22,-0.001245,-0.000069,  26.542,   91
   116.4,-0.000076,-0.000040, 22,-0.001193,-0.000033,  26.547,   89
   116.6,-0.000076,-0.000041, 22,-0.001116,-0.000056,  26.546,   87
   116.8,-0.000083,-0.000041, 22,-0.001087,-0.000069,  26.548,   85
   117.0,-0.000079,-0.000039, 22,-0.001075,-0.000033,  26.545,   86
   117.2,-0.000076,-0.000043, 22,-0.001069,-0.000056,  26.542,   87
   117.4,-0.000083,-0.000039, 22,-0.001057,-0.000056,  26.545,   87
   117.6,-0.000076,-0.000036, 22,-0.001069,-0.000020,  26.549,   87
   117.8,-0.000074,-0.000039, 22,-0.001075,-0.000043,  26.545,   86
   118.0,-0.000078,-0.000034, 22,-0.001051,-0.000043,  26.543,   85
   118.2,-0.000066,-0.000028, 22,-0.001039,-0.000056,  26.542,   86
   118.4,-0.000066,-0.000029, 22,-0.001027,-0.000079,  26.547,   86
   118.6,-0.000072,-0.000029, 22,-0.000986,-0.000056,  26.548,   89
   118.8,-0.000066,-0.000033, 22,-0.000927,-0.000069,  26.548,   91
   119.0,-0.000063,-0.000036, 22,-0.000886,-0.000069,  26.547,   89
   119.2,-0.000069,-0.000034, 22,-0.000962,-0.000105,  26.546,   87
   119.4,-0.000063,-0.000032, 22,-0.001098,-0.000082,  26.545,   88
   119.6,-0.000060,-0.000034, 22,-0.001310,-0.000082,  26.544,   88
   119.8,-0.000064,-0.000032, 22,-0.001586,-0.000082,  26.544,   88
   120.0,-0.000057,-0.000028, 22,-0.001592,-0.000082,  26.546,   88
   120.2,-0.000064,-0.000026, 22,-0.001533,-0.000082,  26.547,   87
   120.4,-0.000064,-0.000028, 22,-0.001403,-0.000119,  26.546,   87
   120.6,-0.000064,-0.000032, 22,-0.001445,-0.000069,  26.544,   87
   120.8,-0.000068,-0.000034, 22,-0.001551,-0.000082,  26.544,   87
   121.0,-0.000059,-0.000034, 22,-0.001709,-0.000119,  26.543,   87
   121.2,-0.000056,-0.000034, 22,-0.001662,-0.000069,  26.546,   88
   121.4,-0.000060,-0.000034, 22,-0.001544,-0.000082,  26.544,   89
   121.6,-0.000056,-0.000034, 22,-0.001368,-0.000119,  26.541,   90
   121.8,-0.000059,-0.000037, 22,-0.001297,-0.000069,  26.543,   89
   122.0,-0.000062,-0.000032, 22,-0.001244,-0.000082,  26.544,   87
   122.2,-0.000056,-0.000030, 22,-0.001220,-0.000119,  26.542,   87
   122.4,-0.000056,-0.000028, 22,-0.001155,-0.000069,  26.545,   87
   122.6,-0.000060,-0.000021, 22,-0.001079,-0.000082,  26.540,   87
   122.8,-0.000057,-0.000012, 22,-0.001002,-0.000119,  26.543,   86
   123.0,-0.000057,-0.000010, 22,-0.000967,-0.000069,  26.541,   87
   123.2,-0.000061,-0.000012, 22,-0.000931,-0.000082,  26.543,   88
   123.4,-0.000061,-0.000012, 22,-0.000925,-0.000119,  26.542,   87
   123.6,-0.000054,-0.000017, 22,-0.000925,-0.000069,  26.545,   86
   123.8,-0.000058,-0.000016, 22,-0.000919,-0.000082,  26.542,   86
   124.0,-0.000049,-0.000019, 22,-0.000918,-0.000119,  26.546,   87
   124.2,-0.000040,-0.000019, 22,-0.000901,-0.000069,  26.543,   88
   124.4,-0.000041,-0.000012, 22,-0.000901,-0.000082,  26.545,   89
   124.6,-0.000031,-0.000015, 22,-0.000894,-0.000119,  26.542,   89
   124.8,-0.000031,-0.000015, 22,-0.000859,-0.000069,  26.539,   88
   125.0,-0.000029,-0.000008, 22,-0.000812,-0.000082,  26.541,   89
   125.2,-0.000029,-0.000010, 22,-0.000765,-0.000105,  26.539,   89
   125.4,-0.000029,-0.000008, 22,-0.000777,-0.000069,  26.536,   88
   125.6,-0.000029,-0.000003, 22,-0.000812,-0.000069,  26.540,   88
   125.8,-0.000026,-0.000006, 22,-0.000871,-0.000105,  26.538,   88
   126.0,-0.000023,-0.000001, 22,-0.000871,-0.000069,  26.542,   88
   126.2,-0.000026,0.000001, 22,-0.000847,-0.000082,  26.536,   87
   126.4,-0.000023,-0.000001, 22,-0.000811,-0.000119,  26.542,   86
   126.6,-0.000023,0.000005, 22,-0.000770,-0.000069,  26.540,   86
   126.8,-0.000017,0.000006, 22,-0.000711,-0.000082,  26.541,   87
   127.0,-0.000017,0.000003, 22,-0.000635,-0.000119,  26.540,   87
   127.2,-0.000023,0.000003, 22,-0.000629,-0.000069,  26.540,   87
   127.4,-0.000017,-0.000000, 22,-0.000665,-0.000082,  26.537,   87
   127.6,-0.000021,0.000001, 22,-0.000724,-0.000119,  26.542,   87
   127.8,-0.000018,0.000001, 22,-0.000718,-0.000069,  26.540,   87
   128.0,-0.000015,0.000007, 22,-0.000712,-0.000082,  26.537,   86
   128.2,-0.000012,0.000004, 22,-0.000688,-0.000119,  26.540,   86
   128.4,-0.000012,0.000004, 22,-0.000712,-0.000069,  26.540,   86
   128.6,-0.000011,0.000005, 22,-0.000759,-0.000082,  26.536,   87
   128.8,-0.000011,0.000001, 22,-0.000812,-0.000082,  26.539,   88
   129.0,-0.000015,0.000006, 22,-0.000871,-0.000105,  26.538,   87
   129.2,-0.000011,0.000010, 22,-0.000936,-0.000082,  26.533,   86
   129.4,-0.000011,0.000005, 22,-0.001006,-0.000082,  26.538,   86
   129.6,-0.000015,0.000005, 22,-0.001041,-0.000082,  26.540,   86
   129.8,-0.000011,0.000004, 22,-0.001060,-0.000082,  26.536,   87
   130.0,-0.000011,0.000001, 22,-0.001089,-0.000082,  26.536,   88
   130.2,-0.000018,0.000001, 22,-0.001090,-0.000119,  26.535,   89
   130.4,-0.000014,0.000004, 22,-0.001084,-0.000069,  26.534,   89
   130.6,-0.000017,0.000001, 22,-0.001079,-0.000082,  26.535,   88
   130.8,-0.000023,-0.000001, 22,-0.001068,-0.000119,  26.534,   87
   131.0,-0.000019,-0.000000, 22,-0.001092,-0.000069,  26.532,   87
   131.2,-0.000019,-0.000007, 22,-0.001181,-0.000082,  26.530,   87
   131.4,-0.000029,-0.000007, 22,-0.001282,-0.000119,  26.533,   87
   131.6,-0.000025,-0.000012, 22,-0.001317,-0.000082,  26.535,   86
   131.8,-0.000029,-0.000005, 22,-0.001359,-0.000108,  26.534,   87
   132.0,-0.000029,-0.000006, 22,-0.001389,-0.000145,  26.532,   87
   132.2,-0.000029,-0.000002, 22,-0.001442,-0.000095,  26.531,   89
   132.4,-0.000033,0.000003, 22,-0.001507,-0.000108,  26.537,   90
   132.6,-0.000029,-0.000000, 22,-0.001585,-0.000145,  26.534,   90
   132.8,-0.000031,-0.000002, 22,-0.001633,-0.000095,  26.531,   89
   133.0,-0.000031,-0.000002, 22,-0.001669,-0.000095,  26.528,   88
   133.2,-0.000034,-0.000008, 22,-0.001705,-0.000132,  26.531,   87
   133.4,-0.000036,-0.000010, 22,-0.001776,-0.000095,  26.534,   86
   133.6,-0.000038,-0.000008, 22,-0.001883,-0.000108,  26.528,   86
   133.8,-0.000045,-0.000015, 22,-0.002018,-0.000145,  26.529,   87
   134.0,-0.000041,-0.000014, 22,-0.002102,-0.000108,  26.527,   87
   134.2,-0.000044,-0.000013, 22,-0.002190,-0.000122,  26.524,   87
   134.4,-0.000056,-0.000020, 22,-0.002285,-0.000158,  26.529,   87
   134.6,-0.000052,-0.000017, 22,-0.002386,-0.000122,  26.522,   87
   134.8,-0.000057,-0.000023, 22,-0.002475,-0.000122,  26.515,   86
   135.0,-0.000057,-0.000030, 22,-0.002576,-0.000171,  26.511,   89
   135.2,-0.000069,-0.000028, 22,-0.002647,-0.000135,  26.511,   91
   135.4,-0.000069,-0.000032, 22,-0.002702,-0.000135,  26.510,   89
   135.6,-0.000072,-0.000039, 22,-0.002732,-0.000184,  26.504,   87
   135.8,-0.000078,-0.000034, 22,-0.002863,-0.000148,  26.506,   87
   136.0,-0.000080,-0.000036, 22,-0.003028,-0.000148,  26.504,   87
   136.2,-0.000090,-0.000042, 22,-0.003240,-0.000171,  26.499,   87
   136.4,-0.000088,-0.000043, 22,-0.003394,-0.000148,  26.501,   88
   136.6,-0.000094,-0.000043, 22,-0.003518,-0.000161,  26.496,   87
   136.8,-0.000103,-0.000050, 22,-0.003666,-0.000184,  26.492,   87
   137.0,-0.000099,-0.000052, 22,-0.003843,-0.000174,  26.492,   87
   137.2,-0.000105,-0.000059, 22,-0.004020,-0.000187,  26.489,   87
   137.4,-0.000110,-0.000066, 22,-0.004214,-0.000223,  26.483,   87
   137.6,-0.000118,-0.000068, 22,-0.004350,-0.000200,  26.477,   87
   137.8,-0.000120,-0.000077, 22,-0.004493,-0.000213,  26.472,   89
   138.0,-0.000125,-0.000084, 22,-0.004588,-0.000249,  26.467,   92
   138.2,-0.000140,-0.000088, 22,-0.004777,-0.000213,  26.465,   90
   138.4,-0.000139,-0.000092, 22,-0.005000,-0.000213,  26.458,   88
   138.6,-0.000144,-0.000100, 22,-0.005265,-0.000213,  26.451,   87
   138.8,-0.000156,-0.000103, 22,-0.005470,-0.000236,  26.450,   87
   139.0,-0.000155,-0.000107, 22,-0.005694,-0.000200,  26.447,   87
   139.2,-0.000161,-0.000115, 22,-0.005900,-0.000213,  26.436,   87
   139.4,-0.000175,-0.000124, 22,-0.006088,-0.000213,  26.432,   86
   139.6,-0.000180,-0.000126, 22,-0.006253,-0.000226,  26.425,   86
   139.8,-0.000188,-0.000135, 22,-0.006424,-0.000239,  26.417,   86
   140.0,-0.000200,-0.000137, 22,-0.006558,-0.000288,  26.411,   86
   140.2,-0.000201,-0.000139, 22,-0.006742,-0.000252,  26.399,   87
   140.4,-0.000207,-0.000145, 22,-0.006925,-0.000265,  26.400,   88
   140.6,-0.000219,-0.000153, 22,-0.007114,-0.000301,  26.389,   89
   140.8,-0.000220,-0.000161, 22,-0.007372,-0.000278,  26.381,   89
   141.0,-0.000228,-0.000167, 22,-0.007676,-0.000278,  26.371,   88
   141.2,-0.000243,-0.000178, 22,-0.008014,-0.000301,  26.360,   86
   141.4,-0.000250,-0.000180, 22,-0.008300,-0.000291,  26.349,   87
   141.6,-0.000258,-0.000186, 22,-0.008599,-0.000304,  26.344,   89
   141.8,-0.000273,-0.000197, 22,-0.008903,-0.000341,  26.333,   88
   142.0,-0.000280,-0.000201, 22,-0.009195,-0.000318,  26.324,   88
   142.2,-0.000288,-0.000212, 22,-0.009505,-0.000331,  26.313,   87
   142.4,-0.000303,-0.000223, 22,-0.009825,-0.000367,  26.306,   87
   142.6,-0.000307,-0.000232, 22,-0.010135,-0.000331,  26.293,   87
   142.8,-0.000318,-0.000242, 22,-0.010444,-0.000344,  26.281,   86
   143.0,-0.000326,-0.000255, 22,-0.010765,-0.000380,  26.271,   86
   143.2,-0.000330,-0.000263, 22,-0.011303,-0.000344,  26.257,   87
   143.4,-0.000339,-0.000269, 22,-0.011977,-0.000357,  26.245,   88
   143.6,-0.000349,-0.000282, 22,-0.012771,-0.000406,  26.234,   90
   143.8,-0.000358,-0.000285, 22,-0.013125,-0.000370,  26.218,   89
   144.0,-0.000363,-0.000288, 22,-0.013348,-0.000383,  26.200,   88
   144.2,-0.000374,-0.000303, 22,-0.013417,-0.000419,  26.181,   87
   144.4,-0.000385,-0.000306, 22,-0.013703,-0.000396,  26.172,   86
   144.6,-0.000393,-0.000316, 22,-0.014039,-0.000409,  26.160,   86
   144.8,-0.000398,-0.000331, 22,-0.014413,-0.000445,  26.139,   86
   145.0,-0.000404,-0.000334, 22,-0.014777,-0.000409,  26.123,   88
   145.2,-0.000409,-0.000340, 22,-0.015181,-0.000435,  26.103,   89
   145.4,-0.000417,-0.000346, 22,-0.015612,-0.000471,  26.094,   87
   145.6,-0.000425,-0.000353, 22,-0.016015,-0.000435,  26.072,   85
   145.8,-0.000434,-0.000352, 22,-0.016429,-0.000461,  26.055,   86
   146.0,-0.000439,-0.000361, 22,-0.016849,-0.000510,  26.037,   86
   146.2,-0.000447,-0.000370, 22,-0.017296,-0.000474,  26.016,   87
   146.4,-0.000458,-0.000378, 22,-0.017761,-0.000451,  26.003,   88
   146.6,-0.000463,-0.000389, 22,-0.018224,-0.000500,  25.979,   87
   146.8,-0.000472,-0.000393, 22,-0.018800,-0.000500,  25.959,   87
   147.0,-0.000480,-0.000394, 22,-0.019431,-0.000464,  25.936,   87
   147.2,-0.000482,-0.000403, 22,-0.020099,-0.000487,  25.913,   88
   147.4,-0.000491,-0.000405, 22,-0.020561,-0.000500,  25.896,   87
   147.6,-0.000496,-0.000407, 22,-0.020954,-0.000490,  25.876,   86
   147.8,-0.000501,-0.000416, 22,-0.021276,-0.000513,  25.853,   86
   148.0,-0.000504,-0.000418, 22,-0.021687,-0.000526,  25.829,   87
   148.2,-0.000512,-0.000426, 22,-0.022114,-0.000503,  25.802,   87
   148.4,-0.000520,-0.000431, 22,-0.022552,-0.000503,  25.785,   87
   148.6,-0.000526,-0.000433, 22,-0.023062,-0.000553,  25.765,   87
   148.8,-0.000530,-0.000433, 22,-0.023599,-0.000516,  25.742,   87
   149.0,-0.000533,-0.000440, 22,-0.024167,-0.000529,  25.716,   88
   149.2,-0.000537,-0.000448, 22,-0.024646,-0.000529,  25.687,   88
   149.4,-0.000530,-0.000451, 22,-0.025108,-0.000542,  25.667,   88
   149.6,-0.000530,-0.000460, 22,-0.025518,-0.000556,  25.643,   87
   149.8,-0.000537,-0.000461, 22,-0.025899,-0.000605,  25.617,   87
   150.0,-0.000536,-0.000456, 22,-0.026532,-0.000605,  25.588,   88
   150.2,-0.000538,-0.000462, 22,-0.027235,-0.000569,  25.562,   88
   150.4,-0.000548,-0.000470, 22,-0.028009,-0.000618,  25.534,   88
   150.6,-0.000553,-0.000471, 22,-0.028556,-0.000618,  25.508,   86
   150.8,-0.000556,-0.000475, 22,-0.029050,-0.000582,  25.483,   84
   151.0,-0.000561,-0.000478, 22,-0.029460,-0.000605,  25.454,   85
   151.2,-0.000564,-0.000483, 22,-0.029942,-0.000618,  25.419,   85
   151.4,-0.000564,-0.000477, 22,-0.030428,-0.000608,  25.401,   88
   151.6,-0.000564,-0.000479, 22,-0.030924,-0.000631,  25.369,   90
   151.8,-0.000557,-0.000481, 22,-0.031454,-0.000644,  25.341,   88
   152.0,-0.000555,-0.000485, 22,-0.032015,-0.000621,  25.304,   87
   152.2,-0.000561,-0.000487, 22,-0.032608,-0.000657,  25.272,   87
   152.4,-0.000552,-0.000487, 22,-0.033189,-0.000670,  25.245,   87
   152.6,-0.000546,-0.000483, 22,-0.033786,-0.000647,  25.215,   87
   152.8,-0.000548,-0.000485, 22,-0.034408,-0.000683,  25.184,   86
   153.0,-0.000536,-0.000483, 22,-0.034998,-0.000683,  25.149,   87
   153.2,-0.000525,-0.000479, 22,-0.035577,-0.000647,  25.111,   88
   153.4,-0.000518,-0.000482, 22,-0.036160,-0.000683,  25.088,   88
   153.6,-0.000500,-0.000475, 22,-0.036786,-0.000683,  25.054,   88
   153.8,-0.000487,-0.000470, 22,-0.037431,-0.000660,  25.019,   88
   154.0,-0.000482,-0.000469, 22,-0.038085,-0.000696,  24.978,   87
   154.2,-0.000465,-0.000461, 22,-0.038713,-0.000683,  24.944,   89
   154.4,-0.000449,-0.000452, 22,-0.039356,-0.000660,  24.916,   91
   154.6,-0.000439,-0.000448, 22,-0.039981,-0.000696,  24.876,   89
   154.8,-0.000416,-0.000433, 22,-0.040601,-0.000683,  24.841,   88
   155.0,-0.000400,-0.000418, 22,-0.041220,-0.000660,  24.802,   87
   155.2,-0.000390,-0.000408, 22,-0.041855,-0.000696,  24.754,   87
   155.4,-0.000374,-0.000388, 22,-0.042468,-0.000696,  24.726,   87
   155.6,-0.000351,-0.000368, 22,-0.043075,-0.000673,  24.690,   87
   155.8,-0.000333,-0.000352, 22,-0.043686,-0.000709,  24.654,   87
   156.0,-0.000306,-0.000345, 22,-0.044322,-0.000709,  24.617,   88
   156.2,-0.000272,-0.000333, 22,-0.044977,-0.000673,  24.572,   87
   156.4,-0.000240,-0.000314, 22,-0.045640,-0.000709,  24.539,   86
   156.6,-0.000214,-0.000290, 22,-0.046237,-0.000696,  24.500,   86
   156.8,-0.000178,-0.000259, 22,-0.046822,-0.000683,  24.458,   86
   157.0,-0.000140,-0.000239, 22,-0.047386,-0.000706,  24.419,   88
   157.2,-0.000100,-0.000212, 22,-0.048007,-0.000670,  24.370,   89
   157.4,-0.000059,-0.000186, 22,-0.048639,-0.000657,  24.341,   88
   157.6,-0.000015,-0.000160, 22,-0.049296,-0.000680,  24.301,   86
   157.8,0.000031,-0.000133, 22,-0.049907,-0.000644,  24.255,   88
   158.0,0.000080,-0.000101, 22,-0.050492,-0.000631,  24.218,   91
   158.2,0.000134,-0.000066, 22,-0.051086,-0.000641,  24.166,   89
   158.4,0.000186,-0.000032, 22,-0.051659,-0.000592,  24.141,   88
   158.6,0.000237,0.000016, 22,-0.052230,-0.000579,  24.096,   87
   158.8,0.000300,0.000054, 22,-0.052784,-0.000566,  24.058,   85
   159.0,0.000368,0.000099, 22,-0.053249,-0.000576,  24.017,   85
   159.2,0.000439,0.000144, 22,-0.053644,-0.000526,  23.968,   86
   159.4,0.000504,0.000185, 22,-0.054029,-0.000526,  23.935,   86
   159.6,0.000572,0.000237, 22,-0.054345,-0.000500,  23.896,   87
   159.8,0.000637,0.000278, 22,-0.054777,-0.000487,  23.864,   88
   160.0,0.000711,0.000321, 22,-0.055233,-0.000474,  23.817,   89
   160.2,0.000784,0.000372, 22,-0.055716,-0.000484,  23.767,   88
   160.4,0.000860,0.000421, 22,-0.056135,-0.000435,  23.733,   87
   160.6,0.000942,0.000464, 22,-0.056550,-0.000422,  23.697,   87
   160.8,0.001024,0.000502, 22,-0.056938,-0.000445,  23.660,   87
   161.0,0.001111,0.000547, 22,-0.057253,-0.000396,  23.623,   86
   161.2,0.001201,0.000586, 22,-0.057540,-0.000370,  23.575,   85
   161.4,0.001284,0.000637, 22,-0.057794,-0.000380,  23.543,   86
   161.6,0.001377,0.000697, 22,-0.058202,-0.000318,  23.506,   87
   161.8,0.001480,0.000766, 22,-0.058678,-0.000291,  23.471,   86
   162.0,0.001577,0.000829, 22,-0.059220,-0.000288,  23.435,   85
   162.2,0.001690,0.000899, 22,-0.059446,-0.000226,  23.391,   86
   162.4,0.001802,0.000978, 22,-0.059546,-0.000226,  23.367,   86
   162.6,0.001907,0.001041, 22,-0.059519,-0.000236,  23.335,   88
   162.8,0.002026,0.001113, 22,-0.059552,-0.000161,  23.303,   91
   163.0,0.002143,0.001186, 22,-0.059538,-0.000112,  23.276,   89
   163.2,0.002251,0.001256, 22,-0.059498,-0.000108,  23.237,   88
   163.4,0.002375,0.001339, 22,-0.059396,-0.000095,  23.216,   88
   163.6,0.002496,0.001417, 22,-0.059257,-0.000033,  23.186,   88
   163.8,0.002609,0.001493, 22,-0.059065,-0.000030,  23.159,   87
   164.0,0.002736,0.001571, 22,-0.058847,-0.000004,  23.134,   86
   164.2,0.002846,0.001647, 22,-0.058601,0.000058,  23.101,   87
   164.4,0.002947,0.001721, 22,-0.058334,0.000048,  23.080,   88
   164.6,0.003043,0.001809, 22,-0.057954,0.000074,  23.063,   87
   164.8,0.003127,0.001897, 22,-0.057496,0.000137,  23.042,   86
   165.0,0.003251,0.001981, 22,-0.056976,0.000127,  23.027,   87
   165.2,0.003382,0.002067, 22,-0.056458,0.000153,  23.005,   88
   165.4,0.003527,0.002159, 22,-0.055892,0.000192,  22.992,   88
   165.6,0.003659,0.002241, 22,-0.055277,0.000208,  22.979,   89
   165.8,0.003786,0.002328, 22,-0.054575,0.000258,  22.965,   88
   166.0,0.003924,0.002410, 22,-0.053819,0.000284,  22.956,   87
   166.2,0.004064,0.002492, 22,-0.052981,0.000287,  22.941,   87
   166.4,0.004203,0.002581, 22,-0.052137,0.000336,  22.933,   86
   166.6,0.004355,0.002668, 22,-0.051281,0.000349,  22.930,   87
   166.8,0.004501,0.002752, 22,-0.050385,0.000339,  22.926,   87
   167.0,0.004641,0.002842, 22,-0.049417,0.000401,  22.922,   87
   167.2,0.004787,0.002931, 22,-0.048394,0.000415,  22.923,   87
   167.4,0.004938,0.003015, 22,-0.047325,0.000405,  22.922,   86
   167.6,0.005083,0.003102, 22,-0.046211,0.000467,  22.927,   84
   167.8,0.005237,0.003194, 22,-0.045040,0.000480,  22.931,   86
   168.0,0.005385,0.003282, 22,-0.043806,0.000470,  22.934,   88
   168.2,0.005522,0.003371, 22,-0.042485,0.000532,  22.941,   88
   168.4,0.005672,0.003465, 22,-0.041071,0.000532,  22.956,   88
   168.6,0.005815,0.003551, 22,-0.039583,0.000545,  22.962,   88
   168.8,0.005954,0.003638, 22,-0.038383,0.000522,  22.976,   88
   169.0,0.006101,0.003723, 22,-0.037284,0.000572,  22.990,   87
   169.2,0.006245,0.003805, 22,-0.036294,0.000585,  23.005,   87
   169.4,0.006385,0.003890, 22,-0.035395,0.000598,  23.020,   87
   169.6,0.006532,0.003976, 22,-0.033952,0.000598,  23.042,   87
   169.8,0.006676,0.004052, 22,-0.032351,0.000611,  23.058,   87
   170.0,0.006813,0.004135, 22,-0.030587,0.000588,  23.084,   86
   170.2,0.006959,0.004215, 22,-0.028890,0.000637,  23.107,   87
   170.4,0.007100,0.004295, 22,-0.027135,0.000650,  23.131,   87
   170.6,0.007234,0.004382, 22,-0.025339,0.000627,  23.156,   89
   170.8,0.007382,0.004476, 22,-0.023614,0.000663,  23.186,   91
   171.0,0.007514,0.004549, 22,-0.021891,0.000663,  23.218,   90
   171.2,0.007642,0.004600, 22,-0.020167,0.000640,  23.249,   89
   171.4,0.007770,0.004653, 22,-0.018357,0.000676,  23.277,   88
   171.6,0.007900,0.004693, 22,-0.016505,0.000689,  23.313,   87
   171.8,0.008030,0.004757, 22,-0.014605,0.000666,  23.338,   87
   172.0,0.008160,0.004827, 22,-0.012784,0.000702,  23.374,   86
   172.2,0.008282,0.004908, 22,-0.010967,0.000702,  23.425,   88
   172.4,0.008404,0.004972, 22,-0.009153,0.000666,  23.452,   89
   172.6,0.008520,0.005043, 22,-0.007221,0.000702,  23.486,   87
   172.8,0.008645,0.005106, 22,-0.005258,0.000689,  23.529,   86
   173.0,0.008770,0.005168, 22,-0.003244,0.000640,  23.570,   86
   173.2,0.008892,0.005239, 22,-0.001256,0.000676,  23.619,   86
   173.4,0.009011,0.005303, 22,0.000699,0.000689,  23.651,   88
   173.6,0.009125,0.005363, 22,0.002669,0.000653,  23.689,   90
   173.8,0.009236,0.005428, 22,0.004516,0.000689,  23.736,   88
   174.0,0.009333,0.005490, 22,0.006311,0.000676,  23.782,   86
   174.2,0.009419,0.005545, 22,0.008035,0.000653,  23.833,   87
   174.4,0.009497,0.005606, 22,0.010008,0.000676,  23.869,   88
   174.6,0.009563,0.005661, 22,0.012057,0.000663,  23.916,   87
   174.8,0.009660,0.005708, 22,0.014207,0.000627,  23.959,   87
   175.0,0.009763,0.005770, 22,0.016221,0.000650,  24.007,   87
   175.2,0.009872,0.005825, 22,0.018213,0.000624,  24.062,   88
   175.4,0.009977,0.005872, 22,0.020164,0.000588,  24.098,   87
   175.6,0.010080,0.005922, 22,0.022155,0.000624,  24.148,   87
   175.8,0.010186,0.005969, 22,0.024143,0.000598,  24.194,   87
   176.0,0.010286,0.006021, 22,0.026140,0.000548,  24.239,   87
   176.2,0.010386,0.006077, 22,0.028128,0.000585,  24.291,   89
   176.4,0.010484,0.006133, 22,0.030118,0.000572,  24.331,   91
   176.6,0.010573,0.006183, 22,0.032105,0.000522,  24.380,   88
   176.8,0.010662,0.006227, 22,0.034088,0.000545,  24.429,   84
   177.0,0.010745,0.006269, 22,0.036055,0.000545,  24.476,   86
   177.2,0.010840,0.006306, 22,0.038004,0.000509,  24.529,   88
   177.4,0.010935,0.006356, 22,0.039857,0.000532,  24.565,   86
   177.6,0.011033,0.006400, 22,0.041645,0.000506,  24.612,   84
   177.8,0.011122,0.006439, 22,0.043368,0.000470,  24.660,   85
   178.0,0.011202,0.006492, 22,0.045185,0.000506,  24.703,   87
   178.2,0.011292,0.006540, 22,0.047029,0.000480,  24.757,   86
   178.4,0.011379,0.006583, 22,0.048888,0.000480,  24.795,   85
   178.6,0.011465,0.006634, 22,0.050460,0.000431,  24.836,   86
   178.8,0.011556,0.006677, 22,0.051878,0.000467,  24.882,   86
   179.0,0.011639,0.006716, 22,0.053198,0.000454,  24.919,   88
   179.2,0.011720,0.006761, 22,0.054340,0.000441,  24.975,   89
   179.4,0.011796,0.006798, 22,0.056008,0.000428,  25.010,   88
   179.6,0.011877,0.006833, 22,0.057797,0.000428,  25.052,   87
   179.8,0.011955,0.006880, 22,0.059690,0.000391,  25.092,   87
   180.0,0.012033,0.006915, 22,0.061342,0.000415,  25.133,   88
   180.2,0.012114,0.006951, 22,0.062937,0.000388,  25.181,   87
   180.4,0.012192,0.006996, 22,0.064446,0.000352,  25.213,   87
   180.6,0.012268,0.007039, 22,0.066011,0.000375,  25.257,   87
   180.8,0.012346,0.007073, 22,0.067596,0.000349,  25.295,   88
   181.0,0.012424,0.007100, 22,0.069144,0.000300,  25.333,   87
   181.2,0.012503,0.007128, 22,0.070714,0.000336,  25.376,   86
   181.4,0.012581,0.007147, 22,0.072283,0.000323,  25.411,   87
   181.6,0.012654,0.007184, 22,0.073852,0.000287,  25.442,   87
   181.8,0.012724,0.007226, 22,0.075367,0.000297,  25.482,   89
   182.0,0.012796,0.007267, 22,0.076838,0.000284,  25.514,   92
   182.2,0.012866,0.007305, 22,0.078276,0.000248,  25.553,   90
   182.4,0.012933,0.007338, 22,0.079661,0.000271,  25.581,   88
   182.6,0.013006,0.007374, 22,0.080983,0.000258,  25.616,   87
   182.8,0.013079,0.007402, 22,0.082230,0.000221,  25.645,   86
   183.0,0.013155,0.007442, 22,0.083616,0.000244,  25.679,   87
   183.2,0.013230,0.007480, 22,0.085052,0.000231,  25.716,   87
   183.4,0.013300,0.007513, 22,0.086509,0.000182,  25.740,   87
   183.6,0.013368,0.007545, 22,0.087919,0.000218,  25.772,   88
   183.8,0.013440,0.007586, 22,0.089343,0.000205,  25.799,   87
   184.0,0.013510,0.007623, 22,0.090757,0.000169,  25.822,   86
   184.2,0.013578,0.007656, 22,0.092093,0.000192,  25.855,   87
   184.4,0.013637,0.007699, 22,0.093403,0.000179,  25.874,   88
   184.6,0.013683,0.007734, 22,0.094692,0.000156,  25.902,   88
   184.8,0.013740,0.007762, 22,0.095979,0.000179,  25.924,   88
   185.0,0.013782,0.007796, 22,0.097222,0.000166,  25.950,   87
   185.2,0.013843,0.007829, 22,0.098439,0.000130,  25.977,   87
   185.4,0.013920,0.007865, 22,0.099444,0.000153,  25.993,   87
   185.6,0.013996,0.007905, 22,0.100317,0.000140,  26.014,   87
   185.8,0.014066,0.007938, 22,0.101053,0.000104,  26.034,   87
   186.0,0.014139,0.007978, 22,0.102193,0.000140,  26.056,   87
   186.2,0.014206,0.008016, 22,0.103452,0.000127,  26.078,   88
   186.4,0.014279,0.008051, 22,0.104837,0.000091,  26.091,   88
   186.6,0.014355,0.008094, 22,0.106019,0.000127,  26.114,   87
   186.8,0.014428,0.008133, 22,0.107172,0.000114,  26.135,   85
   187.0,0.014498,0.008171, 22,0.108257,0.000064,  26.148,   89
   187.2,0.014568,0.008206, 22,0.109308,0.000101,  26.170,   92
   187.4,0.014630,0.008246, 22,0.110350,0.000101,  26.177,   90
   187.6,0.014698,0.008283, 22,0.111311,0.000051,  26.193,   89
   187.8,0.014765,0.008315, 22,0.112339,0.000088,  26.206,   88
   188.0,0.014830,0.008349, 22,0.113384,0.000101,  26.227,   87
   188.2,0.014894,0.008387, 22,0.114433,0.000101,  26.242,   87
   188.4,0.014962,0.008424, 22,0.115390,0.000064,  26.253,   87
   188.6,0.015027,0.008462, 22,0.116309,0.000101,  26.271,   87
   188.8,0.015094,0.008498, 22,0.117190,0.000088,  26.281,   87
   189.0,0.015159,0.008533, 22,0.117978,0.000088,  26.292,   86
   189.2,0.015226,0.008567, 22,0.118673,0.000088,  26.311,   85
   189.4,0.015294,0.008600, 22,0.119313,0.000088,  26.318,   85
   189.6,0.015356,0.008632, 22,0.119844,0.000064,  26.329,   86
   189.8,0.015415,0.008668, 22,0.120713,0.000088,  26.345,   88
   190.0,0.015477,0.008704, 22,0.121662,0.000074,  26.350,   90
   190.2,0.015532,0.008725, 22,0.122696,0.000051,  26.362,   88
   190.4,0.015586,0.008759, 22,0.123584,0.000074,  26.371,   86
   190.6,0.015648,0.008788, 22,0.124425,0.000074,  26.378,   87
   190.8,0.015712,0.008813, 22,0.125210,0.000051,  26.390,   89
   191.0,0.015781,0.008833, 22,0.126032,0.000074,  26.394,   88
   191.2,0.015843,0.008856, 22,0.126856,0.000061,  26.403,   88
   191.4,0.015905,0.008886, 22,0.127621,0.000038,  26.412,   89
   191.6,0.015967,0.008919, 22,0.128368,0.000061,  26.422,   90
   191.8,0.016029,0.008957, 22,0.129112,0.000048,  26.426,   88
   192.0,0.016094,0.008990, 22,0.129822,0.000012,  26.434,   87
   192.2,0.016156,0.009024, 22,0.130537,0.000048,  26.442,   87
   192.4,0.016218,0.009055, 22,0.131236,0.000035,  26.442,   87
   192.6,0.016280,0.009088, 22,0.131943,-0.000001,  26.452,   88
   192.8,0.016334,0.009123, 22,0.132691,0.000048,  26.455,   89
   193.0,0.016393,0.009157, 22,0.133457,0.000035,  26.461,   88
   193.2,0.016452,0.009189, 22,0.134254,-0.000001,  26.467,   86
   193.4,0.016506,0.009216, 22,0.134937,0.000048,  26.471,   87
   193.6,0.016565,0.009250, 22,0.135575,0.000035,  26.475,   87
   193.8,0.016624,0.009281, 22,0.136170,-0.000001,  26.481,   86
   194.0,0.016681,0.009310, 22,0.136850,0.000048,  26.482,   85
   194.2,0.016731,0.009346, 22,0.137499,0.000035,  26.486,   87
   194.4,0.016773,0.009378, 22,0.138168,-0.000001,  26.484,   88
   194.6,0.016822,0.009407, 22,0.138845,0.000048,  26.492,   87
   194.8,0.016859,0.009441, 22,0.139513,0.000035,  26.494,   85
   195.0,0.016908,0.009470, 22,0.140182,-0.000001,  26.489,   86
   195.2,0.016969,0.009502, 22,0.140792,0.000048,  26.496,   86
   195.4,0.017031,0.009534, 22,0.141365,0.000035,  26.495,   87
   195.6,0.017087,0.009565, 22,0.141907,-0.000001,  26.493,   89
   195.8,0.017144,0.009595, 22,0.142513,0.000048,  26.495,   87
   196.0,0.017198,0.009626, 22,0.143133,0.000035,  26.493,   86
   196.2,0.017257,0.009660, 22,0.143780,-0.000001,  26.494,   88
   196.4,0.017314,0.009689, 22,0.144372,0.000048,  26.498,   90
   196.6,0.017367,0.009721, 22,0.144955,0.000035,  26.499,   88
   196.8,0.017424,0.009754, 22,0.145499,-0.000001,  26.506,   86
   197.0,0.017478,0.009779, 22,0.146022,0.000048,  26.501,   87
   197.2,0.017531,0.009808, 22,0.146498,0.000035,  26.502,   87
   197.4,0.017588,0.009838, 22,0.146941,-0.000001,  26.504,   86
   197.6,0.017644,0.009863, 22,0.147460,0.000035,  26.504,   85
   197.8,0.017701,0.009896, 22,0.148020,0.000022,  26.504,   86
   198.0,0.017752,0.009925, 22,0.148584,0.000022,  26.506,   87
   198.2,0.017803,0.009953, 22,0.149110,-0.000014,  26.506,   88
   198.4,0.017848,0.009984, 22,0.149659,0.000035,  26.507,   88
   198.6,0.017896,0.010007, 22,0.150225,0.000022,  26.504,   87
   198.8,0.017947,0.010037, 22,0.150692,0.000035,  26.502,   87
   199.0,0.017998,0.010056, 22,0.151129,0.000035,  26.503,   86
   199.2,0.018059,0.010079, 22,0.151501,0.000022,  26.505,   86
   199.4,0.018104,0.010109, 22,0.151867,-0.000014,  26.501,   86
   199.6,0.018149,0.010141, 22,0.152318,0.000022,  26.502,   85
   199.8,0.018210,0.010168, 22,0.152799,0.000022,  26.499,   86
   200.0,0.018261,0.010198, 22,0.153274,-0.000014,  26.502,   87
   200.2,0.018308,0.010228, 22,0.153733,0.000022,  26.499,   86
   200.4,0.018359,0.010254, 22,0.154198,0.000022,  26.497,   85
   200.6,0.018407,0.010272, 22,0.154636,-0.000014,  26.501,   86
   200.8,0.018453,0.010302, 22,0.155085,0.000022,  26.500,   86
   201.0,0.018501,0.010316, 22,0.155535,0.000022,  26.498,   89
   201.2,0.018549,0.010341, 22,0.155992,-0.000014,  26.496,   91
   201.4,0.018594,0.010365, 22,0.156476,0.000035,  26.490,   90
   201.6,0.018640,0.010390, 22,0.156921,0.000035,  26.487,   89
   201.8,0.018685,0.010415, 22,0.157367,-0.000001,  26.485,   88
   202.0,0.018730,0.010438, 22,0.157795,0.000048,  26.486,   87
   202.2,0.018772,0.010455, 22,0.158196,0.000035,  26.481,   87
   202.4,0.018815,0.010481, 22,0.158576,-0.000001,  26.483,   88
   202.6,0.018857,0.010506, 22,0.158989,0.000048,  26.483,   87
   202.8,0.018896,0.010526, 22,0.159408,0.000035,  26.480,   86
   203.0,0.018941,0.010551, 22,0.159817,-0.000001,  26.481,   86
   203.2,0.018993,0.010571, 22,0.160094,0.000048,  26.478,   87
   203.4,0.019039,0.010597, 22,0.160332,0.000035,  26.477,   90
   203.6,0.019079,0.010617, 22,0.160507,-0.000001,  26.478,   92
   203.8,0.019115,0.010639, 22,0.160926,0.000048,  26.480,   90
   204.0,0.019150,0.010667, 22,0.161472,0.000035,  26.475,   88
   204.2,0.019177,0.010688, 22,0.162132,-0.000001,  26.471,   87
   204.4,0.019208,0.010707, 22,0.162616,0.000048,  26.473,   86
   204.6,0.019234,0.010731, 22,0.163055,0.000035,  26.476,   87
   204.8,0.019267,0.010758, 22,0.163448,-0.000001,  26.478,   87
   205.0,0.019304,0.010779, 22,0.163859,0.000035,  26.475,   87
   205.2,0.019350,0.010806, 22,0.164231,0.000045,  26.472,   88
   205.4,0.019390,0.010829, 22,0.164562,0.000009,  26.469,   86
   205.6,0.019426,0.010851, 22,0.164974,0.000022,  26.473,   84
   205.8,0.019475,0.010870, 22,0.165358,0.000045,  26.470,   85
   206.0,0.019512,0.010891, 22,0.165771,0.000009,  26.475,   85
   206.2,0.019545,0.010910, 22,0.166178,0.000022,  26.476,   88
   206.4,0.019589,0.010934, 22,0.166586,0.000022,  26.474,   92
   206.6,0.019629,0.010955, 22,0.166976,-0.000014,  26.472,   89
   206.8,0.019666,0.010973, 22,0.167309,0.000022,  26.475,   87
   207.0,0.019706,0.011001, 22,0.167609,0.000022,  26.472,   87
   207.2,0.019746,0.011025, 22,0.167857,-0.000014,  26.474,   88
   207.4,0.019780,0.011045, 22,0.168173,0.000035,  26.475,   88
   207.6,0.019817,0.011067, 22,0.168507,0.000035,  26.475,   88
   207.8,0.019854,0.011088, 22,0.168835,0.000035,  26.477,   87
   208.0,0.019888,0.011104, 22,0.169198,0.000012,  26.477,   87
   208.2,0.019920,0.011123, 22,0.169533,0.000035,  26.479,   87
   208.4,0.019951,0.011134, 22,0.169880,0.000035,  26.479,   87
   208.6,0.019985,0.011150, 22,0.170173,0.000048,  26.484,   86
   208.8,0.020019,0.011172, 22,0.170461,0.000035,  26.480,   86
   209.0,0.020051,0.011190, 22,0.170709,0.000035,  26.479,   88
   209.2,0.020072,0.011209, 22,0.170932,-0.000001,  26.479,   91
   209.4,0.020104,0.011223, 22,0.171186,0.000048,  26.483,   89
   209.6,0.020135,0.011235, 22,0.171446,0.000035,  26.480,   87
   209.8,0.020157,0.011253, 22,0.171695,-0.000001,  26.481,   87
   210.0,0.020189,0.011266, 22,0.171990,0.000048,  26.476,   87
   210.2,0.020220,0.011283, 22,0.172285,0.000035,  26.483,   86
   210.4,0.020239,0.011291, 22,0.172610,-0.000001,  26.481,   85
   210.6,0.020272,0.011306, 22,0.172894,0.000048,  26.481,   88
   210.8,0.020303,0.011316, 22,0.173108,0.000035,  26.482,   90
   211.0,0.020331,0.011331, 22,0.173315,-0.000001,  26.485,   88
   211.2,0.020367,0.011348, 22,0.173612,0.000048,  26.485,   86
   211.4,0.020395,0.011363, 22,0.173937,0.000035,  26.479,   87
   211.6,0.020421,0.011375, 22,0.174275,-0.000001,  26.485,   88
   211.8,0.020449,0.011392, 22,0.174559,0.000048,  26.483,   89
   212.0,0.020478,0.011407, 22,0.174856,0.000035,  26.489,   89
   212.2,0.020494,0.011414, 22,0.175142,-0.000001,  26.489,   87
   212.4,0.020516,0.011435, 22,0.175392,0.000048,  26.481,   86
   212.6,0.020545,0.011448, 22,0.175577,0.000035,  26.485,   87
   212.8,0.020561,0.011458, 22,0.175757,-0.000001,  26.487,   88
   213.0,0.020591,0.011477, 22,0.175989,0.000035,  26.486,   87
   213.2,0.020616,0.011492, 22,0.176222,0.000022,  26.484,   87
   213.4,0.020632,0.011500, 22,0.176448,-0.000014,  26.486,   87
   213.6,0.020659,0.011515, 22,0.176723,0.000022,  26.485,   87
   213.8,0.020679,0.011524, 22,0.176985,0.000022,  26.483,   86
   214.0,0.020692,0.011534, 22,0.177260,-0.000014,  26.487,   86
   214.2,0.020709,0.011553, 22,0.177487,0.000022,  26.486,   87
   214.4,0.020730,0.011566, 22,0.177703,0.000022,  26.486,   87
   214.6,0.020743,0.011576, 22,0.177877,-0.000014,  26.485,   87
   214.8,0.020767,0.011589, 22,0.178086,0.000022,  26.485,   87
   215.0,0.020791,0.011599, 22,0.178296,0.000022,  26.483,   87
   215.2,0.020811,0.011610, 22,0.178506,-0.000014,  26.486,   86
   215.4,0.020827,0.011621, 22,0.178692,0.000022,  26.484,   86
   215.6,0.020838,0.011633, 22,0.178812,0.000022,  26.480,   86
   215.8,0.020858,0.011640, 22,0.178903,-0.000014,  26.487,   85
   216.0,0.020875,0.011653, 22,0.179065,0.000022,  26.488,   84
   216.2,0.020898,0.011661, 22,0.179234,0.000022,  26.488,   86
   216.4,0.020918,0.011669, 22,0.179396,-0.000014,  26.487,   89
   216.6,0.020926,0.011682, 22,0.179564,0.000022,  26.485,   87
   216.8,0.020950,0.011688, 22,0.179774,0.000022,  26.486,   85
   217.0,0.020967,0.011694, 22,0.179996,-0.000014,  26.488,   86
   217.2,0.020974,0.011707, 22,0.180141,0.000022,  26.489,   87
   217.4,0.020995,0.011716, 22,0.180292,0.000022,  26.487,   87
   217.6,0.021012,0.011722, 22,0.180419,0.000022,  26.489,   87
   217.8,0.021023,0.011729, 22,0.180552,-0.000014,  26.486,   87
   218.0,0.021047,0.011736, 22,0.180666,0.000035,  26.488,   88
   218.2,0.021061,0.011740, 22,0.180733,0.000022,  26.491,   87
   218.4,0.021066,0.011746, 22,0.180842,0.000035,  26.488,   87
   218.6,0.021084,0.011756, 22,0.180950,0.000035,  26.485,   87
   218.8,0.021095,0.011764, 22,0.181041,0.000022,  26.485,   86
   219.0,0.021097,0.011765, 22,0.181149,-0.000014,  26.482,   87
   219.2,0.021115,0.011775, 22,0.181300,0.000022,  26.484,   88
   219.4,0.021126,0.011786, 22,0.181480,0.000022,  26.485,   87
   219.6,0.021131,0.011790, 22,0.181649,-0.000014,  26.481,   87
   219.8,0.021149,0.011799, 22,0.181758,0.000022,  26.480,   89
   220.0,0.021161,0.011803, 22,0.181843,0.000022,  26.481,   90
   220.2,0.021160,0.011807, 22,0.181868,-0.000014,  26.480,   90
   220.4,0.021169,0.011804, 22,0.181928,0.000022,  26.477,   91
   220.6,0.021175,0.011809, 22,0.182025,0.000022,  26.475,   89
   220.8,0.021184,0.011816, 22,0.182086,-0.000014,  26.471,   87
   221.0,0.021199,0.011815, 22,0.182177,0.000022,  26.472,   87
   221.2,0.021204,0.011823, 22,0.182291,0.000022,  26.470,   87
   221.4,0.021210,0.011826, 22,0.182400,-0.000014,  26.465,   88
   221.6,0.021216,0.011828, 22,0.182521,0.000022,  26.472,   88
   221.8,0.021224,0.011830, 22,0.182654,0.000022,  26.468,   86
   222.0,0.021227,0.011828, 22,0.182769,-0.000014,  26.470,   85
   222.2,0.021227,0.011832, 22,0.182872,0.000022,  26.464,   85
   222.4,0.021233,0.011838, 22,0.182956,0.000022,  26.462,   86
   222.6,0.021229,0.011838, 22,0.183005,-0.000014,  26.460,   88
   222.8,0.021232,0.011843, 22,0.183029,0.000022,  26.459,   90
   223.0,0.021238,0.011846, 22,0.183023,0.000009,  26.457,   89
   223.2,0.021234,0.011852, 22,0.182982,-0.000027,  26.455,   87
   223.4,0.021246,0.011849, 22,0.183018,0.000022,  26.451,   87
   223.6,0.021246,0.011854, 22,0.183085,0.000009,  26.454,   87
   223.8,0.021245,0.011856, 22,0.183181,-0.000027,  26.457,   87
   224.0,0.021243,0.011854, 22,0.183248,0.000022,  26.454,   88
   224.2,0.021249,0.011852, 22,0.183321,0.000009,  26.457,   88
   224.4,0.021245,0.011850, 22,0.183351,-0.000027,  26.460,   88
   224.6,0.021243,0.011850, 22,0.183357,0.000022,  26.457,   87
   224.8,0.021246,0.011846, 22,0.183321,0.000009,  26.449,   86
   225.0,0.021246,0.011844, 22,0.183255,-0.000027,  26.458,   86
   225.2,0.021246,0.011844, 22,0.183225,0.000009,  26.456,   87
   225.4,0.021253,0.011843, 22,0.183201,-0.000004,  26.458,   89
   225.6,0.021250,0.011843, 22,0.183177,-0.000040,  26.460,   90
   225.8,0.021250,0.011845, 22,0.183207,-0.000004,  26.454,   89
   226.0,0.021250,0.011845, 22,0.183225,-0.000004,  26.460,   89
   226.2,0.021247,0.011843, 22,0.183273,-0.000040,  26.459,   88
   226.4,0.021247,0.011841, 22,0.183315,-0.000004,  26.462,   87
   226.6,0.021247,0.011836, 22,0.183327,-0.000004,  26.459,   87
   226.8,0.021247,0.011834, 22,0.183333,-0.000040,  26.462,   86
   227.0,0.021238,0.011832, 22,0.183333,-0.000004,  26.457,   87
   227.2,0.021229,0.011828, 22,0.183321,-0.000004,  26.462,   88
   227.4,0.021226,0.011830, 22,0.183261,-0.000004,  26.462,   87
   227.6,0.021214,0.011825, 22,0.183116,-0.000040,  26.463,   85
   227.8,0.021212,0.011820, 22,0.182917,-0.000004,  26.461,   86
   228.0,0.021206,0.011820, 22,0.182633,-0.000004,  26.462,   86
   228.2,0.021191,0.011816, 22,0.182573,-0.000004,  26.461,   88
   228.4,0.021192,0.011812, 22,0.182561,0.000009,  26.461,   89
   228.6,0.021186,0.011810, 22,0.182639,-0.000004,  26.460,   87
   228.8,0.021171,0.011808, 22,0.182753,-0.000040,  26.457,   86
   229.0,0.021169,0.011806, 22,0.182771,-0.000004,  26.459,   87
   229.2,0.021164,0.011801, 22,0.182795,-0.000004,  26.462,   89
   229.4,0.021154,0.011795, 22,0.182831,-0.000040,  26.464,   88
   229.6,0.021152,0.011789, 22,0.182794,-0.000004,  26.463,   87
   229.8,0.021144,0.011784, 22,0.182722,-0.000004,  26.462,   88
   230.0,0.021131,0.011780, 22,0.182649,-0.000040,  26.461,   88
   230.2,0.021126,0.011779, 22,0.182613,-0.000004,  26.459,   88
   230.4,0.021118,0.011775, 22,0.182559,-0.000004,  26.462,   87
   230.6,0.021109,0.011765, 22,0.182498,-0.000040,  26.463,   87
   230.8,0.021105,0.011764, 22,0.182462,-0.000004,  26.460,   86
   231.0,0.021096,0.011756, 22,0.182389,-0.000004,  26.459,   87
   231.2,0.021087,0.011756, 22,0.182322,-0.000040,  26.460,   88
   231.4,0.021079,0.011749, 22,0.182274,-0.000004,  26.465,   87
   231.6,0.021070,0.011746, 22,0.182195,-0.000004,  26.463,   86
   231.8,0.021062,0.011744, 22,0.182134,-0.000040,  26.463,   86
   232.0,0.021053,0.011740, 22,0.182044,-0.000004,  26.461,   86
   232.2,0.021045,0.011734, 22,0.181923,-0.000004,  26.465,   86
   232.4,0.021033,0.011730, 22,0.181778,-0.000040,  26.466,   86
   232.6,0.021022,0.011718, 22,0.181706,-0.000004,  26.472,   87
   232.8,0.021008,0.011712, 22,0.181669,-0.000004,  26.470,   88
   233.0,0.020993,0.011706, 22,0.181609,-0.000040,  26.472,   86
   233.2,0.020976,0.011697, 22,0.181548,-0.000004,  26.469,   85
   233.4,0.020965,0.011689, 22,0.181506,-0.000004,  26.471,   86
   233.6,0.020953,0.011683, 22,0.181433,-0.000040,  26.466,   88
   233.8,0.020948,0.011677, 22,0.181367,-0.000004,  26.462,   87
   234.0,0.020946,0.011671, 22,0.181282,-0.000004,  26.460,   87
   234.2,0.020928,0.011664, 22,0.181185,-0.000040,  26.457,   87
   234.4,0.020911,0.011658, 22,0.181070,-0.000004,  26.459,   88
   234.6,0.020900,0.011647, 22,0.180968,-0.000004,  26.459,   87
   234.8,0.020886,0.011639, 22,0.180823,-0.000040,  26.458,   86
   235.0,0.020875,0.011630, 22,0.180696,-0.000004,  26.456,   85
   235.2,0.020857,0.011625, 22,0.180558,-0.000004,  26.455,   84
   235.4,0.020840,0.011619, 22,0.180426,-0.000040,  26.455,   86
   235.6,0.020826,0.011608, 22,0.180311,-0.000004,  26.457,   88
   235.8,0.020806,0.011603, 22,0.180184,-0.000004,  26.459,   87
   236.0,0.020789,0.011594, 22,0.180058,-0.000040,  26.453,   86
   236.2,0.020769,0.011586, 22,0.179884,-0.000004,  26.454,   87
   236.4,0.020746,0.011573, 22,0.179722,-0.000004,  26.451,   88
   236.6,0.020729,0.011557, 22,0.179506,-0.000040,  26.452,   88
   236.8,0.020719,0.011544, 22,0.179356,-0.000004,  26.445,   88
   237.0,0.020708,0.011537, 22,0.179259,-0.000004,  26.447,   88
   237.2,0.020682,0.011527, 22,0.179150,-0.000004,  26.443,   88
   237.4,0.020665,0.011517, 22,0.179018,-0.000040,  26.442,   87
   237.6,0.020645,0.011504, 22,0.178874,-0.000004,  26.445,   87
   237.8,0.020621,0.011491, 22,0.178718,-0.000004,  26.443,   87
   238.0,0.020601,0.011483, 22,0.178598,-0.000004,  26.443,   87
   238.2,0.020588,0.011472, 22,0.178484,0.000009,  26.442,   86
   238.4,0.020564,0.011460, 22,0.178346,-0.000004,  26.438,   84
   238.6,0.020541,0.011447, 22,0.178238,-0.000053,  26.437,   85
   238.8,0.020522,0.011436, 22,0.178077,-0.000017,  26.436,   85
   239.0,0.020496,0.011428, 22,0.177891,-0.000017,  26.437,   88
   239.2,0.020476,0.011415, 22,0.177652,-0.000066,  26.433,   91
   239.4,0.020456,0.011402, 22,0.177306,-0.000030,  26.435,   90
   239.6,0.020433,0.011392, 22,0.176884,-0.000017,  26.430,   89
   239.8,0.020407,0.011378, 22,0.176384,-0.000040,  26.426,   88
   240.0,0.020382,0.011373, 22,0.176205,-0.000004,  26.423,   87
   240.2,0.020362,0.011362, 22,0.176127,-0.000004,  26.422,   87
   240.4,0.020339,0.011352, 22,0.176167,-0.000040,  26.422,   87
   240.6,0.020313,0.011339, 22,0.176059,-0.000004,  26.425,   87
   240.8,0.020293,0.011324, 22,0.175951,0.000019,  26.422,   87
   241.0,0.020274,0.011309, 22,0.175813,-0.000030,  26.422,   87
   241.2,0.020248,0.011294, 22,0.175688,-0.000030,  26.424,   86
   241.4,0.020225,0.011281, 22,0.175586,0.000019,  26.427,   86
   241.6,0.020199,0.011265, 22,0.175448,-0.000004,  26.426,   87
   241.8,0.020174,0.011248, 22,0.175311,-0.000004,  26.429,   89
   242.0,0.020151,0.011240, 22,0.175138,0.000032,  26.431,   91
   242.2,0.020126,0.011228, 22,0.174953,0.000009,  26.426,   90
   242.4,0.020103,0.011213, 22,0.174739,0.000009,  26.431,   89
   242.6,0.020077,0.011201, 22,0.174495,0.000032,  26.428,   87
   242.8,0.020052,0.011190, 22,0.174240,-0.000004,  26.428,   86
   243.0,0.020023,0.011175, 22,0.173909,-0.000004,  26.428,   87
   243.2,0.020000,0.011165, 22,0.173537,0.000032,  26.431,   88
   243.4,0.019980,0.011155, 22,0.173107,-0.000004,  26.425,   88
   243.6,0.019960,0.011135, 22,0.172870,-0.000004,  26.430,   88
   243.8,0.019950,0.011123, 22,0.172711,0.000032,  26.429,   86
   244.0,0.019921,0.011110, 22,0.172592,-0.000004,  26.432,   84
   244.2,0.019892,0.011091, 22,0.172460,-0.000004,  26.433,   85
   244.4,0.019864,0.011076, 22,0.172376,0.000032,  26.434,   86
   244.6,0.019844,0.011063, 22,0.172315,-0.000004,  26.434,   87
   244.8,0.019821,0.011050, 22,0.172167,-0.000004,  26.441,   88
   245.0,0.019798,0.011041, 22,0.171918,0.000032,  26.445,   87
   245.2,0.019776,0.011028, 22,0.171630,-0.000004,  26.445,   86
   245.4,0.019750,0.011008, 22,0.171406,0.000009,  26.445,   88
   245.6,0.019722,0.010993, 22,0.171158,0.000045,  26.447,   90
   245.8,0.019693,0.010978, 22,0.170910,0.000009,  26.444,   89
   246.0,0.019665,0.010963, 22,0.170703,0.000022,  26.445,   88
   246.2,0.019633,0.010954, 22,0.170496,0.000045,  26.452,   88
   246.4,0.019608,0.010942, 22,0.170331,0.000009,  26.452,   88
   246.6,0.019582,0.010924, 22,0.170113,0.000022,  26.452,   87
   246.8,0.019557,0.010914, 22,0.169849,0.000045,  26.454,   86
   247.0,0.019531,0.010904, 22,0.169585,0.000045,  26.459,   86
   247.2,0.019503,0.010887, 22,0.169345,0.000009,  26.459,   86
   247.4,0.019469,0.010869, 22,0.169063,0.000009,  26.460,   87
   247.6,0.019443,0.010858, 22,0.168805,0.000009,  26.464,   89
   247.8,0.019420,0.010845, 22,0.168588,0.000022,  26.458,   87
   248.0,0.019392,0.010832, 22,0.168412,0.000022,  26.461,   86
   248.2,0.019357,0.010815, 22,0.168206,0.000022,  26.462,   86
   248.4,0.019328,0.010797, 22,0.168065,-0.000014,  26.467,   86
   248.6,0.019294,0.010785, 22,0.167901,0.000022,  26.468,   85
   248.8,0.019257,0.010768, 22,0.167713,0.000022,  26.471,   85
   249.0,0.019225,0.010747, 22,0.167525,-0.000014,  26.473,   87
   249.2,0.019201,0.010728, 22,0.167279,0.000022,  26.471,   89
   249.4,0.019169,0.010711, 22,0.167005,0.000022,  26.476,   87
   249.6,0.019138,0.010696, 22,0.166726,-0.000014,  26.483,   86
   249.8,0.019107,0.010681, 22,0.166470,0.000022,  26.484,   86
   250.0,0.019079,0.010671, 22,0.166178,0.000022,  26.484,   86
   250.2,0.019050,0.010654, 22,0.165894,-0.000014,  26.487,   87
   250.4,0.019019,0.010640, 22,0.165609,0.000022,  26.487,   88
   250.6,0.018993,0.010625, 22,0.165301,0.000022,  26.486,   88
   250.8,0.018962,0.010614, 22,0.164964,-0.000014,  26.487,   88
   251.0,0.018934,0.010595, 22,0.164679,0.000022,  26.488,   88
   251.2,0.018905,0.010582, 22,0.164446,0.000022,  26.491,   87
   251.4,0.018871,0.010568, 22,0.164196,-0.000014,  26.493,   87
   251.6,0.018837,0.010544, 22,0.163946,0.000022,  26.491,   87
   251.8,0.018806,0.010530, 22,0.163703,0.000022,  26.496,   87
   252.0,0.018769,0.010513, 22,0.163460,-0.000014,  26.495,   88
   252.2,0.018732,0.010492, 22,0.163221,0.000022,  26.499,   87
   252.4,0.018708,0.010478, 22,0.162983,0.000022,  26.498,   86
   252.6,0.018671,0.010461, 22,0.162751,-0.000014,  26.500,   88
   252.8,0.018634,0.010440, 22,0.162519,0.000022,  26.501,   89
   253.0,0.018606,0.010421, 22,0.162253,0.000022,  26.506,   88
   253.2,0.018583,0.010406, 22,0.161988,-0.000014,  26.504,   87
   253.4,0.018551,0.010389, 22,0.161711,0.000022,  26.506,   87
   253.6,0.018538,0.010372, 22,0.161382,0.000022,  26.508,   88
   253.8,0.018500,0.010356, 22,0.161066,-0.000014,  26.506,   87
   254.0,0.018466,0.010336, 22,0.160801,0.000022,  26.512,   86
   254.2,0.018436,0.010315, 22,0.160546,0.000022,  26.512,   86
   254.4,0.018404,0.010296, 22,0.160333,-0.000014,  26.514,   86
   254.6,0.018368,0.010277, 22,0.160057,0.000022,  26.517,   86
   254.8,0.018331,0.010259, 22,0.159747,0.000022,  26.518,   86
   255.0,0.018297,0.010240, 22,0.159432,-0.000014,  26.520,   86
   255.2,0.018260,0.010218, 22,0.159122,0.000022,  26.521,   86
   255.4,0.018217,0.010199, 22,0.158818,0.000022,  26.524,   87
   255.6,0.018181,0.010178, 22,0.158504,-0.000014,  26.530,   88
   255.8,0.018147,0.010153, 22,0.158223,0.000022,  26.530,   88
   256.0,0.018110,0.010133, 22,0.157953,0.000022,  26.529,   87
   256.2,0.018073,0.010114, 22,0.157711,-0.000014,  26.531,   88
   256.4,0.018036,0.010095, 22,0.157448,0.000022,  26.529,   88
   256.6,0.017999,0.010078, 22,0.157157,0.000022,  26.535,   87
   256.8,0.017968,0.010062, 22,0.156842,0.000022,  26.537,   87
   257.0,0.017934,0.010039, 22,0.156506,-0.000014,  26.537,   87
   257.2,0.017897,0.010015, 22,0.156159,0.000035,  26.536,   87
   257.4,0.017860,0.009995, 22,0.155791,0.000022,  26.540,   87
   257.6,0.017823,0.009978, 22,0.155490,0.000035,  26.541,   88
   257.8,0.017786,0.009957, 22,0.155234,0.000035,  26.539,   87
   258.0,0.017752,0.009935, 22,0.154985,0.000022,  26.540,   87
   258.2,0.017715,0.009913, 22,0.154786,-0.000014,  26.540,   90
   258.4,0.017682,0.009894, 22,0.154525,0.000022,  26.538,   94
   258.6,0.017652,0.009872, 22,0.154218,0.000022,  26.540,   92
   258.8,0.017618,0.009863, 22,0.153923,-0.000014,  26.540,   89
   259.0,0.017575,0.009846, 22,0.153655,0.000022,  26.542,   88
   259.2,0.017538,0.009830, 22,0.153382,0.000022,  26.539,   86
   259.4,0.017501,0.009815, 22,0.153098,-0.000014,  26.543,   86
   259.6,0.017464,0.009798, 22,0.152775,0.000035,  26.541,   87
   259.8,0.017424,0.009781, 22,0.152460,0.000035,  26.547,   87
   260.0,0.017387,0.009758, 22,0.152106,-0.000001,  26.545,   87
   260.2,0.017345,0.009739, 22,0.151795,0.000048,  26.542,   86
   260.4,0.017301,0.009716, 22,0.151507,0.000035,  26.549,   84
   260.6,0.017264,0.009692, 22,0.151220,-0.000001,  26.545,   85
   260.8,0.017232,0.009673, 22,0.150943,0.000048,  26.547,   86
   261.0,0.017195,0.009652, 22,0.150667,0.000035,  26.544,   88
   261.2,0.017158,0.009625, 22,0.150384,-0.000001,  26.550,   90
   261.4,0.017121,0.009610, 22,0.150020,0.000048,  26.553,   89
   261.6,0.017085,0.009592, 22,0.149611,0.000035,  26.558,   87
   261.8,0.017048,0.009568, 22,0.149165,-0.000001,  26.558,   87
   262.0,0.017005,0.009548, 22,0.148801,0.000048,  26.557,   87
   262.2,0.016969,0.009528, 22,0.148471,0.000035,  26.561,   88
   262.4,0.016929,0.009507, 22,0.148165,-0.000001,  26.554,   88
   262.6,0.016890,0.009484, 22,0.147846,0.000048,  26.558,   88
   262.8,0.016853,0.009462, 22,0.147544,0.000035,  26.559,   87
   263.0,0.016818,0.009441, 22,0.147220,-0.000001,  26.560,   87
   263.2,0.016794,0.009415, 22,0.146879,0.000048,  26.560,   86
   263.4,0.016765,0.009401, 22,0.146551,0.000035,  26.563,   85
   263.6,0.016722,0.009378, 22,0.146206,-0.000001,  26.564,   84
   263.8,0.016692,0.009355, 22,0.145866,0.000048,  26.565,   87
   264.0,0.016650,0.009339, 22,0.145538,0.000035,  26.565,   89
   264.2,0.016613,0.009319, 22,0.145178,-0.000001,  26.559,   88
   264.4,0.016573,0.009293, 22,0.144822,0.000048,  26.570,   87
   264.6,0.016534,0.009273, 22,0.144472,0.000035,  26.565,   87
   264.8,0.016497,0.009252, 22,0.144112,-0.000001,  26.563,   86
   265.0,0.016458,0.009224, 22,0.143763,0.000048,  26.568,   86
   265.2,0.016415,0.009197, 22,0.143427,0.000035,  26.568,   85
   265.4,0.016376,0.009171, 22,0.143081,-0.000001,  26.569,   86
   265.6,0.016334,0.009144, 22,0.142760,0.000048,  26.567,   87
   265.8,0.016291,0.009130, 22,0.142482,0.000035,  26.563,   86
   266.0,0.016255,0.009106, 22,0.142199,-0.000001,  26.566,   85
   266.2,0.016215,0.009083, 22,0.141862,0.000048,  26.563,   85
   266.4,0.016176,0.009064, 22,0.141521,0.000035,  26.568,   85
   266.6,0.016139,0.009041, 22,0.141141,0.000035,  26.567,   86
   266.8,0.016102,0.009026, 22,0.140761,0.000012,  26.564,   88
   267.0,0.016063,0.009006, 22,0.140378,0.000035,  26.572,   88
   267.2,0.016026,0.008988, 22,0.139962,0.000035,  26.567,   87
   267.4,0.015984,0.008963, 22,0.139639,0.000048,  26.564,   87
   267.6,0.015944,0.008937, 22,0.139376,0.000035,  26.570,   87
   267.8,0.015905,0.008916, 22,0.139125,0.000035,  26.566,   87
   268.0,0.015868,0.008896, 22,0.138918,-0.000001,  26.569,   88
   268.2,0.015826,0.008872, 22,0.138600,0.000048,  26.564,   88
   268.4,0.015784,0.008846, 22,0.138261,0.000035,  26.564,   88
   268.6,0.015742,0.008818, 22,0.137907,-0.000001,  26.567,   87
   268.8,0.015696,0.008800, 22,0.137567,0.000035,  26.567,   86
   269.0,0.015654,0.008781, 22,0.137256,0.000022,  26.565,   86
   269.2,0.015615,0.008759, 22,0.136906,-0.000014,  26.568,   87
   269.4,0.015573,0.008743, 22,0.136408,0.000022,  26.568,   87
   269.6,0.015533,0.008726, 22,0.135832,0.000022,  26.567,   88
   269.8,0.015497,0.008707, 22,0.135167,-0.000014,  26.567,   87
   270.0,0.015460,0.008684, 22,0.134835,0.000022,  26.566,   87
   270.2,0.015420,0.008656, 22,0.134603,0.000022,  26.564,   86
   270.4,0.015378,0.008633, 22,0.134498,-0.000014,  26.568,   86
   270.6,0.015336,0.008605, 22,0.134268,0.000022,  26.571,   86
   270.8,0.015297,0.008585, 22,0.133980,0.000009,  26.568,   86
   271.0,0.015260,0.008564, 22,0.133704,-0.000027,  26.565,   86
   271.2,0.015218,0.008536, 22,0.133405,0.000022,  26.566,   87
   271.4,0.015178,0.008516, 22,0.133081,0.000009,  26.564,   86
   271.6,0.015136,0.008490, 22,0.132725,-0.000027,  26.568,   85
   271.8,0.015094,0.008471, 22,0.132411,0.000009,  26.566,   86
   272.0,0.015058,0.008450, 22,0.132098,-0.000004,  26.568,   87
   272.2,0.015018,0.008424, 22,0.131780,-0.000040,  26.563,   87
   272.4,0.014982,0.008406, 22,0.131477,0.000009,  26.566,   88
   272.6,0.014948,0.008385, 22,0.131162,0.000009,  26.566,   88
   272.8,0.014913,0.008364, 22,0.130837,-0.000027,  26.567,   89
   273.0,0.014886,0.008343, 22,0.130534,0.000022,  26.564,   88
   273.2,0.014861,0.008319, 22,0.130232,0.000009,  26.564,   87
   273.4,0.014817,0.008295, 22,0.129936,-0.000027,  26.562,   87
   273.6,0.014785,0.008281, 22,0.129582,0.000022,  26.565,   87
   273.8,0.014749,0.008260, 22,0.129225,0.000009,  26.563,   87
   274.0,0.014717,0.008233, 22,0.128826,-0.000027,  26.563,   87
   274.2,0.014674,0.008217, 22,0.128483,0.000022,  26.560,   87
   274.4,0.014626,0.008191, 22,0.128156,0.000009,  26.564,   87
   274.6,0.014586,0.008163, 22,0.127829,-0.000027,  26.567,   90
   274.8,0.014544,0.008149, 22,0.127483,0.000022,  26.563,   94
   275.0,0.014505,0.008130, 22,0.127096,0.000009,  26.560,   91
   275.2,0.014465,0.008104, 22,0.126693,-0.000027,  26.559,   88
   275.4,0.014429,0.008086, 22,0.126367,0.000022,  26.565,   87
   275.6,0.014390,0.008065, 22,0.126058,0.000009,  26.566,   86
   275.8,0.014346,0.008039, 22,0.125768,-0.000027,  26.564,   86
   276.0,0.014310,0.008017, 22,0.125469,0.000022,  26.566,   87
   276.2,0.014268,0.007990, 22,0.125176,0.000009,  26.561,   87
   276.4,0.014225,0.007964, 22,0.124884,0.000009,  26.565,   87
   276.6,0.014183,0.007947, 22,0.124524,-0.000027,  26.564,   86
   276.8,0.014147,0.007927, 22,0.124133,0.000009,  26.561,   85
   277.0,0.014108,0.007906, 22,0.123723,0.000009,  26.564,   85
   277.2,0.014071,0.007885, 22,0.123406,0.000022,  26.563,   86
   277.4,0.014029,0.007863, 22,0.123143,0.000009,  26.563,   89
   277.6,0.013990,0.007840, 22,0.122899,0.000009,  26.566,   93
   277.8,0.013951,0.007821, 22,0.122716,-0.000027,  26.563,   91
   278.0,0.013911,0.007797, 22,0.122393,0.000022,  26.565,   88
   278.2,0.013875,0.007771, 22,0.122045,0.000009,  26.565,   88
   278.4,0.013836,0.007755, 22,0.121676,-0.000027,  26.564,   88
   278.6,0.013796,0.007734, 22,0.121329,0.000022,  26.570,   88
   278.8,0.013760,0.007716, 22,0.120956,0.000009,  26.568,   88
   279.0,0.013714,0.007694, 22,0.120559,-0.000027,  26.571,   87
   279.2,0.013672,0.007682, 22,0.120213,0.000022,  26.571,   87
   279.4,0.013633,0.007665, 22,0.119882,0.000009,  26.570,   87
   279.6,0.013584,0.007644, 22,0.119543,-0.000027,  26.571,   86
   279.8,0.013551,0.007621, 22,0.119204,0.000022,  26.569,   87
   280.0,0.013515,0.007598, 22,0.118858,0.000009,  26.566,   87
   280.2,0.013469,0.007575, 22,0.118488,-0.000027,  26.568,   89
   280.4,0.013437,0.007553, 22,0.118178,0.000022,  26.567,   91
   280.6,0.013400,0.007536, 22,0.117875,0.000009,  26.571,   88
   280.8,0.013357,0.007515, 22,0.117590,-0.000027,  26.568,   86
   281.0,0.013322,0.007491, 22,0.117240,0.000022,  26.566,   86
   281.2,0.013282,0.007470, 22,0.116862,0.000009,  26.572,   86
   281.4,0.013237,0.007449, 22,0.116443,-0.000027,  26.570,   86
   281.6,0.013204,0.007428, 22,0.116107,0.000022,  26.571,   86
   281.8,0.013165,0.007403, 22,0.115786,0.000009,  26.566,   87
   282.0,0.013116,0.007380, 22,0.115456,-0.000027,  26.571,   87
   282.2,0.013081,0.007355, 22,0.115129,0.000022,  26.571,   86
   282.4,0.013044,0.007333, 22,0.114812,0.000009,  26.572,   85
   282.6,0.013007,0.007311, 22,0.114458,-0.000027,  26.569,   85
   282.8,0.012979,0.007290, 22,0.114150,0.000022,  26.568,   84
   283.0,0.012960,0.007270, 22,0.113868,0.000009,  26.568,   86
   283.2,0.012917,0.007252, 22,0.113586,-0.000027,  26.567,   89
   283.4,0.012881,0.007229, 22,0.113217,0.000022,  26.573,   88
   283.6,0.012851,0.007206, 22,0.112821,0.000009,  26.569,   88
   283.8,0.012812,0.007183, 22,0.112391,-0.000027,  26.575,   88
   284.0,0.012773,0.007156, 22,0.112045,0.000022,  26.569,   89
   284.2,0.012738,0.007139, 22,0.111705,0.000009,  26.574,   88
   284.4,0.012698,0.007118, 22,0.111403,-0.000027,  26.572,   87
   284.6,0.012659,0.007092, 22,0.111064,0.000022,  26.573,   87
   284.8,0.012614,0.007076, 22,0.110700,0.000009,  26.572,   88
   285.0,0.012575,0.007055, 22,0.110350,-0.000027,  26.573,   87
   285.2,0.012536,0.007029, 22,0.110027,0.000022,  26.574,   86
   285.4,0.012497,0.007006, 22,0.109692,0.000009,  26.573,   86
   285.6,0.012461,0.006988, 22,0.109400,-0.000027,  26.577,   86
   285.8,0.012427,0.006964, 22,0.109047,0.000022,  26.576,   87
   286.0,0.012391,0.006947, 22,0.108670,0.000009,  26.577,   87
   286.2,0.012357,0.006928, 22,0.108285,0.000009,  26.581,   87
   286.4,0.012324,0.006906, 22,0.107954,-0.000027,  26.582,   88
   286.6,0.012285,0.006890, 22,0.107587,0.000009,  26.586,   86
   286.8,0.012248,0.006868, 22,0.107242,0.000009,  26.585,   85
   287.0,0.012212,0.006847, 22,0.106888,0.000022,  26.581,   86
   287.2,0.012170,0.006829, 22,0.106547,0.000009,  26.586,   87
   287.4,0.012134,0.006803, 22,0.106212,0.000009,  26.586,   88
   287.6,0.012097,0.006787, 22,0.105869,-0.000027,  26.588,   89
   287.8,0.012061,0.006769, 22,0.105604,0.000022,  26.587,   87
   288.0,0.012028,0.006746, 22,0.105366,0.000009,  26.588,   86
   288.2,0.011991,0.006727, 22,0.105153,-0.000027,  26.588,   86
   288.4,0.011955,0.006708, 22,0.104867,0.000022,  26.589,   85
   288.6,0.011919,0.006693, 22,0.104548,0.000009,  26.589,   86
   288.8,0.011882,0.006674, 22,0.104227,-0.000027,  26.593,   87
   289.0,0.011846,0.006662, 22,0.103933,0.000022,  26.587,   87
   289.2,0.011810,0.006656, 22,0.103638,0.000009,  26.587,   88
   289.4,0.011771,0.006637, 22,0.103338,-0.000027,  26.589,   88
   289.6,0.011732,0.006619, 22,0.103069,0.000022,  26.585,   88
   289.8,0.011695,0.006604, 22,0.102790,0.000009,  26.589,   87
   290.0,0.011659,0.006583, 22,0.102506,-0.000027,  26.591,   86
   290.2,0.011620,0.006562, 22,0.102252,0.000022,  26.589,   87
   290.4,0.011584,0.006539, 22,0.101992,0.000009,  26.587,   87
   290.6,0.011545,0.006515, 22,0.101747,-0.000027,  26.590,   87
   290.8,0.011506,0.006494, 22,0.101397,0.000022,  26.587,   87
   291.0,0.011469,0.006469, 22,0.101001,0.000009,  26.587,   89
   291.2,0.011436,0.006450, 22,0.100556,-0.000027,  26.590,   91
   291.4,0.011400,0.006429, 22,0.100196,0.000022,  26.590,   90
   291.6,0.011363,0.006411, 22,0.099857,0.000009,  26.594,   89
   291.8,0.011327,0.006390, 22,0.099556,-0.000027,  26.594,   88
   292.0,0.011294,0.006373, 22,0.099274,0.000022,  26.592,   87
   292.2,0.011263,0.006358, 22,0.098992,0.000009,  26.590,   87
   292.4,0.011232,0.006340, 22,0.098733,-0.000027,  26.591,   87
   292.6,0.011210,0.006321, 22,0.098466,0.000022,  26.592,   87
   292.8,0.011189,0.006303, 22,0.098191,0.000009,  26.593,   87
   293.0,0.011149,0.006282, 22,0.097916,-0.000027,  26.589,   86
   293.2,0.011112,0.006260, 22,0.097593,0.000022,  26.590,   85
   293.4,0.011080,0.006235, 22,0.097215,0.000009,  26.591,   86
   293.6,0.011044,0.006216, 22,0.096792,-0.000027,  26.590,   86
   293.8,0.011007,0.006192, 22,0.096349,0.000022,  26.587,   89
   294.0,0.010978,0.006176, 22,0.095889,0.000009,  26.587,   91
   294.2,0.010941,0.006157, 22,0.095376,-0.000027,  26.585,   89
   294.4,0.010907,0.006134, 22,0.095082,0.000009,  26.584,   87
   294.6,0.010878,0.006118, 22,0.094879,0.000032,  26.586,   87
   294.8,0.010838,0.006098, 22,0.094782,-0.000004,  26.584,   87
   295.0,0.010799,0.006079, 22,0.094394,0.000009,  26.587,   87
   295.2,0.010763,0.006063, 22,0.093919,0.000045,  26.586,   87
   295.4,0.010723,0.006042, 22,0.093339,0.000009,  26.585,   87
   295.6,0.010690,0.006021, 22,0.093052,0.000022,  26.584,   86
   295.8,0.010657,0.006000, 22,0.092847,0.000045,  26.582,   86
   296.0,0.010620,0.005984, 22,0.092721,0.000009,  26.588,   86
   296.2,0.010587,0.005960, 22,0.092519,0.000022,  26.584,   87
   296.4,0.010551,0.005939, 22,0.092347,0.000045,  26.583,   87
   296.6,0.010517,0.005925, 22,0.092153,0.000045,  26.585,   91
   296.8,0.010484,0.005903, 22,0.091934,0.000009,  26.580,   95
   297.0,0.010451,0.005887, 22,0.091722,0.000009,  26.582,   91
   297.2,0.010413,0.005868, 22,0.091478,0.000009,  26.581,   88
   297.4,0.010380,0.005852, 22,0.091231,0.000022,  26.577,   87
   297.6,0.010347,0.005834, 22,0.090966,0.000009,  26.583,   86
   297.8,0.010306,0.005819, 22,0.090678,0.000009,  26.582,   86
   298.0,0.010270,0.005800, 22,0.090355,-0.000027,  26.580,   86
   298.2,0.010241,0.005787, 22,0.090093,0.000022,  26.582,   87
   298.4,0.010217,0.005772, 22,0.089837,0.000009,  26.579,   88
   298.6,0.010178,0.005760, 22,0.089605,-0.000027,  26.580,   87
   298.8,0.010142,0.005744, 22,0.089343,0.000022,  26.578,   86
   299.0,0.010118,0.005730, 22,0.089073,0.000009,  26.579,   86
   299.2,0.010084,0.005713, 22,0.088781,-0.000027,  26.577,   87
   299.4,0.010047,0.005694, 22,0.088473,0.000022,  26.577,   88
   299.6,0.010017,0.005676, 22,0.088164,0.000009,  26.577,   89
   299.8,0.009980,0.005657, 22,0.087817,-0.000027,  26.579,   87
   300.0,0.009947,0.005637, 22,0.087525,0.000022,  26.579,   85
   300.2,0.009917,0.005620, 22,0.087242,0.000009,  26.578,   88
   300.4,0.009878,0.005598, 22,0.086973,-0.000027,  26.579,   90
   300.6,0.009841,0.005579, 22,0.086697,0.000022,  26.579,   88
   300.8,0.009808,0.005559, 22,0.086412,0.000009,  26.581,   87
   301.0,0.009772,0.005538, 22,0.086112,-0.000027,  26.572,   87
   301.2,0.009736,0.005518, 22,0.085859,0.000022,  26.575,   87
   301.4,0.009703,0.005499, 22,0.085614,0.000009,  26.580,   86
   301.6,0.009669,0.005481, 22,0.085369,-0.000027,  26.578,   86
   301.8,0.009636,0.005462, 22,0.084967,0.000022,  26.575,   86
   302.0,0.009605,0.005444, 22,0.084503,0.000009,  26.578,   86
   302.2,0.009575,0.005425, 22,0.083921,-0.000027,  26.576,   88
   302.4,0.009544,0.005404, 22,0.083574,0.000022,  26.577,   89
   302.6,0.009519,0.005388, 22,0.083322,0.000022,  26.578,   88
   302.8,0.009491,0.005372, 22,0.083110,-0.000014,  26.576,   86
   303.0,0.009469,0.005353, 22,0.082866,0.000022,  26.577,   86
   303.2,0.009451,0.005340, 22,0.082652,0.000022,  26.577,   86
   303.4,0.009411,0.005321, 22,0.082444,-0.000014,  26.575,   86
   303.6,0.009384,0.005302, 22,0.082192,0.000022,  26.577,   85
   303.8,0.009351,0.005286, 22,0.081947,0.000022,  26.579,   87
   304.0,0.009311,0.005262, 22,0.081680,-0.000014,  26.574,   88
   304.2,0.009278,0.005243, 22,0.081460,0.000022,  26.577,   87
   304.4,0.009245,0.005230, 22,0.081268,0.000022,  26.576,   85
   304.6,0.009208,0.005206, 22,0.081077,-0.000014,  26.580,   85
   304.8,0.009175,0.005187, 22,0.080806,0.000022,  26.580,   85
   305.0,0.009142,0.005169, 22,0.080525,0.000022,  26.579,   86
   305.2,0.009111,0.005152, 22,0.080193,-0.000014,  26.575,   87
   305.4,0.009078,0.005133, 22,0.079899,0.000022,  26.581,   87
   305.6,0.009047,0.005115, 22,0.079627,0.000022,  26.576,   87
   305.8,0.009017,0.005095, 22,0.079349,-0.000014,  26.580,   87
   306.0,0.008984,0.005076, 22,0.079077,0.000022,  26.581,   86
   306.2,0.008953,0.005057, 22,0.078789,0.000022,  26.580,   88
   306.4,0.008920,0.005034, 22,0.078501,0.000022,  26.578,   89
   306.6,0.008887,0.005021, 22,0.078215,-0.000014,  26.580,   88
   306.8,0.008853,0.005009, 22,0.077921,0.000035,  26.583,   88
   307.0,0.008820,0.004990, 22,0.077614,0.000022,  26.582,   87
   307.2,0.008787,0.004971, 22,0.077377,0.000035,  26.579,   87
   307.4,0.008753,0.004942, 22,0.077151,0.000035,  26.580,   87
   307.6,0.008723,0.004923, 22,0.076964,0.000022,  26.580,   87
   307.8,0.008695,0.004908, 22,0.076787,-0.000014,  26.584,   87
   308.0,0.008665,0.004892, 22,0.076547,0.000022,  26.583,   88
   308.2,0.008637,0.004869, 22,0.076293,0.000022,  26.583,   87
   308.4,0.008607,0.004852, 22,0.076026,-0.000014,  26.582,   87
   308.6,0.008571,0.004833, 22,0.075726,0.000022,  26.584,   87
   308.8,0.008536,0.004818, 22,0.075404,0.000009,  26.585,   87
   309.0,0.008506,0.004802, 22,0.075046,-0.000027,  26.585,   87
   309.2,0.008475,0.004794, 22,0.074762,0.000022,  26.591,   88
   309.4,0.008438,0.004779, 22,0.074529,0.000009,  26.589,   86
   309.6,0.008405,0.004762, 22,0.074325,-0.000027,  26.591,   84
   309.8,0.008375,0.004749, 22,0.074086,0.000009,  26.592,   85
   310.0,0.008345,0.004734, 22,0.073825,-0.000004,  26.596,   85
   310.2,0.008315,0.004715, 22,0.073556,-0.000053,  26.595,   88
   310.4,0.008287,0.004694, 22,0.073252,-0.000017,  26.593,   90
   310.6,0.008256,0.004680, 22,0.072924,-0.000017,  26.593,   88
   310.8,0.008226,0.004664, 22,0.072568,-0.000066,  26.595,   87
   311.0,0.008198,0.004647, 22,0.072330,-0.000030,  26.596,   87
   311.2,0.008168,0.004629, 22,0.072142,-0.000017,  26.594,   87
   311.4,0.008140,0.004614, 22,0.071978,-0.000053,  26.598,   87
   311.6,0.008110,0.004593, 22,0.071754,-0.000017,  26.600,   87
   311.8,0.008082,0.004576, 22,0.071529,-0.000017,  26.601,   86
   312.0,0.008054,0.004561, 22,0.071262,-0.000053,  26.602,   85
   312.2,0.008024,0.004540, 22,0.070844,-0.000017,  26.600,   86
   312.4,0.007999,0.004526, 22,0.070324,-0.000017,  26.605,   87
   312.6,0.007970,0.004507, 22,0.069712,-0.000053,  26.601,   87
   312.8,0.007955,0.004492, 22,0.069402,-0.000017,  26.603,   87
   313.0,0.007935,0.004476, 22,0.069214,-0.000017,  26.600,   89
   313.2,0.007904,0.004461, 22,0.069112,-0.000040,  26.602,   91
   313.4,0.007880,0.004445, 22,0.068918,-0.000004,  26.602,   89
   313.6,0.007850,0.004431, 22,0.068725,-0.000004,  26.606,   88
   313.8,0.007829,0.004416, 22,0.068519,-0.000040,  26.606,   88
   314.0,0.007798,0.004399, 22,0.068297,-0.000004,  26.604,   87
   314.2,0.007770,0.004391, 22,0.068087,-0.000017,  26.605,   87
   314.4,0.007752,0.004375, 22,0.067842,-0.000066,  26.605,   87
   314.6,0.007725,0.004361, 22,0.067627,-0.000030,  26.604,   87
   314.8,0.007694,0.004345, 22,0.067412,-0.000017,  26.603,   88
   315.0,0.007660,0.004329, 22,0.067204,-0.000053,  26.602,   86
   315.2,0.007632,0.004312, 22,0.066989,-0.000017,  26.606,   85
   315.4,0.007608,0.004299, 22,0.066774,-0.000017,  26.605,   86
   315.6,0.007577,0.004285, 22,0.066559,-0.000053,  26.602,   86
   315.8,0.007546,0.004267, 22,0.066331,-0.000017,  26.605,   89
   316.0,0.007528,0.004260, 22,0.066102,-0.000017,  26.603,   92
   316.2,0.007497,0.004247, 22,0.065858,-0.000017,  26.606,   89
   316.4,0.007469,0.004226, 22,0.065509,-0.000053,  26.611,   86
   316.6,0.007448,0.004212, 22,0.065068,-0.000017,  26.614,   88
   316.8,0.007417,0.004198, 22,0.064557,-0.000017,  26.612,   90
   317.0,0.007392,0.004178, 22,0.064285,-0.000017,  26.612,   89
   317.2,0.007371,0.004164, 22,0.064111,-0.000017,  26.614,   88
   317.4,0.007339,0.004147, 22,0.063981,-0.000017,  26.614,   88
   317.6,0.007317,0.004133, 22,0.063954,-0.000053,  26.614,   87
   317.8,0.007296,0.004121, 22,0.063796,-0.000017,  26.616,   87
   318.0,0.007265,0.004108, 22,0.063612,-0.000017,  26.618,   86
   318.2,0.007240,0.004093, 22,0.063427,-0.000053,  26.617,   87
   318.4,0.007212,0.004079, 22,0.063249,-0.000017,  26.614,   87
   318.6,0.007181,0.004068, 22,0.063071,-0.000017,  26.614,   88
   318.8,0.007156,0.004060, 22,0.062886,-0.000040,  26.617,   89
   319.0,0.007131,0.004049, 22,0.062694,-0.000004,  26.613,   88
   319.2,0.007103,0.004041, 22,0.062489,-0.000004,  26.614,   86
   319.4,0.007078,0.004030, 22,0.062276,-0.000027,  26.614,   87
   319.6,0.007057,0.004018, 22,0.062063,0.000009,  26.609,   87
   319.8,0.007039,0.004003, 22,0.061843,-0.000004,  26.611,   85
   320.0,0.007014,0.003991, 22,0.061622,-0.000040,  26.612,   84
   320.2,0.006983,0.003972, 22,0.061451,-0.000004,  26.614,   85
   320.4,0.006961,0.003960, 22,0.061294,-0.000004,  26.613,   87
   320.6,0.006933,0.003945, 22,0.061146,-0.000040,  26.613,   86
   320.8,0.006906,0.003926, 22,0.060975,-0.000004,  26.614,   84
   321.0,0.006883,0.003916, 22,0.060763,-0.000004,  26.611,   85
   321.2,0.006859,0.003902, 22,0.060557,-0.000040,  26.609,   85
   321.4,0.006840,0.003884, 22,0.060338,-0.000004,  26.611,   87
   321.6,0.006812,0.003877, 22,0.060091,-0.000004,  26.609,   88
   321.8,0.006784,0.003864, 22,0.059829,-0.000040,  26.607,   88
   322.0,0.006757,0.003846, 22,0.059603,-0.000004,  26.606,   87
   322.2,0.006734,0.003835, 22,0.059398,-0.000004,  26.607,   88
   322.4,0.006715,0.003818, 22,0.059186,-0.000040,  26.604,   88
   322.6,0.006689,0.003801, 22,0.058954,-0.000004,  26.605,   87
   322.8,0.006679,0.003786, 22,0.058720,-0.000004,  26.600,   85
   323.0,0.006651,0.003769, 22,0.058487,-0.000040,  26.595,   87
   323.2,0.006626,0.003752, 22,0.058284,-0.000004,  26.594,   88
   323.4,0.006605,0.003739, 22,0.058107,-0.000004,  26.598,   87
   323.6,0.006580,0.003723, 22,0.057939,-0.000040,  26.595,   85
   323.8,0.006552,0.003706, 22,0.057721,-0.000004,  26.595,   86
   324.0,0.006522,0.003694, 22,0.057467,-0.000004,  26.595,   87
   324.2,0.006497,0.003682, 22,0.057165,-0.000040,  26.590,   88
   324.4,0.006472,0.003667, 22,0.056934,-0.000004,  26.598,   88
   324.6,0.006448,0.003654, 22,0.056702,-0.000004,  26.591,   88
   324.8,0.006420,0.003642, 22,0.056459,-0.000040,  26.593,   87
   325.0,0.006392,0.003625, 22,0.056249,-0.000004,  26.592,   86
   325.2,0.006362,0.003615, 22,0.056059,-0.000004,  26.594,   86
   325.4,0.006337,0.003603, 22,0.055882,-0.000040,  26.593,   88
   325.6,0.006310,0.003585, 22,0.055665,-0.000004,  26.594,   89
   325.8,0.006282,0.003569, 22,0.055400,-0.000004,  26.591,   88
   326.0,0.006260,0.003556, 22,0.055135,-0.000004,  26.592,   86
   326.2,0.006235,0.003538, 22,0.054863,-0.000053,  26.593,   86
   326.4,0.006208,0.003520, 22,0.054570,-0.000004,  26.588,   87
   326.6,0.006186,0.003503, 22,0.054277,-0.000017,  26.587,   87
   326.8,0.006164,0.003489, 22,0.054059,-0.000017,  26.588,   87
   327.0,0.006142,0.003482, 22,0.053876,-0.000017,  26.592,   87
   327.2,0.006117,0.003464, 22,0.053708,-0.000017,  26.588,   87
   327.4,0.006092,0.003452, 22,0.053587,-0.000053,  26.588,   87
   327.6,0.006067,0.003438, 22,0.053426,-0.000017,  26.588,   88
   327.8,0.006042,0.003420, 22,0.053259,-0.000017,  26.584,   87
   328.0,0.006018,0.003403, 22,0.053092,-0.000053,  26.586,   87
   328.2,0.005993,0.003389, 22,0.052876,-0.000017,  26.581,   87
   328.4,0.005967,0.003376, 22,0.052640,-0.000030,  26.585,   87
   328.6,0.005948,0.003366, 22,0.052370,-0.000053,  26.580,   87
   328.8,0.005928,0.003360, 22,0.051991,-0.000017,  26.585,   86
   329.0,0.005902,0.003350, 22,0.051551,-0.000030,  26.583,   88
   329.2,0.005878,0.003338, 22,0.051042,-0.000053,  26.582,   90
   329.4,0.005857,0.003323, 22,0.050848,-0.000030,  26.581,   91
   329.6,0.005837,0.003311, 22,0.050763,-0.000020,  26.582,   91
   329.8,0.005813,0.003299, 22,0.050808,-0.000043,  26.581,   89
   330.0,0.005791,0.003282, 22,0.050682,-0.000043,  26.580,   87
   330.2,0.005769,0.003271, 22,0.050522,-0.000020,  26.577,   87
   330.4,0.005749,0.003261, 22,0.050341,-0.000043,  26.581,   86
   330.6,0.005725,0.003242, 22,0.050182,-0.000043,  26.578,   85
   330.8,0.005703,0.003232, 22,0.050022,-0.000020,  26.581,   84
   331.0,0.005681,0.003224, 22,0.049888,-0.000043,  26.580,   86
   331.2,0.005659,0.003206, 22,0.049708,-0.000043,  26.578,   88
   331.4,0.005639,0.003201, 22,0.049521,-0.000020,  26.582,   86
   331.6,0.005614,0.003191, 22,0.049313,-0.000043,  26.584,   85
   331.8,0.005592,0.003173, 22,0.049161,-0.000043,  26.583,   85
   332.0,0.005576,0.003164, 22,0.049048,-0.000020,  26.582,   86
   332.2,0.005553,0.003156, 22,0.048928,-0.000043,  26.581,   88
   332.4,0.005551,0.003144, 22,0.048756,-0.000043,  26.579,   90
   332.6,0.005537,0.003136, 22,0.048562,-0.000020,  26.583,   88
   332.8,0.005514,0.003126, 22,0.048355,-0.000043,  26.579,   86
   333.0,0.005502,0.003115, 22,0.048162,-0.000043,  26.583,   88
   333.2,0.005480,0.003104, 22,0.047968,-0.000007,  26.582,   89
   333.4,0.005463,0.003091, 22,0.047781,-0.000030,  26.584,   88
   333.6,0.005441,0.003079, 22,0.047602,-0.000043,  26.584,   88
   333.8,0.005419,0.003075, 22,0.047422,-0.000007,  26.585,   87
   334.0,0.005409,0.003064, 22,0.047236,-0.000030,  26.587,   87
   334.2,0.005393,0.003057, 22,0.047036,-0.000043,  26.589,   87
   334.4,0.005376,0.003043, 22,0.046843,-0.000007,  26.589,   87
   334.6,0.005364,0.003034, 22,0.046630,-0.000030,  26.588,   87
   334.8,0.005344,0.003024, 22,0.046477,-0.000030,  26.591,   87
   335.0,0.005316,0.003018, 22,0.046359,-0.000030,  26.593,   89
   335.2,0.005296,0.003012, 22,0.046280,-0.000053,  26.592,   91
   335.4,0.005277,0.003002, 22,0.045953,-0.000017,  26.595,   89
   335.6,0.005258,0.002991, 22,0.045498,-0.000030,  26.593,   87
   335.8,0.005235,0.002981, 22,0.044924,-0.000030,  26.591,   87
   336.0,0.005216,0.002971, 22,0.044726,-0.000053,  26.596,   87
   336.2,0.005196,0.002956, 22,0.044661,-0.000017,  26.595,   86
   336.4,0.005170,0.002946, 22,0.044710,-0.000030,  26.592,   85
   336.6,0.005148,0.002937, 22,0.044631,-0.000017,  26.596,   86
   336.8,0.005133,0.002925, 22,0.044579,-0.000030,  26.595,   88
   337.0,0.005114,0.002917, 22,0.044507,-0.000030,  26.597,   86
   337.2,0.005092,0.002905, 22,0.044448,-0.000053,  26.594,   85
   337.4,0.005073,0.002892, 22,0.044322,-0.000017,  26.597,   86
   337.6,0.005053,0.002881, 22,0.044183,-0.000030,  26.590,   87
   337.8,0.005037,0.002870, 22,0.044005,-0.000053,  26.593,   88
   338.0,0.005020,0.002866, 22,0.043846,-0.000017,  26.591,   89
   338.2,0.005001,0.002860, 22,0.043688,-0.000030,  26.589,   88
   338.4,0.004982,0.002846, 22,0.043517,-0.000053,  26.590,   87
   338.6,0.004965,0.002842, 22,0.043392,-0.000017,  26.591,   87
   338.8,0.004956,0.002835, 22,0.043274,-0.000017,  26.592,   88
   339.0,0.004934,0.002827, 22,0.043156,-0.000053,  26.589,   87
   339.2,0.004912,0.002815, 22,0.043018,-0.000017,  26.590,   86
   339.4,0.004892,0.002798, 22,0.042860,-0.000017,  26.586,   87
   339.6,0.004873,0.002786, 22,0.042695,-0.000053,  26.590,   88
   339.8,0.004847,0.002776, 22,0.042538,-0.000017,  26.589,   86
   340.0,0.004821,0.002769, 22,0.042367,-0.000017,  26.591,   84
   340.2,0.004805,0.002763, 22,0.042209,-0.000040,  26.588,   85
   340.4,0.004795,0.002745, 22,0.042031,-0.000004,  26.590,   86
   340.6,0.004785,0.002734, 22,0.041814,-0.000004,  26.586,   87
   340.8,0.004766,0.002723, 22,0.041603,-0.000027,  26.591,   88
   341.0,0.004741,0.002715, 22,0.041485,0.000009,  26.589,   87
   341.2,0.004731,0.002707, 22,0.041395,-0.000004,  26.589,   87
   341.4,0.004718,0.002693, 22,0.041337,-0.000040,  26.589,   87
   341.6,0.004692,0.002685, 22,0.041194,-0.000004,  26.589,   86
   341.8,0.004678,0.002670, 22,0.041042,-0.000004,  26.591,   86
   342.0,0.004658,0.002655, 22,0.040845,-0.000053,  26.589,   86
   342.2,0.004644,0.002647, 22,0.040675,-0.000017,  26.589,   86
   342.4,0.004630,0.002640, 22,0.040504,-0.000017,  26.587,   87
   342.6,0.004610,0.002627, 22,0.040320,-0.000066,  26.591,   86
   342.8,0.004597,0.002618, 22,0.040143,-0.000030,  26.586,   85
   343.0,0.004575,0.002615, 22,0.039946,-0.000017,  26.584,   86
   343.2,0.004556,0.002604, 22,0.039749,-0.000053,  26.589,   87
   343.4,0.004540,0.002594, 22,0.039605,-0.000017,  26.588,   87
   343.6,0.004523,0.002586, 22,0.039468,-0.000017,  26.588,   87
   343.8,0.004510,0.002574, 22,0.039332,-0.000053,  26.587,   87
   344.0,0.004490,0.002562, 22,0.039189,-0.000017,  26.586,   86
   344.2,0.004468,0.002553, 22,0.039025,-0.000017,  26.581,   87
   344.4,0.004452,0.002538, 22,0.038849,-0.000053,  26.586,   88
   344.6,0.004430,0.002526, 22,0.038673,-0.000017,  26.588,   88
   344.8,0.004405,0.002514, 22,0.038523,-0.000017,  26.584,   89
   345.0,0.004386,0.002503, 22,0.038372,-0.000053,  26.582,   88
   345.2,0.004367,0.002498, 22,0.038092,-0.000017,  26.579,   87
   345.4,0.004348,0.002492, 22,0.037764,0.000019,  26.580,   87
   345.6,0.004338,0.002484, 22,0.037398,-0.000017,  26.581,   87
   345.8,0.004321,0.002471, 22,0.037255,-0.000017,  26.580,   89
   346.0,0.004308,0.002463, 22,0.037178,0.000019,  26.581,   92
   346.2,0.004300,0.002454, 22,0.037179,0.000019,  26.579,   90
   346.4,0.004281,0.002441, 22,0.037069,-0.000017,  26.578,   88
   346.6,0.004255,0.002436, 22,0.036965,0.000019,  26.580,   87
   346.8,0.004244,0.002428, 22,0.036829,0.000019,  26.582,   86
   347.0,0.004228,0.002417, 22,0.036698,0.000019,  26.577,   86
   347.2,0.004214,0.002412, 22,0.036575,0.000019,  26.574,   87
   347.4,0.004198,0.002401, 22,0.036452,0.000019,  26.579,   87
   347.6,0.004181,0.002393, 22,0.036329,-0.000017,  26.575,   88
   347.8,0.004162,0.002380, 22,0.036108,-0.000017,  26.576,   86
   348.0,0.004143,0.002370, 22,0.035841,0.000006,  26.568,   85
   348.2,0.004124,0.002358, 22,0.035535,-0.000017,  26.572,   86
   348.4,0.004107,0.002347, 22,0.035406,-0.000017,  26.573,   88
   348.6,0.004094,0.002339, 22,0.035336,0.000006,  26.577,   89
   348.8,0.004077,0.002330, 22,0.035337,-0.000017,  26.574,   89
   349.0,0.004070,0.002326, 22,0.035240,-0.000017,  26.572,   88
   349.2,0.004050,0.002328, 22,0.035131,0.000019,  26.572,   86
   349.4,0.004039,0.002321, 22,0.034977,-0.000017,  26.572,   87
   349.6,0.004032,0.002318, 22,0.034881,-0.000017,  26.572,   89
   349.8,0.004014,0.002306, 22,0.034791,0.000019,  26.572,   87
   350.0,0.004003,0.002297, 22,0.034713,-0.000017,  26.572,   86
   350.2,0.003993,0.002286, 22,0.034597,-0.000017,  26.574,   87
   350.4,0.003973,0.002285, 22,0.034467,0.000019,  26.569,   88
   350.6,0.003956,0.002284, 22,0.034305,-0.000017,  26.572,   87
   350.8,0.003947,0.002273, 22,0.034182,-0.000017,  26.572,   86
   351.0,0.003926,0.002266, 22,0.034040,0.000019,  26.570,   86
   351.2,0.003913,0.002264, 22,0.033892,-0.000017,  26.566,   86
   351.4,0.003903,0.002256, 22,0.033763,-0.000017,  26.571,   88
   351.6,0.003889,0.002243, 22,0.033640,0.000019,  26.569,   90
   351.8,0.003881,0.002232, 22,0.033486,-0.000017,  26.572,   88
   352.0,0.003867,0.002221, 22,0.033402,-0.000017,  26.569,   86
   352.2,0.003856,0.002215, 22,0.033345,0.000019,  26.564,   87
   352.4,0.003836,0.002200, 22,0.033307,-0.000017,  26.570,   88
   352.6,0.003826,0.002187, 22,0.033218,-0.000017,  26.572,   86
   352.8,0.003807,0.002184, 22,0.033115,0.000019,  26.567,   85
   353.0,0.003784,0.002176, 22,0.032979,-0.000017,  26.570,   87
   353.2,0.003770,0.002160, 22,0.032870,-0.000017,  26.567,   88
   353.4,0.003754,0.002151, 22,0.032748,0.000019,  26.568,   87
   353.6,0.003740,0.002143, 22,0.032632,-0.000017,  26.568,   85
   353.8,0.003723,0.002130, 22,0.032510,-0.000017,  26.566,   86
   354.0,0.003707,0.002125, 22,0.032376,0.000019,  26.566,   87
   354.2,0.003693,0.002114, 22,0.032259,-0.000017,  26.567,   88
   354.4,0.003677,0.002105, 22,0.032150,-0.000017,  26.565,   89
   354.6,0.003660,0.002102, 22,0.032003,0.000019,  26.566,   88
   354.8,0.003647,0.002096, 22,0.031868,-0.000017,  26.566,   87
   355.0,0.003628,0.002083, 22,0.031714,-0.000017,  26.561,   88
   355.2,0.003608,0.002072, 22,0.031547,0.000019,  26.562,   88
   355.4,0.003595,0.002063, 22,0.031354,-0.000017,  26.564,   88
   355.6,0.003576,0.002048, 22,0.031258,-0.000017,  26.562,   88
   355.8,0.003559,0.002036, 22,0.031176,0.000006,  26.562,   88
   356.0,0.003543,0.002026, 22,0.031131,-0.000007,  26.563,   87
   356.2,0.003526,0.002010, 22,0.031016,-0.000017,  26.560,   86
   356.4,0.003507,0.002003, 22,0.030887,-0.000007,  26.558,   85
   356.6,0.003493,0.001997, 22,0.030714,-0.000007,  26.555,   86
   356.8,0.003480,0.001986, 22,0.030546,-0.000007,  26.559,   87
   357.0,0.003466,0.001982, 22,0.030431,-0.000020,  26.563,   87
   357.2,0.003455,0.001971, 22,0.030310,-0.000020,  26.561,   88
   357.4,0.003439,0.001960, 22,0.030189,-0.000043,  26.561,   87
   357.6,0.003425,0.001954, 22,0.030055,-0.000043,  26.560,   87
   357.8,0.003411,0.001946, 22,0.029920,-0.000020,  26.565,   87
   358.0,0.003400,0.001933, 22,0.029773,-0.000043,  26.563,   86
   358.2,0.003384,0.001929, 22,0.029671,-0.000043,  26.564,   86
   358.4,0.003370,0.001922, 22,0.029614,-0.000020,  26.564,   86
   358.6,0.003359,0.001915, 22,0.029583,-0.000043,  26.563,   87
   358.8,0.003348,0.001909, 22,0.029449,-0.000043,  26.563,   87
   359.0,0.003337,0.001903, 22,0.029270,-0.000020,  26.566,   86
   359.2,0.003324,0.001892, 22,0.029053,-0.000043,  26.569,   85
   359.4,0.003313,0.001888, 22,0.028803,-0.000043,  26.567,   86
   359.6,0.003302,0.001884, 22,0.028522,-0.000020,  26.569,   87
   359.8,0.003288,0.001874, 22,0.028177,-0.000043,  26.568,   87
   360.0,0.003281,0.001868, 22,0.028037,-0.000043,  26.565,   87
   360.2,0.003263,0.001868, 22,0.027993,-0.000007,  26.565,   89
   360.4,0.003252,0.001862, 22,0.028013,-0.000030,  26.569,   90
   360.6,0.003248,0.001853, 22,0.027943,-0.000043,  26.567,   88
   360.8,0.003233,0.001849, 22,0.027861,-0.000007,  26.567,   87
   361.0,0.003222,0.001845, 22,0.027765,-0.000030,  26.569,   86
   361.2,0.003209,0.001838, 22,0.027721,-0.000043,  26.564,   86
   361.4,0.003198,0.001835, 22,0.027709,-0.000007,  26.570,   86
   361.6,0.003187,0.001829, 22,0.027703,-0.000030,  26.569,   86
   361.8,0.003172,0.001819, 22,0.027595,-0.000043,  26.571,   86
   362.0,0.003170,0.001811, 22,0.027461,-0.000020,  26.573,   86
   362.2,0.003155,0.001807, 22,0.027270,-0.000043,  26.571,   89
   362.4,0.003145,0.001800, 22,0.027175,-0.000043,  26.570,   91
   362.6,0.003137,0.001795, 22,0.027112,-0.000020,  26.568,   90
   362.8,0.003120,0.001791, 22,0.027074,-0.000043,  26.573,   89
   363.0,0.003109,0.001781, 22,0.026858,-0.000043,  26.570,   87
   363.2,0.003095,0.001777, 22,0.026552,-0.000007,  26.569,   86
   363.4,0.003075,0.001774, 22,0.026184,-0.000030,  26.572,   87
   363.6,0.003061,0.001761, 22,0.026070,-0.000043,  26.572,   88
   363.8,0.003054,0.001752, 22,0.026045,-0.000007,  26.570,   88
   364.0,0.003050,0.001746, 22,0.026108,-0.000030,  26.570,   88
   364.2,0.003036,0.001739, 22,0.026090,-0.000043,  26.570,   87
   364.4,0.003023,0.001728, 22,0.026052,-0.000007,  26.567,   85
   364.6,0.003018,0.001720, 22,0.025995,-0.000030,  26.569,   85
   364.8,0.003005,0.001715, 22,0.025907,-0.000043,  26.565,   86
   365.0,0.002987,0.001715, 22,0.025793,-0.000007,  26.571,   88
   365.2,0.002979,0.001706, 22,0.025647,-0.000030,  26.569,   90
   365.4,0.002968,0.001701, 22,0.025520,-0.000043,  26.571,   89
   365.6,0.002957,0.001691, 22,0.025387,-0.000007,  26.574,   88
   365.8,0.002946,0.001684, 22,0.025267,-0.000007,  26.572,   88
   366.0,0.002932,0.001679, 22,0.025160,-0.000030,  26.569,   88
   366.2,0.002919,0.001669, 22,0.025046,-0.000007,  26.569,   87
   366.4,0.002905,0.001662, 22,0.024939,-0.000007,  26.571,   87
   366.6,0.002891,0.001657, 22,0.024869,0.000006,  26.569,   87
   366.8,0.002880,0.001651, 22,0.024838,-0.000007,  26.567,   86
   367.0,0.002869,0.001642, 22,0.024800,-0.000007,  26.569,   87
   367.2,0.002856,0.001635, 22,0.024813,-0.000030,  26.570,   88
   367.4,0.002851,0.001634, 22,0.024769,-0.000043,  26.567,   88
   367.6,0.002837,0.001629, 22,0.024693,-0.000007,  26.570,   87
   367.8,0.002828,0.001625, 22,0.024592,-0.000030,  26.569,   88
   368.0,0.002817,0.001621, 22,0.024485,-0.000043,  26.570,   89
   368.2,0.002809,0.001618, 22,0.024384,-0.000020,  26.569,   88
   368.4,0.002801,0.001614, 22,0.024232,-0.000043,  26.564,   88
   368.6,0.002787,0.001612, 22,0.024131,-0.000043,  26.572,   87
   368.8,0.002776,0.001606, 22,0.024031,-0.000007,  26.567,   85
   369.0,0.002768,0.001594, 22,0.023936,-0.000030,  26.563,   86
   369.2,0.002755,0.001592, 22,0.023835,-0.000043,  26.564,   86
   369.4,0.002746,0.001588, 22,0.023747,-0.000007,  26.564,   87
   369.6,0.002735,0.001581, 22,0.023633,-0.000030,  26.565,   88
   369.8,0.002727,0.001572, 22,0.023564,-0.000043,  26.562,   87
   370.0,0.002719,0.001570, 22,0.023520,-0.000007,  26.568,   86
   370.2,0.002708,0.001564, 22,0.023483,-0.000030,  26.564,   87
   370.4,0.002694,0.001558, 22,0.023401,-0.000043,  26.565,   88
   370.6,0.002686,0.001552, 22,0.023300,-0.000007,  26.565,   88
   370.8,0.002678,0.001549, 22,0.023174,-0.000030,  26.561,   89
   371.0,0.002664,0.001541, 22,0.023080,-0.000007,  26.565,   88
   371.2,0.002653,0.001535, 22,0.022992,0.000029,  26.562,   86
   371.4,0.002642,0.001534, 22,0.022910,0.000006,  26.565,   87
   371.6,0.002629,0.001528, 22,0.022797,-0.000007,  26.563,   88
   371.8,0.002618,0.001519, 22,0.022658,-0.000007,  26.565,   88
   372.0,0.002610,0.001515, 22,0.022514,-0.000030,  26.562,   87
   372.2,0.002595,0.001508, 22,0.022419,-0.000043,  26.568,   87
   372.4,0.002596,0.001500, 22,0.022338,-0.000007,  26.568,   87
   372.6,0.002584,0.001491, 22,0.022281,-0.000030,  26.566,   86
   372.8,0.002570,0.001480, 22,0.022181,-0.000043,  26.567,   85
   373.0,0.002566,0.001473, 22,0.022074,-0.000007,  26.566,   87
   373.2,0.002555,0.001462, 22,0.021936,-0.000030,  26.569,   89
   373.4,0.002547,0.001453, 22,0.021836,-0.000043,  26.565,   89
   373.6,0.002533,0.001456, 22,0.021742,-0.000007,  26.569,   88
   373.8,0.002525,0.001447, 22,0.021660,-0.000030,  26.565,   88
   374.0,0.002514,0.001440, 22,0.021560,-0.000043,  26.565,   88
   374.2,0.002503,0.001433, 22,0.021453,-0.000007,  26.565,   87
   374.4,0.002498,0.001427, 22,0.021359,-0.000030,  26.563,   86
   374.6,0.002487,0.001423, 22,0.021290,-0.000043,  26.562,   86
   374.8,0.002482,0.001423, 22,0.021234,-0.000007,  26.568,   86
   375.0,0.002470,0.001416, 22,0.021178,-0.000030,  26.565,   87
   375.2,0.002459,0.001412, 22,0.021109,-0.000043,  26.564,   88
   375.4,0.002458,0.001409, 22,0.021027,-0.000007,  26.564,   87
   375.6,0.002443,0.001407, 22,0.020927,-0.000007,  26.564,   86
   375.8,0.002435,0.001399, 22,0.020821,-0.000030,  26.563,   86
   376.0,0.002430,0.001394, 22,0.020689,-0.000007,  26.560,   86
   376.2,0.002416,0.001392, 22,0.020539,-0.000007,  26.561,   87
   376.4,0.002410,0.001383, 22,0.020376,0.000006,  26.560,   88
   376.6,0.002406,0.001382, 22,0.020201,-0.000007,  26.556,   87
   376.8,0.002388,0.001380, 22,0.020001,0.000006,  26.550,   87
   377.0,0.002377,0.001371, 22,0.019783,-0.000017,  26.553,   87
   377.2,0.002370,0.001372, 22,0.019751,-0.000017,  26.553,   87
   377.4,0.002353,0.001370, 22,0.019776,0.000006,  26.556,   87
   377.6,0.002345,0.001363, 22,0.019851,-0.000017,  26.549,   87
   377.8,0.002343,0.001361, 22,0.019833,-0.000017,  26.551,   87
   378.0,0.002331,0.001355, 22,0.019802,0.000006,  26.548,   87
   378.2,0.002323,0.001347, 22,0.019758,-0.000017,  26.544,   87
   378.4,0.002321,0.001346, 22,0.019683,-0.000030,  26.544,   87
   378.6,0.002306,0.001338, 22,0.019558,-0.000007,  26.541,   88
   378.8,0.002298,0.001334, 22,0.019427,-0.000030,  26.542,   88
   379.0,0.002297,0.001333, 22,0.019390,-0.000030,  26.545,   89
   379.2,0.002282,0.001331, 22,0.019371,0.000006,  26.542,   89
   379.4,0.002274,0.001332, 22,0.019390,-0.000017,  26.537,   88
   379.6,0.002269,0.001328, 22,0.019334,-0.000017,  26.536,   87
   379.8,0.002257,0.001319, 22,0.019234,0.000006,  26.537,   87
   380.0,0.002249,0.001312, 22,0.019109,-0.000017,  26.535,   87
   380.2,0.002247,0.001310, 22,0.019059,-0.000017,  26.536,   87
   380.4,0.002233,0.001306, 22,0.019035,0.000006,  26.535,   88
   380.6,0.002231,0.001299, 22,0.018997,-0.000017,  26.535,   86
   380.8,0.002230,0.001290, 22,0.018916,-0.000017,  26.529,   85
   381.0,0.002217,0.001289, 22,0.018835,0.000006,  26.536,   85
   381.2,0.002219,0.001285, 22,0.018729,-0.000017,  26.532,   85
   381.4,0.002213,0.001282, 22,0.018667,-0.000017,  26.533,   88
   381.6,0.002205,0.001279, 22,0.018617,0.000006,  26.532,   90
   381.8,0.002202,0.001277, 22,0.018567,-0.000017,  26.532,   88
   382.0,0.002194,0.001270, 22,0.018499,-0.000017,  26.534,   87
   382.2,0.002189,0.001268, 22,0.018393,0.000006,  26.528,   87
   382.4,0.002176,0.001266, 22,0.018269,-0.000017,  26.528,   87
   382.6,0.002162,0.001257, 22,0.018238,-0.000017,  26.529,   87
   382.8,0.002153,0.001258, 22,0.018219,0.000006,  26.531,   88
   383.0,0.002145,0.001256, 22,0.018238,-0.000017,  26.532,   88
   383.2,0.002137,0.001246, 22,0.018200,-0.000017,  26.525,   87
   383.4,0.002126,0.001241, 22,0.018144,0.000006,  26.529,   87
   383.6,0.002118,0.001236, 22,0.018076,-0.000017,  26.526,   87
   383.8,0.002112,0.001232, 22,0.018020,-0.000017,  26.530,   87
   384.0,0.002111,0.001225, 22,0.017964,0.000006,  26.526,   87
   384.2,0.002096,0.001221, 22,0.017902,-0.000017,  26.528,   88
   384.4,0.002091,0.001220, 22,0.017821,-0.000017,  26.526,   90
   384.6,0.002086,0.001223, 22,0.017740,0.000006,  26.527,   89
   384.8,0.002072,0.001219, 22,0.017641,-0.000017,  26.526,   87
   385.0,0.002070,0.001218, 22,0.017585,-0.000017,  26.521,   87
   385.2,0.002066,0.001212, 22,0.017529,0.000006,  26.520,   86
   385.4,0.002051,0.001207, 22,0.017479,0.000019,  26.522,   87
   385.6,0.002052,0.001200, 22,0.017392,-0.000017,  26.525,   87
   385.8,0.002044,0.001200, 22,0.017305,0.000032,  26.523,   87
   386.0,0.002032,0.001190, 22,0.017194,0.000019,  26.522,   87
   386.2,0.002030,0.001184, 22,0.017132,0.000019,  26.521,   87
   386.4,0.002022,0.001179, 22,0.017094,0.000019,  26.523,   88
   386.6,0.002007,0.001170, 22,0.017088,0.000019,  26.517,   87
   386.8,0.002003,0.001160, 22,0.017101,-0.000017,  26.515,   87
   387.0,0.001992,0.001161, 22,0.017057,-0.000017,  26.518,   87
   387.2,0.001977,0.001157, 22,0.017007,0.000006,  26.515,   88
   387.4,0.001969,0.001150, 22,0.016927,-0.000017,  26.516,   87
   387.6,0.001961,0.001148, 22,0.016834,-0.000017,  26.522,   87
   387.8,0.001946,0.001144, 22,0.016716,0.000006,  26.517,   87
   388.0,0.001941,0.001142, 22,0.016567,-0.000017,  26.517,   87
   388.2,0.001939,0.001138, 22,0.016481,-0.000017,  26.517,   88
   388.4,0.001927,0.001132, 22,0.016394,0.000006,  26.513,   89
   388.6,0.001919,0.001121, 22,0.016344,-0.000017,  26.518,   87
   388.8,0.001917,0.001120, 22,0.016276,-0.000017,  26.520,   85
   389.0,0.001905,0.001114, 22,0.016202,0.000006,  26.518,   86
   389.2,0.001897,0.001109, 22,0.016115,-0.000017,  26.522,   87
   389.4,0.001891,0.001096, 22,0.016090,-0.000030,  26.521,   87
   389.6,0.001886,0.001095, 22,0.016084,-0.000007,  26.519,   87
   389.8,0.001878,0.001093, 22,0.016090,-0.000030,  26.524,   88
   390.0,0.001870,0.001086, 22,0.016047,-0.000043,  26.529,   88
   390.2,0.001864,0.001089, 22,0.015960,-0.000007,  26.527,   88
   390.4,0.001856,0.001089, 22,0.015874,-0.000030,  26.529,   88
   390.6,0.001852,0.001083, 22,0.015818,-0.000043,  26.529,   87
   390.8,0.001840,0.001081, 22,0.015744,-0.000007,  26.529,   86
   391.0,0.001831,0.001076, 22,0.015682,-0.000030,  26.528,   86
   391.2,0.001830,0.001072, 22,0.015595,-0.000043,  26.530,   85
   391.4,0.001824,0.001068, 22,0.015509,-0.000007,  26.534,   86
   391.6,0.001822,0.001057, 22,0.015416,-0.000030,  26.533,   87
   391.8,0.001813,0.001054, 22,0.015373,-0.000043,  26.530,   86
   392.0,0.001808,0.001054, 22,0.015330,-0.000007,  26.534,   85
   392.2,0.001803,0.001052, 22,0.015311,-0.000030,  26.531,   87
   392.4,0.001797,0.001046, 22,0.015237,-0.000043,  26.536,   89
   392.6,0.001793,0.001045, 22,0.015150,-0.000007,  26.537,   89
   392.8,0.001778,0.001046, 22,0.015058,-0.000030,  26.536,   89
   393.0,0.001775,0.001039, 22,0.014996,-0.000043,  26.539,   88
   393.2,0.001760,0.001035, 22,0.014934,-0.000007,  26.535,   87
   393.4,0.001752,0.001028, 22,0.014891,-0.000030,  26.540,   87
   393.6,0.001747,0.001026, 22,0.014848,-0.000043,  26.541,   87
   393.8,0.001736,0.001024, 22,0.014798,-0.000007,  26.540,   87
   394.0,0.001730,0.001017, 22,0.014724,-0.000030,  26.543,   86
   394.2,0.001725,0.001015, 22,0.014687,-0.000043,  26.541,   87
   394.4,0.001720,0.001011, 22,0.014681,-0.000007,  26.541,   87
   394.6,0.001717,0.001002, 22,0.014669,-0.000030,  26.541,   87
   394.8,0.001709,0.000998, 22,0.014625,-0.000043,  26.541,   87
   395.0,0.001703,0.000997, 22,0.014582,-0.000007,  26.541,   87
   395.2,0.001698,0.000995, 22,0.014545,-0.000007,  26.545,   87
   395.4,0.001690,0.000997, 22,0.014465,-0.000030,  26.542,   88
   395.6,0.001685,0.000992, 22,0.014342,-0.000007,  26.542,   89
   395.8,0.001670,0.000990, 22,0.014200,-0.000007,  26.547,   88
   396.0,0.001665,0.000985, 22,0.014132,0.000006,  26.539,   87
   396.2,0.001666,0.000980, 22,0.014071,-0.000007,  26.542,   88
   396.4,0.001654,0.000975, 22,0.014040,-0.000007,  26.546,   90
   396.6,0.001653,0.000973, 22,0.014028,-0.000030,  26.549,   88
   396.8,0.001654,0.000969, 22,0.013990,-0.000043,  26.547,   86
   397.0,0.001642,0.000967, 22,0.013972,-0.000007,  26.549,   85
   397.2,0.001640,0.000960, 22,0.013966,-0.000030,  26.549,   84
   397.4,0.001632,0.000952, 22,0.013904,-0.000043,  26.551,   84
   397.6,0.001623,0.000948, 22,0.013818,-0.000007,  26.548,   85
   397.8,0.001620,0.000941, 22,0.013689,-0.000030,  26.550,   87
   398.0,0.001614,0.000946, 22,0.013609,-0.000043,  26.555,   89
   398.2,0.001605,0.000944, 22,0.013523,-0.000020,  26.556,   89
   398.4,0.001609,0.000942, 22,0.013431,-0.000043,  26.557,   89
   398.6,0.001607,0.000939, 22,0.013388,-0.000043,  26.554,   88
   398.8,0.001595,0.000939, 22,0.013350,-0.000007,  26.556,   86
   399.0,0.001594,0.000932, 22,0.013338,-0.000030,  26.556,   87
   399.2,0.001583,0.000925, 22,0.013307,-0.000030,  26.556,   87
   399.4,0.001571,0.000926, 22,0.013252,0.000006,  26.553,   87
   399.6,0.001563,0.000920, 22,0.013215,-0.000017,  26.554,   86
   399.8,0.001554,0.000912, 22,0.013153,-0.000017,  26.556,   86
   400.0,0.001542,0.000906, 22,0.013074,0.000006,  26.555,   86
   400.2,0.001541,0.000902, 22,0.012982,-0.000017,  26.557,   86
   400.4,0.001539,0.000900, 22,0.012914,-0.000017,  26.557,   86
   400.6,0.001530,0.000900, 22,0.012846,0.000006,  26.552,   89
   400.8,0.001531,0.000898, 22,0.012761,-0.000017,  26.558,   91
   401.0,0.001523,0.000889, 22,0.012693,-0.000017,  26.556,   90
   401.2,0.001517,0.000887, 22,0.012632,0.000006,  26.551,   89
   401.4,0.001512,0.000885, 22,0.012540,-0.000017,  26.553,   88
   401.6,0.001506,0.000877, 22,0.012478,-0.000017,  26.557,   86
   401.8,0.001498,0.000873, 22,0.012417,0.000006,  26.551,   88
   402.0,0.001493,0.000871, 22,0.012362,-0.000017,  26.555,   89
   402.2,0.001478,0.000867, 22,0.012306,-0.000030,  26.556,   88
   402.4,0.001476,0.000865, 22,0.012269,-0.000007,  26.556,   88
   402.6,0.001464,0.000861, 22,0.012233,-0.000030,  26.555,   86
   402.8,0.001459,0.000857, 22,0.012214,-0.000043,  26.553,   85
   403.0,0.001453,0.000849, 22,0.012189,-0.000007,  26.556,   85
   403.2,0.001444,0.000844, 22,0.012171,-0.000030,  26.553,   84
   403.4,0.001441,0.000842, 22,0.011902,-0.000043,  26.554,   87
   403.6,0.001443,0.000840, 22,0.011529,-0.000007,  26.558,   90
   403.8,0.001433,0.000841, 22,0.011029,-0.000030,  26.555,   88
   404.0,0.001430,0.000838, 22,0.010803,-0.000043,  26.557,   86
   404.2,0.001429,0.000834, 22,0.010669,-0.000007,  26.557,   88
   404.4,0.001417,0.000829, 22,0.010596,-0.000030,  26.559,   91
   404.6,0.001409,0.000827, 22,0.010620,-0.000043,  26.559,   89
   404.8,0.001407,0.000821, 22,0.010741,-0.000007,  26.556,   87
   405.0,0.001398,0.000819, 22,0.010924,-0.000030,  26.557,   87
   405.2,0.001390,0.000813, 22,0.011027,-0.000043,  26.557,   87
   405.4,0.001391,0.000814, 22,0.011137,-0.000007,  26.562,   87
   405.6,0.001379,0.000812, 22,0.011234,-0.000007,  26.560,   87
   405.8,0.001376,0.000812, 22,0.011277,-0.000030,  26.562,   86
   406.0,0.001374,0.000807, 22,0.011277,-0.000007,  26.566,   85
   406.2,0.001362,0.000801, 22,0.011240,-0.000007,  26.564,   88
   406.4,0.001360,0.000800, 22,0.011161,0.000006,  26.561,   90
   406.6,0.001364,0.000801, 22,0.011100,-0.000007,  26.567,   88
   406.8,0.001354,0.000803, 22,0.010996,-0.000007,  26.562,   86
   407.0,0.001355,0.000805, 22,0.010874,-0.000030,  26.565,   86
   407.2,0.001359,0.000798, 22,0.010867,-0.000043,  26.566,   85
   407.4,0.001350,0.000793, 22,0.010885,-0.000007,  26.564,   85
   407.6,0.001344,0.000793, 22,0.010934,-0.000030,  26.572,   85
   407.8,0.001339,0.000784, 22,0.010964,-0.000043,  26.572,   86
   408.0,0.001327,0.000785, 22,0.010982,-0.000007,  26.578,   87
   408.2,0.001321,0.000783, 22,0.010994,-0.000030,  26.573,   87
   408.4,0.001320,0.000783, 22,0.011000,-0.000043,  26.578,   86
   408.6,0.001311,0.000779, 22,0.010981,-0.000043,  26.581,   86
   408.8,0.001308,0.000780, 22,0.010957,-0.000066,  26.577,   86
   409.0,0.001309,0.000781, 22,0.010920,-0.000043,  26.576,   87
   409.2,0.001300,0.000770, 22,0.010859,-0.000043,  26.580,   89
   409.4,0.001297,0.000764, 22,0.010762,-0.000066,  26.583,   89
   409.6,0.001301,0.000770, 22,0.010707,-0.000043,  26.579,   88
   409.8,0.001291,0.000770, 22,0.010640,-0.000043,  26.584,   88
   410.0,0.001289,0.000766, 22,0.010566,-0.000066,  26.584,   88
   410.2,0.001287,0.000766, 22,0.010530,-0.000043,  26.581,   87
   410.4,0.001281,0.000764, 22,0.010487,-0.000043,  26.586,   87
   410.6,0.001282,0.000754, 22,0.010450,-0.000066,  26.584,   87
   410.8,0.001286,0.000756, 22,0.010371,-0.000043,  26.587,   87
   411.0,0.001283,0.000756, 22,0.010274,-0.000056,  26.591,   87
   411.2,0.001286,0.000751, 22,0.010152,-0.000079,  26.586,   86
   411.4,0.001280,0.000746, 22,0.010109,-0.000043,  26.590,   88
   411.6,0.001280,0.000749, 22,0.010109,-0.000056,  26.589,   91
   411.8,0.001280,0.000749, 22,0.010127,-0.000079,  26.595,   89
   412.0,0.001271,0.000744, 22,0.010066,-0.000043,  26.594,   88
   412.2,0.001275,0.000749, 22,0.009975,-0.000043,  26.588,   87
   412.4,0.001265,0.000747, 22,0.009865,-0.000066,  26.593,   87
   412.6,0.001269,0.000740, 22,0.009859,-0.000030,  26.593,   86
   412.8,0.001264,0.000741, 22,0.009883,-0.000030,  26.595,   86
   413.0,0.001252,0.000739, 22,0.009950,-0.000053,  26.596,   86
   413.2,0.001253,0.000739, 22,0.009938,-0.000030,  26.599,   86
   413.4,0.001248,0.000742, 22,0.009871,-0.000043,  26.599,   86
   413.6,0.001238,0.000740, 22,0.009773,-0.000066,  26.596,   85
   413.8,0.001242,0.000737, 22,0.009743,-0.000043,  26.595,   85
   414.0,0.001239,0.000731, 22,0.009731,-0.000043,  26.596,   85
   414.2,0.001233,0.000733, 22,0.009700,-0.000066,  26.596,   86
   414.4,0.001239,0.000733, 22,0.009663,-0.000030,  26.598,   88
   414.6,0.001234,0.000732, 22,0.009639,-0.000030,  26.600,   88
   414.8,0.001227,0.000732, 22,0.009590,-0.000053,  26.598,   88
   415.0,0.001234,0.000733, 22,0.009602,-0.000017,  26.600,   88
   415.2,0.001228,0.000727, 22,0.009626,-0.000030,  26.599,   87
   415.4,0.001219,0.000727, 22,0.009669,-0.000017,  26.598,   89
   415.6,0.001216,0.000727, 22,0.009662,-0.000053,  26.596,   90
   415.8,0.001211,0.000727, 22,0.009638,-0.000004,  26.596,   88
   416.0,0.001202,0.000732, 22,0.009602,-0.000017,  26.595,   86
   416.2,0.001206,0.000730, 22,0.009529,-0.000017,  26.592,   86
   416.4,0.001209,0.000729, 22,0.009480,-0.000017,  26.592,   87
   416.6,0.001203,0.000729, 22,0.009425,-0.000017,  26.597,   86
   416.8,0.001207,0.000733, 22,0.009389,-0.000053,  26.598,   85
   417.0,0.001201,0.000728, 22,0.009359,-0.000017,  26.590,   89
   417.2,0.001192,0.000723, 22,0.009322,-0.000017,  26.593,   93
   417.4,0.001196,0.000723, 22,0.009285,-0.000053,  26.591,   90
   417.6,0.001193,0.000721, 22,0.009273,-0.000017,  26.591,   88
   417.8,0.001184,0.000724, 22,0.009267,-0.000017,  26.591,   87
   418.0,0.001185,0.000722, 22,0.009242,-0.000053,  26.591,   86
   418.2,0.001182,0.000715, 22,0.009200,-0.000017,  26.585,   87
   418.4,0.001173,0.000715, 22,0.009127,-0.000017,  26.588,   87
   418.6,0.001177,0.000713, 22,0.009036,-0.000053,  26.589,   87
   418.8,0.001174,0.000713, 22,0.009030,-0.000017,  26.587,   87
   419.0,0.001165,0.000721, 22,0.009060,-0.000017,  26.592,   86
   419.2,0.001166,0.000723, 22,0.009121,-0.000053,  26.588,   85
   419.4,0.001163,0.000723, 22,0.009114,-0.000017,  26.594,   85
   419.6,0.001156,0.000713, 22,0.009090,-0.000030,  26.592,   85
   419.8,0.001163,0.000711, 22,0.009054,-0.000053,  26.592,   88
   420.0,0.001160,0.000711, 22,0.009072,-0.000017,  26.590,   90
   420.2,0.001151,0.000711, 22,0.009090,-0.000017,  26.591,   88
   420.4,0.001155,0.000713, 22,0.009132,-0.000053,  26.591,   86
   420.6,0.001153,0.000709, 22,0.009114,-0.000017,  26.591,   87
   420.8,0.001151,0.000711, 22,0.009047,-0.000017,  26.592,   87
   421.0,0.001155,0.000714, 22,0.008950,-0.000053,  26.593,   89
   421.2,0.001148,0.000713, 22,0.008920,-0.000017,  26.594,   91
   421.4,0.001148,0.000711, 22,0.008896,-0.000017,  26.593,   90
   421.6,0.001145,0.000707, 22,0.008871,-0.000040,  26.590,   89
   421.8,0.001143,0.000700, 22,0.008865,-0.000004,  26.591,   88
   422.0,0.001140,0.000702, 22,0.008829,-0.000004,  26.592,   87
   422.2,0.001130,0.000699, 22,0.008786,-0.000027,  26.592,   86
   422.4,0.001125,0.000697, 22,0.008798,0.000009,  26.588,   85
   422.6,0.001126,0.000700, 22,0.008846,-0.000004,  26.593,   87
   422.8,0.001117,0.000697, 22,0.008889,-0.000040,  26.593,   89
   423.0,0.001111,0.000697, 22,0.008858,0.000009,  26.590,   87
   423.2,0.001115,0.000695, 22,0.008810,0.000009,  26.589,   86
   423.4,0.001106,0.000693, 22,0.008737,-0.000027,  26.589,   86
   423.6,0.001100,0.000689, 22,0.008719,0.000022,  26.584,   87
   423.8,0.001102,0.000687, 22,0.008713,0.000009,  26.588,   86
   424.0,0.001092,0.000681, 22,0.008743,-0.000027,  26.587,   85
   424.2,0.001087,0.000676, 22,0.008724,0.000022,  26.587,   86
   424.4,0.001091,0.000679, 22,0.008706,0.000009,  26.587,   88
   424.6,0.001081,0.000672, 22,0.008670,-0.000027,  26.590,   86
   424.8,0.001079,0.000671, 22,0.008682,0.000022,  26.587,   85
   425.0,0.001080,0.000670, 22,0.008718,0.000009,  26.592,   85
   425.2,0.001070,0.000661, 22,0.008754,0.000009,  26.587,   85
   425.4,0.001072,0.000663, 22,0.008730,-0.000027,  26.591,   87
   425.6,0.001073,0.000663, 22,0.008700,-0.000004,  26.588,   89
   425.8,0.001063,0.000661, 22,0.008627,-0.000004,  26.589,   88
   426.0,0.001065,0.000653, 22,0.008536,-0.000004,  26.584,   86
   426.2,0.001059,0.000652, 22,0.008512,0.000009,  26.588,   87
   426.4,0.001050,0.000649, 22,0.008506,-0.000004,  26.584,   88
   426.6,0.001044,0.000652, 22,0.008487,-0.000040,  26.587,   88
   426.8,0.001039,0.000650, 22,0.008463,-0.000004,  26.589,   87
   427.0,0.001030,0.000644, 22,0.008426,-0.000004,  26.586,   87
   427.2,0.001027,0.000648, 22,0.008384,-0.000040,  26.590,   88
   427.4,0.001028,0.000646, 22,0.008335,-0.000004,  26.585,   87
   427.6,0.001019,0.000646, 22,0.008281,-0.000004,  26.588,   86
   427.8,0.001013,0.000646, 22,0.008208,-0.000040,  26.585,   86
   428.0,0.001017,0.000639, 22,0.008190,-0.000004,  26.587,   87
   428.2,0.001008,0.000642, 22,0.008183,-0.000004,  26.587,   87
   428.4,0.001002,0.000633, 22,0.008195,-0.000053,  26.585,   88
   428.6,0.001004,0.000632, 22,0.008165,-0.000017,  26.585,   88
   428.8,0.000994,0.000633, 22,0.008135,-0.000017,  26.584,   87
   429.0,0.000989,0.000628, 22,0.008074,-0.000066,  26.587,   86
   429.2,0.000990,0.000626, 22,0.008037,-0.000030,  26.591,   85
   429.4,0.000981,0.000624, 22,0.007995,-0.000017,  26.587,   86
   429.6,0.000987,0.000619, 22,0.007934,-0.000053,  26.587,   86
   429.8,0.000991,0.000622, 22,0.007922,-0.000017,  26.585,   87
   430.0,0.000982,0.000617, 22,0.007904,-0.000017,  26.592,   87
   430.2,0.000986,0.000615, 22,0.007892,-0.000040,  26.592,   86
   430.4,0.000986,0.000615, 22,0.007886,-0.000004,  26.591,   85
   430.6,0.000979,0.000615, 22,0.007885,-0.000004,  26.590,   87
   430.8,0.000980,0.000612, 22,0.007885,-0.000027,  26.595,   89
   431.0,0.000975,0.000607, 22,0.007824,0.000009,  26.593,   88
   431.2,0.000965,0.000607, 22,0.007758,-0.000004,  26.592,   87
   431.4,0.000963,0.000602, 22,0.007673,-0.000040,  26.596,   88
   431.6,0.000953,0.000603, 22,0.007637,-0.000004,  26.593,   88
   431.8,0.000960,0.000602, 22,0.007613,-0.000004,  26.592,   88
   432.0,0.000963,0.000597, 22,0.007625,-0.000040,  26.592,   87
   432.2,0.000956,0.000604, 22,0.007625,-0.000004,  26.592,   87
   432.4,0.000953,0.000606, 22,0.007619,-0.000004,  26.594,   87
   432.6,0.000947,0.000599, 22,0.007600,-0.000040,  26.589,   86
   432.8,0.000948,0.000607, 22,0.007588,-0.000004,  26.587,   86
   433.0,0.000949,0.000607, 22,0.007564,-0.000004,  26.591,   86
   433.2,0.000942,0.000604, 22,0.007522,-0.000040,  26.585,   86
   433.4,0.000940,0.000607, 22,0.007515,-0.000004,  26.585,   90
   433.6,0.000944,0.000606, 22,0.007515,-0.000004,  26.591,   93
   433.8,0.000934,0.000603, 22,0.007527,-0.000040,  26.591,   91
   434.0,0.000932,0.000608, 22,0.007496,0.000009,  26.587,   89
   434.2,0.000933,0.000606, 22,0.007472,0.000009,  26.589,   87
   434.4,0.000923,0.000595, 22,0.007418,-0.000027,  26.584,   86
   434.6,0.000921,0.000596, 22,0.007424,0.000022,  26.587,   87
   434.8,0.000922,0.000591, 22,0.007430,0.000009,  26.589,   87
   435.0,0.000913,0.000582, 22,0.007436,0.000009,  26.587,   86
   435.2,0.000910,0.000582, 22,0.007411,-0.000027,  26.588,   86
   435.4,0.000908,0.000586, 22,0.007381,0.000009,  26.585,   85
   435.6,0.000902,0.000583, 22,0.007327,0.000009,  26.591,   85
   435.8,0.000899,0.000585, 22,0.007315,0.000022,  26.588,   85
   436.0,0.000903,0.000590, 22,0.007333,0.000009,  26.587,   84
   436.2,0.000896,0.000587, 22,0.007345,0.000009,  26.589,   88
   436.4,0.000894,0.000585, 22,0.007381,-0.000027,  26.590,   91
   436.6,0.000892,0.000580, 22,0.007393,0.000022,  26.593,   89
   436.8,0.000883,0.000574, 22,0.007411,0.000009,  26.592,   87
   437.0,0.000889,0.000574, 22,0.007423,-0.000027,  26.591,   88
   437.2,0.000890,0.000574, 22,0.007374,0.000009,  26.591,   90
   437.4,0.000884,0.000570, 22,0.007314,-0.000004,  26.592,   88
   437.6,0.000878,0.000566, 22,0.007212,-0.000040,  26.593,   87
   437.8,0.000876,0.000565, 22,0.007175,-0.000004,  26.591,   87
   438.0,0.000866,0.000561, 22,0.007157,-0.000004,  26.595,   86
   438.2,0.000861,0.000557, 22,0.007157,-0.000040,  26.592,   86
   438.4,0.000862,0.000551, 22,0.007126,-0.000004,  26.593,   86
   438.6,0.000853,0.000547, 22,0.007084,-0.000004,  26.595,   86
   438.8,0.000847,0.000542, 22,0.007024,-0.000040,  26.596,   86
   439.0,0.000851,0.000537, 22,0.006812,-0.000004,  26.595,   88
   439.2,0.000842,0.000537, 22,0.006523,-0.000004,  26.596,   90
   439.4,0.000836,0.000532, 22,0.006144,-0.000053,  26.597,   88
   439.6,0.000835,0.000530, 22,0.006108,-0.000017,  26.595,   86
   439.8,0.000825,0.000529, 22,0.006204,-0.000017,  26.598,   86
   440.0,0.000823,0.000525, 22,0.006414,-0.000066,  26.601,   87
   440.2,0.000824,0.000524, 22,0.006444,-0.000030,  26.600,   87
   440.4,0.000815,0.000526, 22,0.006432,-0.000017,  26.603,   88
   440.6,0.000812,0.000517, 22,0.006372,-0.000053,  26.602,   88
   440.8,0.000813,0.000517, 22,0.006390,-0.000017,  26.602,   88
   441.0,0.000810,0.000517, 22,0.006413,-0.000030,  26.601,   87
   441.2,0.000804,0.000513, 22,0.006449,-0.000053,  26.599,   86
   441.4,0.000808,0.000511, 22,0.006449,-0.000017,  26.600,   86
   441.6,0.000801,0.000510, 22,0.006437,-0.000030,  26.602,   86
   441.8,0.000801,0.000507, 22,0.006419,-0.000053,  26.600,   87
   442.0,0.000792,0.000506, 22,0.006407,-0.000017,  26.601,   88
   442.2,0.000796,0.000506, 22,0.006412,0.000006,  26.603,   87
   442.4,0.000789,0.000503, 22,0.006400,-0.000017,  26.601,   87
   442.6,0.000796,0.000503, 22,0.006400,-0.000017,  26.603,   88
   442.8,0.000793,0.000506, 22,0.006406,0.000006,  26.604,   89
   443.0,0.000786,0.000503, 22,0.006399,-0.000017,  26.603,   88
   443.2,0.000790,0.000498, 22,0.006393,-0.000017,  26.605,   87
   443.4,0.000785,0.000498, 22,0.006393,0.000006,  26.602,   87
   443.6,0.000775,0.000493, 22,0.006369,-0.000017,  26.606,   87
   443.8,0.000782,0.000496, 22,0.006351,-0.000017,  26.606,   88
   444.0,0.000779,0.000497, 22,0.006326,0.000006,  26.608,   88
   444.2,0.000773,0.000494, 22,0.006296,-0.000017,  26.610,   87
   444.4,0.000776,0.000496, 22,0.006284,-0.000017,  26.609,   87
   444.6,0.000776,0.000498, 22,0.006278,0.000006,  26.613,   87
   444.8,0.000770,0.000493, 22,0.006302,0.000006,  26.612,   87
   445.0,0.000767,0.000494, 22,0.006320,-0.000017,  26.609,   87
   445.2,0.000762,0.000500, 22,0.006332,0.000019,  26.610,   87
   445.4,0.000755,0.000493, 22,0.006350,0.000006,  26.609,   86
   445.6,0.000755,0.000491, 22,0.006380,0.000019,  26.610,   86
   445.8,0.000759,0.000491, 22,0.006344,0.000006,  26.613,   85
   446.0,0.000750,0.000486, 22,0.006283,0.000006,  26.607,   85
   446.2,0.000753,0.000486, 22,0.006181,-0.000017,  26.607,   86
   446.4,0.000757,0.000486, 22,0.006169,-0.000017,  26.614,   88
   446.6,0.000748,0.000484, 22,0.006151,0.000006,  26.608,   86
   446.8,0.000749,0.000486, 22,0.006162,-0.000017,  26.605,   85
   447.0,0.000747,0.000480, 22,0.006144,-0.000017,  26.607,   86
   447.2,0.000740,0.000484, 22,0.006114,0.000006,  26.608,   87
   447.4,0.000744,0.000480, 22,0.006078,-0.000017,  26.611,   87
   447.6,0.000738,0.000480, 22,0.006060,-0.000017,  26.610,   87
   447.8,0.000729,0.000480, 22,0.006006,0.000019,  26.608,   88
   448.0,0.000736,0.000475, 22,0.005952,-0.000017,  26.608,   88
   448.2,0.000730,0.000471, 22,0.005927,-0.000017,  26.604,   87
   448.4,0.000724,0.000469, 22,0.005897,0.000019,  26.605,   87
   448.6,0.000727,0.000465, 22,0.005873,-0.000017,  26.607,   87
   448.8,0.000727,0.000467, 22,0.005867,-0.000017,  26.603,   87
   449.0,0.000721,0.000471, 22,0.005861,0.000019,  26.603,   86
   449.2,0.000725,0.000465, 22,0.005885,-0.000017,  26.605,   86
   449.4,0.000719,0.000462, 22,0.005872,-0.000017,  26.606,   87
   449.6,0.000710,0.000463, 22,0.005848,0.000006,  26.605,   87
   449.8,0.000714,0.000456, 22,0.005824,-0.000017,  26.599,   89
   450.0,0.000708,0.000454, 22,0.005800,-0.000017,  26.606,   91
   450.2,0.000706,0.000455,N/A,0.005770,0.000006,  26.602,   90
   450.4,0.000703,0.000448,N/A,0.005722,-0.000017,  26.602,   89
   450.6,0.000703,0.000447,N/A,0.005698,-0.000017,  26.604,N/A
