Run Name,Group10_40%B-isocrat
Run Date,01:56:00 PM   04-14-11
Method Name,40%B-Isocrat.1 SVS
Export Format Version, 1.00
Method ID, 1264
Points/Second, 1.00
Number of Records,   1224
Offset from Run Start Time,00:00:00
Run End Time,00:20:30
Time,Second
QuadTec 1, (280.0 nm), AU
QuadTec 2, (260.0 nm), AU
Gradient Pump,<Not Selected>
QuadTec 3, (214.0 nm), AU
QuadTec 4, (405.0 nm), AU
Conductivity,mS/cm
Trace 6,<Not Available>
GP Pressure,<Not Selected>
Volume,<Not Selected>
Fraction,<Not Available>
Time,QuadTec 1,QuadTec 2,QuadTec 3,QuadTec 4,Conductivity
     0.0,0.000364,-0.000092,0.006969,0.000000,  37.395
     1.0,0.000359,-0.000102,0.000000,0.000000,  37.368
     2.0,0.000367,-0.000094,0.000000,0.000000,  37.358
     3.0,0.000367,-0.000091,0.000000,0.000000,  37.337
     4.0,0.000367,-0.000091,0.000000,0.000000,  37.327
     5.0,0.000026,0.000000,-0.000035,0.000005,  37.331
     6.0,0.000000,0.000000,0.000029,-0.000044,  37.308
     7.0,0.000000,0.000000,0.000091,-0.000022,  37.306
     8.0,0.000000,0.000000,0.000039,-0.000031,  37.296
     9.0,0.000000,0.000000,-0.000040,-0.000039,  37.298
    10.0,0.000003,0.000003,-0.000003,-0.000004,  37.306
    11.0,-0.000008,0.000002,-0.000003,-0.000004,  37.307
    12.0,-0.000032,-0.000017,-0.000080,-0.000080,  37.300
    13.0,-0.000012,-0.000019,-0.000113,-0.000004,  37.308
    14.0,-0.000013,-0.000007,-0.000031,-0.000004,  37.307
    15.0,-0.000003,-0.000001,-0.000017,-0.000012,  37.311
    16.0,-0.000002,-0.000001,0.000002,0.000010,  37.315
    17.0,-0.000035,-0.000011,0.000122,-0.000039,  37.310
    18.0,-0.000023,-0.000022,0.000040,-0.000039,  37.309
    19.0,-0.000001,-0.000004,0.000059,-0.000048,  37.318
    20.0,-0.000005,0.000004,-0.000002,-0.000048,  37.326
    21.0,-0.000002,0.000006,0.000034,-0.000012,  37.339
    22.0,-0.000016,0.000003,0.000186,-0.000061,  37.337
    23.0,-0.000013,-0.000001,0.000221,-0.000075,  37.346
    24.0,0.000003,0.000011,0.000137,-0.000026,  37.351
    25.0,0.000008,0.000004,0.000122,-0.000034,  37.355
    26.0,0.000022,0.000026,-0.000073,0.000001,  37.364
    27.0,0.000015,0.000026,0.000015,-0.000034,  37.369
    28.0,-0.000012,0.000007,0.000043,-0.000034,  37.364
    29.0,0.000013,0.000014,0.000051,0.000001,  37.366
    30.0,0.000015,0.000024,-0.002080,-0.000034,  37.361
    31.0,0.000017,0.000032,-0.000782,-0.000048,  37.362
    32.0,0.000021,0.000030,-0.000281,-0.000012,  37.373
    33.0,-0.000004,0.000010,-0.000032,-0.000075,  37.370
    34.0,0.000005,0.000001,-0.000134,-0.000026,  37.374
    35.0,0.000005,0.000006,-0.000122,-0.000012,  37.369
    36.0,0.000010,0.000001,-0.000101,-0.000048,  37.381
    37.0,0.000013,0.000024,-0.000217,-0.000021,  37.390
    38.0,-0.000009,0.000004,-0.000133,-0.000034,  37.383
    39.0,-0.000013,-0.000018,-0.000028,-0.000048,  37.386
    40.0,0.000008,0.000002,-0.000124,-0.000034,  37.389
    41.0,0.000012,-0.000000,-0.000219,-0.000034,  37.411
    42.0,0.000024,0.000006,-0.000242,-0.000034,  37.422
    43.0,0.000008,0.000016,-0.000207,-0.000034,  37.419
    44.0,-0.000009,-0.000003,-0.000047,-0.000088,  37.425
    45.0,0.000010,0.000019,-0.000169,-0.000061,  37.429
    46.0,0.000013,0.000015,-0.000143,-0.000034,  37.426
    47.0,0.000014,0.000014,-0.000263,-0.000034,  37.429
    48.0,0.000009,0.000015,-0.000189,-0.000034,  37.435
    49.0,-0.000035,-0.000023,-0.000120,-0.000034,  37.429
    50.0,-0.000019,-0.000013,-0.000231,-0.000034,  37.433
    51.0,-0.000002,-0.000003,-0.000241,-0.000021,  37.425
    52.0,0.000003,0.000004,-0.000246,-0.000021,  37.427
    53.0,0.000010,0.000008,-0.000381,-0.000021,  37.431
    54.0,0.000003,0.000007,-0.000220,-0.000048,  37.433
    55.0,0.000001,-0.000005,-0.000147,-0.000061,  37.431
    56.0,0.000015,-0.000002,-0.000262,-0.000034,  37.435
    57.0,0.000019,-0.000001,-0.000254,-0.000021,  37.433
    58.0,0.000011,0.000006,-0.000196,-0.000021,  37.432
    59.0,-0.000003,0.000010,-0.000249,-0.000021,  37.426
    60.0,-0.000030,-0.000006,-0.000242,-0.000021,  37.429
    61.0,-0.000007,0.000001,-0.000274,-0.000034,  37.426
    62.0,0.000021,0.000020,-0.000242,-0.000021,  37.424
    63.0,0.000026,0.000029,-0.000335,-0.000007,  37.424
    64.0,0.000038,0.000026,-0.000469,-0.000007,  37.422
    65.0,0.000021,0.000015,-0.000220,-0.000034,  37.410
    66.0,0.000024,0.000018,-0.000202,-0.000034,  37.406
    67.0,0.000026,0.000030,-0.000211,0.000001,  37.398
    68.0,0.000025,0.000031,-0.000261,-0.000034,  37.376
    69.0,0.000037,0.000037,-0.000238,0.000015,  37.383
    70.0,0.000013,0.000020,-0.000201,-0.000021,  37.364
    71.0,0.000003,0.000003,-0.000266,-0.000048,  37.363
    72.0,0.000006,0.000013,-0.000351,0.000001,  37.358
    73.0,0.000008,0.000020,-0.000346,-0.000034,  37.352
    74.0,0.000016,0.000026,-0.000391,-0.000034,  37.357
    75.0,0.000015,0.000029,-0.000368,-0.000012,  37.344
    76.0,0.000010,0.000018,-0.000272,-0.000034,  37.338
    77.0,0.000011,0.000020,-0.000394,-0.000034,  37.334
    78.0,0.000014,0.000022,-0.000453,-0.000021,  37.332
    79.0,0.000025,0.000016,-0.000390,0.000006,  37.322
    80.0,0.000029,0.000019,-0.000375,-0.000007,  37.315
    81.0,-0.000017,-0.000006,-0.000510,-0.000034,  37.306
    82.0,0.000005,0.000014,-0.000961,-0.000034,  37.305
    83.0,0.000016,0.000013,-0.000770,-0.000021,  37.303
    84.0,0.000020,0.000014,-0.000471,-0.000007,  37.296
    85.0,0.000017,0.000019,-0.000202,0.000006,  37.313
    86.0,-0.000001,0.000011,-0.000122,-0.000034,  37.294
    87.0,0.000015,0.000016,-0.000031,-0.000048,  37.301
    88.0,0.000024,0.000016,0.000213,-0.000007,  37.298
    89.0,0.000031,0.000030,0.000482,-0.000007,  37.301
    90.0,0.000047,0.000034,0.001035,0.000020,  37.306
    91.0,0.000037,0.000040,0.002122,0.000006,  37.302
    92.0,0.000028,0.000034,0.003527,-0.000007,  37.299
    93.0,0.000068,0.000053,0.005137,0.000006,  37.314
    94.0,0.000092,0.000061,0.006927,0.000006,  37.319
    95.0,0.000139,0.000087,0.009926,0.000006,  37.322
    96.0,0.000216,0.000146,0.013895,0.000033,  37.331
    97.0,0.000274,0.000179,0.017563,0.000020,  37.332
    98.0,0.000404,0.000245,0.023303,0.000047,  37.330
    99.0,0.000541,0.000327,0.028134,0.000060,  37.336
   100.0,0.000760,0.000466,0.033138,0.000060,  37.338
   101.0,0.001131,0.000664,0.045063,0.000087,  37.353
   102.0,0.001357,0.000800,0.054963,0.000087,  37.362
   103.0,0.001848,0.001033,0.066504,0.000114,  37.372
   104.0,0.002233,0.001241,0.076662,0.000128,  37.376
   105.0,0.002611,0.001410,0.086680,0.000141,  37.382
   106.0,0.003461,0.001976,0.106852,0.000182,  37.386
   107.0,0.004359,0.002472,0.126170,0.000182,  37.384
   108.0,0.005431,0.003030,0.144038,0.000209,  37.384
   109.0,0.006390,0.003562,0.168103,0.000222,  37.384
   110.0,0.007273,0.004089,0.187439,0.000258,  37.384
   111.0,0.009316,0.005225,0.215296,0.000236,  37.387
   112.0,0.011167,0.006015,0.253285,0.000263,  37.386
   113.0,0.013213,0.007064,0.274611,0.000290,  37.385
   114.0,0.015496,0.008312,0.313187,0.000303,  37.386
   115.0,0.016734,0.009204,0.347636,0.000317,  37.384
   116.0,0.019394,0.010689,0.387118,0.000317,  37.390
   117.0,0.023437,0.012814,0.441241,0.000317,  37.392
   118.0,0.026866,0.014545,0.477173,0.000366,  37.378
   119.0,0.030468,0.016562,0.525252,0.000371,  37.381
   120.0,0.033801,0.017998,0.570783,0.000384,  37.376
   121.0,0.038213,0.020161,0.612813,0.000344,  37.380
   122.0,0.043857,0.023248,0.668922,0.000330,  37.391
   123.0,0.047183,0.025577,0.727025,0.000379,  37.388
   124.0,0.052444,0.028293,0.780428,0.000357,  37.394
   125.0,0.057252,0.030857,0.836149,0.000344,  37.389
   126.0,0.061333,0.033152,0.885477,0.000276,  37.392
   127.0,0.067901,0.036774,0.950513,0.000249,  37.401
   128.0,0.074200,0.039976,1.011030,0.000249,  37.395
   129.0,0.080040,0.042448,1.054877,0.000222,  37.394
   130.0,0.085728,0.045546,1.116064,0.000195,  37.393
   131.0,0.090707,0.048123,1.156424,0.000141,  37.385
   132.0,0.096774,0.051823,1.207372,0.000074,  37.372
   133.0,0.103272,0.055357,1.273522,0.000020,  37.370
   134.0,0.108328,0.057952,1.320396,-0.000007,  37.331
   135.0,0.114904,0.061551,1.374122,-0.000061,  37.308
   136.0,0.119988,0.064176,1.421060,-0.000115,  37.268
   137.0,0.125500,0.067007,1.468070,-0.000210,  37.241
   138.0,0.132641,0.070195,1.526993,-0.000223,  37.219
   139.0,0.137937,0.073224,1.562734,-0.000291,  37.179
   140.0,0.143864,0.076313,1.594220,-0.000277,  37.145
   141.0,0.147566,0.078825,1.643031,-0.000345,  37.112
   142.0,0.152236,0.081347,1.678699,-0.000412,  37.082
   143.0,0.158770,0.084796,1.723051,-0.000466,  37.039
   144.0,0.163778,0.087407,1.770265,-0.000493,  36.995
   145.0,0.168766,0.090117,1.798446,-0.000439,  36.913
   146.0,0.173410,0.092253,1.845094,-0.000466,  36.843
   147.0,0.176315,0.093647,1.878282,-0.000479,  36.746
   148.0,0.181841,0.096341,1.911778,-0.000479,  36.659
   149.0,0.187008,0.099305,1.962931,-0.000412,  36.593
   150.0,0.191022,0.101725,1.986195,-0.000034,  36.466
   151.0,0.195550,0.104170,2.032033,-0.000115,  36.340
   152.0,0.198883,0.106017,2.076996,-0.000088,  36.211
   153.0,0.203970,0.108763,2.117239,-0.000021,  36.048
   154.0,0.210072,0.112057,2.173779,0.000222,  35.899
   155.0,0.214781,0.113998,2.211028,0.000668,  35.687
   156.0,0.221099,0.117295,2.261317,0.000790,  35.471
   157.0,0.225854,0.120030,2.301277,0.001060,  35.227
   158.0,0.229755,0.122671,2.343687,0.001236,  34.962
   159.0,0.238360,0.127375,2.392575,0.001575,  34.680
   160.0,0.246241,0.131534,2.431231,0.001940,  34.428
   161.0,0.254300,0.135886,2.458318,0.002122,  34.130
   162.0,0.262783,0.140441,2.494141,0.002380,  33.843
   163.0,0.270880,0.144881,2.515691,0.002442,  33.566
   164.0,0.282362,0.149732,2.538360,0.002429,  33.314
   165.0,0.292094,0.154969,2.554133,0.002497,  33.106
   166.0,0.300767,0.159203,2.570513,0.002524,  32.900
   167.0,0.308834,0.164266,2.581820,0.002537,  32.775
   168.0,0.315990,0.168167,2.587552,0.002429,  32.691
   169.0,0.324017,0.172190,2.596374,0.002266,  32.667
   170.0,0.331939,0.176168,2.605291,0.002171,  32.718
   171.0,0.337523,0.178904,2.605280,0.001940,  32.802
   172.0,0.342941,0.181475,2.611371,0.001846,  32.934
   173.0,0.347016,0.183029,2.611365,0.001764,  33.119
   174.0,0.350693,0.184644,2.617525,0.001547,  33.356
   175.0,0.353078,0.185955,2.614440,0.001399,  33.616
   176.0,0.353638,0.186083,2.614450,0.001250,  33.882
   177.0,0.354043,0.186172,2.614413,0.001136,  34.182
   178.0,0.354151,0.185985,2.614408,0.001033,  34.488
   179.0,0.352418,0.184989,2.614429,0.000911,  34.801
   180.0,0.351843,0.184428,2.614429,0.000866,  35.099
   181.0,0.349429,0.183270,2.614413,0.000790,  35.338
   182.0,0.346840,0.181888,2.617520,0.000663,  35.585
   183.0,0.343831,0.180226,2.614456,0.000627,  35.807
   184.0,0.341114,0.178249,2.614450,0.000573,  36.006
   185.0,0.338086,0.176653,2.614445,0.000533,  36.191
   186.0,0.333910,0.174439,2.611354,0.000519,  36.347
   187.0,0.330051,0.172437,2.608296,0.000452,  36.481
   188.0,0.326455,0.170527,2.605264,0.000460,  36.612
   189.0,0.322240,0.168212,2.605264,0.000425,  36.722
   190.0,0.318048,0.166332,2.599311,0.000425,  36.815
   191.0,0.314159,0.164489,2.599290,0.000398,  36.899
   192.0,0.309964,0.162330,2.593376,0.000357,  36.956
   193.0,0.306642,0.160216,2.593451,0.000317,  37.005
   194.0,0.302285,0.157988,2.587621,0.000330,  37.054
   195.0,0.297556,0.155648,2.584698,0.000330,  37.085
   196.0,0.293852,0.153724,2.578989,0.000330,  37.123
   197.0,0.289344,0.151407,2.578989,0.000303,  37.140
   198.0,0.285460,0.149502,2.570598,0.000303,  37.155
   199.0,0.281543,0.147957,2.567775,0.000303,  37.169
   200.0,0.276899,0.145597,2.562283,0.000303,  37.173
   201.0,0.273537,0.143796,2.559587,0.000303,  37.182
   202.0,0.270257,0.141849,2.551514,0.000303,  37.209
   203.0,0.266429,0.139996,2.543540,0.000249,  37.199
   204.0,0.262639,0.138160,2.540932,0.000249,  37.200
   205.0,0.258491,0.136038,2.530674,0.000263,  37.196
   206.0,0.255011,0.134392,2.523131,0.000263,  37.205
   207.0,0.251297,0.133013,2.518189,0.000263,  37.212
   208.0,0.247586,0.131122,2.505996,0.000236,  37.211
   209.0,0.244415,0.129619,2.498857,0.000222,  37.213
   210.0,0.241497,0.128018,2.487218,0.000263,  37.219
   211.0,0.237752,0.126087,2.478123,0.000263,  37.210
   212.0,0.235130,0.124865,2.469230,0.000249,  37.216
   213.0,0.231915,0.123366,2.458334,0.000249,  37.219
   214.0,0.229034,0.122050,2.443587,0.000141,  37.195
   215.0,0.225955,0.120560,2.431263,0.000217,  37.195
   216.0,0.222611,0.119119,2.417343,0.000222,  37.197
   217.0,0.220224,0.118151,2.400501,0.000271,  37.205
   218.0,0.217300,0.116916,2.389113,0.000263,  37.234
   219.0,0.214748,0.115589,2.372879,0.000195,  37.216
   220.0,0.212918,0.114660,2.355515,0.000258,  37.223
   221.0,0.210161,0.113321,2.338879,0.000249,  37.228
   222.0,0.207506,0.112103,2.322846,0.000276,  37.222
   223.0,0.205674,0.111406,2.302830,0.000249,  37.226
   224.0,0.203444,0.110399,2.282248,0.000195,  37.206
   225.0,0.201491,0.109603,2.262664,0.000209,  37.191
   226.0,0.199168,0.108765,2.245230,0.000209,  37.184
   227.0,0.197001,0.107744,2.225925,0.000209,  37.185
   228.0,0.195666,0.107306,2.211049,0.000236,  37.185
   229.0,0.193938,0.106353,2.188546,0.000222,  37.182
   230.0,0.192277,0.105684,2.166017,0.000195,  37.189
   231.0,0.190854,0.105124,2.143843,0.000209,  37.199
   232.0,0.188671,0.104031,2.124279,0.000222,  37.204
   233.0,0.187489,0.103755,2.104769,0.000249,  37.211
   234.0,0.186249,0.103465,2.081551,0.000249,  37.239
   235.0,0.184999,0.102947,2.058688,0.000182,  37.218
   236.0,0.183819,0.102543,2.043542,0.000217,  37.218
   237.0,0.182353,0.101784,2.019724,0.000222,  37.212
   238.0,0.181508,0.101581,2.002638,0.000249,  37.205
   239.0,0.180732,0.101383,1.980337,0.000249,  37.217
   240.0,0.179364,0.100748,1.961104,0.000236,  37.200
   241.0,0.178722,0.100677,1.942247,0.000236,  37.207
   242.0,0.177803,0.100289,1.924240,0.000271,  37.207
   243.0,0.176446,0.099773,1.903380,0.000249,  37.216
   244.0,0.176290,0.099938,1.890392,0.000249,  37.224
   245.0,0.175429,0.099683,1.870516,0.000263,  37.244
   246.0,0.175077,0.099599,1.850466,0.000222,  37.235
   247.0,0.174399,0.099390,1.834315,0.000222,  37.241
   248.0,0.173415,0.099020,1.816764,0.000249,  37.250
   249.0,0.173432,0.099289,1.803247,0.000263,  37.266
   250.0,0.172794,0.099098,1.785532,0.000263,  37.285
   251.0,0.172185,0.098938,1.767665,0.000222,  37.280
   252.0,0.172040,0.099025,1.752163,0.000271,  37.293
   253.0,0.171141,0.098768,1.740075,0.000249,  37.302
   254.0,0.171004,0.098731,1.727094,0.000276,  37.311
   255.0,0.171032,0.098921,1.711072,0.000312,  37.323
   256.0,0.170645,0.098796,1.694446,0.000263,  37.341
   257.0,0.170453,0.098853,1.680252,0.000236,  37.351
   258.0,0.170014,0.098739,1.668210,0.000285,  37.359
   259.0,0.169744,0.098868,1.654809,0.000263,  37.366
   260.0,0.169881,0.099006,1.646136,0.000263,  37.375
   261.0,0.169409,0.098884,1.633727,0.000276,  37.381
   262.0,0.169331,0.098865,1.620110,0.000263,  37.387
   263.0,0.169302,0.098992,1.609016,0.000249,  37.394
   264.0,0.168759,0.098708,1.597610,0.000290,  37.397
   265.0,0.169054,0.099130,1.589378,0.000290,  37.400
   266.0,0.168807,0.099108,1.574588,0.000276,  37.418
   267.0,0.168630,0.099112,1.562379,0.000236,  37.416
   268.0,0.168548,0.099176,1.552421,0.000236,  37.418
   269.0,0.168035,0.099001,1.542900,0.000263,  37.413
   270.0,0.168455,0.099321,1.537176,0.000276,  37.412
   271.0,0.168205,0.099296,1.528743,0.000263,  37.414
   272.0,0.167892,0.099134,1.514711,0.000249,  37.408
   273.0,0.167818,0.099205,1.504603,0.000249,  37.412
   274.0,0.167682,0.099179,1.496407,0.000263,  37.410
   275.0,0.167399,0.099249,1.487796,0.000290,  37.410
   276.0,0.167608,0.099341,1.479598,0.000276,  37.408
   277.0,0.167255,0.099205,1.467989,0.000263,  37.408
   278.0,0.167001,0.099114,1.462101,0.000222,  37.404
   279.0,0.166794,0.099049,1.453710,0.000236,  37.405
   280.0,0.166666,0.099014,1.444873,0.000236,  37.408
   281.0,0.166701,0.099105,1.440725,0.000249,  37.404
   282.0,0.166147,0.098834,1.429502,0.000236,  37.412
   283.0,0.165795,0.098681,1.420554,0.000209,  37.406
   284.0,0.165608,0.098634,1.411380,0.000249,  37.410
   285.0,0.165185,0.098485,1.400270,0.000249,  37.414
   286.0,0.165370,0.098566,1.396496,0.000263,  37.420
   287.0,0.164843,0.098380,1.387703,0.000249,  37.428
   288.0,0.164387,0.098118,1.378213,0.000209,  37.424
   289.0,0.163969,0.097903,1.370936,0.000182,  37.433
   290.0,0.163632,0.097715,1.363087,0.000222,  37.435
   291.0,0.163426,0.097709,1.355399,0.000236,  37.431
   292.0,0.162873,0.097350,1.350498,0.000249,  37.436
   293.0,0.162273,0.097035,1.339111,0.000222,  37.428
   294.0,0.161704,0.096818,1.330359,0.000236,  37.432
   295.0,0.161283,0.096571,1.322270,0.000236,  37.435
   296.0,0.160891,0.096249,1.315731,0.000249,  37.435
   297.0,0.160801,0.096284,1.309622,0.000263,  37.441
   298.0,0.159876,0.095756,1.296798,0.000236,  37.445
   299.0,0.159216,0.095344,1.289322,0.000209,  37.444
   300.0,0.158536,0.094990,1.280428,0.000209,  37.446
   301.0,0.157879,0.094722,1.273034,0.000222,  37.451
   302.0,0.157602,0.094494,1.269242,0.000222,  37.455
   303.0,0.156509,0.093976,1.257595,0.000236,  37.462
   304.0,0.155885,0.093611,1.248597,0.000209,  37.459
   305.0,0.154985,0.093078,1.240046,0.000195,  37.461
   306.0,0.154538,0.092727,1.230693,0.000222,  37.461
   307.0,0.154005,0.092613,1.223173,0.000236,  37.465
   308.0,0.153287,0.092042,1.213176,0.000249,  37.468
   309.0,0.152324,0.091431,1.201926,0.000195,  37.462
   310.0,0.151229,0.090810,1.196328,0.000209,  37.463
   311.0,0.150513,0.090408,1.185431,0.000195,  37.464
   312.0,0.150019,0.090175,1.177913,0.000195,  37.460
   313.0,0.148875,0.089591,1.174540,0.000209,  37.446
   314.0,0.147724,0.088829,1.161298,0.000209,  37.443
   315.0,0.147005,0.088267,1.153265,0.000155,  37.434
   316.0,0.145948,0.087715,1.140809,0.000195,  37.423
   317.0,0.145233,0.087379,1.131980,0.000209,  37.417
   318.0,0.144765,0.087038,1.125456,0.000209,  37.411
   319.0,0.143325,0.086165,1.111004,0.000195,  37.411
   320.0,0.142119,0.085663,1.102236,0.000177,  37.399
   321.0,0.140984,0.084905,1.092571,0.000168,  37.385
   322.0,0.140215,0.084395,1.085017,0.000204,  37.378
   323.0,0.139468,0.083933,1.077109,0.000209,  37.378
   324.0,0.138073,0.083002,1.069044,0.000195,  37.382
   325.0,0.136964,0.082368,1.056824,0.000190,  37.380
   326.0,0.135654,0.081617,1.046637,0.000168,  37.381
   327.0,0.134670,0.081025,1.035612,0.000182,  37.384
   328.0,0.133965,0.080513,1.028396,0.000217,  37.385
   329.0,0.132857,0.080092,1.017263,0.000182,  37.380
   330.0,0.131416,0.079190,1.004189,0.000217,  37.394
   331.0,0.130072,0.078408,0.998310,0.000114,  37.385
   332.0,0.129174,0.077716,0.987013,0.000155,  37.387
   333.0,0.128163,0.077178,0.978091,0.000204,  37.385
   334.0,0.127066,0.076456,0.972334,0.000182,  37.391
   335.0,0.125404,0.075495,0.958182,0.000168,  37.395
   336.0,0.124366,0.074910,0.948324,0.000204,  37.388
   337.0,0.122913,0.074091,0.936596,0.000168,  37.391
   338.0,0.121948,0.073537,0.926725,0.000204,  37.397
   339.0,0.121156,0.073131,0.919955,0.000209,  37.398
   340.0,0.119684,0.072183,0.907161,0.000195,  37.400
   341.0,0.118597,0.071378,0.895838,0.000190,  37.404
   342.0,0.117025,0.070463,0.887991,0.000168,  37.408
   343.0,0.115970,0.069857,0.876250,0.000168,  37.430
   344.0,0.115102,0.069295,0.868487,0.000231,  37.432
   345.0,0.113448,0.068276,0.860012,0.000209,  37.434
   346.0,0.112001,0.067586,0.846072,0.000231,  37.439
   347.0,0.110650,0.066786,0.839376,0.000141,  37.434
   348.0,0.109444,0.066047,0.827242,0.000182,  37.438
   349.0,0.108744,0.065572,0.818049,0.000217,  37.437
   350.0,0.107770,0.064902,0.809995,0.000195,  37.437
   351.0,0.106038,0.063884,0.795055,0.000195,  37.451
   352.0,0.104632,0.063067,0.788211,0.000163,  37.438
   353.0,0.103281,0.062236,0.777506,0.000155,  37.432
   354.0,0.102395,0.061653,0.767717,0.000168,  37.424
   355.0,0.101200,0.061128,0.759744,0.000204,  37.424
   356.0,0.099452,0.060073,0.751130,0.000195,  37.420
   357.0,0.098348,0.059341,0.740007,0.000177,  37.420
   358.0,0.097092,0.058470,0.729913,0.000141,  37.413
   359.0,0.095982,0.057846,0.719515,0.000155,  37.410
   360.0,0.095213,0.057282,0.712337,0.000226,  37.409
   361.0,0.093786,0.056441,0.701312,0.000168,  37.410
   362.0,0.092357,0.055646,0.688783,0.000168,  37.427
   363.0,0.090900,0.054788,0.682267,0.000163,  37.402
   364.0,0.089744,0.054208,0.671641,0.000141,  37.400
   365.0,0.088771,0.053629,0.664973,0.000190,  37.395
   366.0,0.087643,0.052848,0.658752,0.000168,  37.394
   367.0,0.086158,0.051921,0.645233,0.000168,  37.410
   368.0,0.085043,0.051321,0.636876,0.000128,  37.396
   369.0,0.083681,0.050460,0.626396,0.000141,  37.402
   370.0,0.082780,0.049890,0.618012,0.000155,  37.397
   371.0,0.081883,0.049368,0.610492,0.000190,  37.400
   372.0,0.080331,0.048523,0.598278,0.000168,  37.403
   373.0,0.079181,0.047862,0.589969,0.000177,  37.398
   374.0,0.077767,0.047018,0.583937,0.000141,  37.393
   375.0,0.077014,0.046450,0.574219,0.000155,  37.391
   376.0,0.076183,0.045924,0.567851,0.000204,  37.391
   377.0,0.074692,0.044986,0.559525,0.000168,  37.396
   378.0,0.073474,0.044294,0.548584,0.000168,  37.400
   379.0,0.072276,0.043531,0.541546,0.000163,  37.398
   380.0,0.071190,0.042915,0.530994,0.000155,  37.407
   381.0,0.070407,0.042547,0.523917,0.000190,  37.409
   382.0,0.069307,0.041965,0.517115,0.000155,  37.410
   383.0,0.068012,0.041140,0.507190,0.000168,  37.415
   384.0,0.067010,0.040421,0.501070,0.000114,  37.411
   385.0,0.065878,0.039712,0.492446,0.000141,  37.415
   386.0,0.065121,0.039233,0.484827,0.000155,  37.414
   387.0,0.064107,0.038621,0.478438,0.000141,  37.416
   388.0,0.062721,0.037799,0.469291,0.000141,  37.421
   389.0,0.061734,0.037247,0.462458,0.000128,  37.415
   390.0,0.060568,0.036644,0.453477,0.000150,  37.414
   391.0,0.059804,0.036154,0.447111,0.000155,  37.415
   392.0,0.059138,0.035720,0.441673,0.000177,  37.417
   393.0,0.058130,0.035005,0.433122,0.000141,  37.417
   394.0,0.057012,0.034399,0.424470,0.000141,  37.423
   395.0,0.055891,0.033707,0.419395,0.000136,  37.419
   396.0,0.054992,0.033161,0.411085,0.000101,  37.424
   397.0,0.054232,0.032716,0.405454,0.000114,  37.422
   398.0,0.053163,0.032068,0.399890,0.000163,  37.418
   399.0,0.052114,0.031545,0.390944,0.000128,  37.428
   400.0,0.051175,0.031063,0.386258,0.000136,  37.424
   401.0,0.050339,0.030421,0.378479,0.000114,  37.429
   402.0,0.049744,0.029994,0.372415,0.000128,  37.431
   403.0,0.049020,0.029570,0.366932,0.000128,  37.433
   404.0,0.047940,0.028901,0.358516,0.000141,  37.449
   405.0,0.047124,0.028395,0.352900,0.000114,  37.451
   406.0,0.046117,0.027810,0.346834,0.000150,  37.450
   407.0,0.045425,0.027465,0.340802,0.000128,  37.453
   408.0,0.044743,0.027103,0.336722,0.000163,  37.461
   409.0,0.043668,0.026462,0.330273,0.000141,  37.459
   410.0,0.042983,0.025992,0.324203,0.000141,  37.456
   411.0,0.042203,0.025445,0.319412,0.000150,  37.455
   412.0,0.041465,0.025015,0.312557,0.000114,  37.457
   413.0,0.040911,0.024733,0.307561,0.000141,  37.463
   414.0,0.040126,0.024229,0.302038,0.000163,  37.461
   415.0,0.039255,0.023720,0.295296,0.000128,  37.472
   416.0,0.038424,0.023241,0.291733,0.000136,  37.465
   417.0,0.037704,0.022841,0.286610,0.000114,  37.465
   418.0,0.037213,0.022524,0.281623,0.000128,  37.466
   419.0,0.036624,0.022098,0.277226,0.000128,  37.466
   420.0,0.035729,0.021560,0.271243,0.000141,  37.468
   421.0,0.035053,0.021150,0.267313,0.000087,  37.467
   422.0,0.034276,0.020705,0.261402,0.000101,  37.465
   423.0,0.033788,0.020424,0.256497,0.000114,  37.468
   424.0,0.033308,0.020184,0.252845,0.000114,  37.462
   425.0,0.032484,0.019697,0.247456,0.000114,  37.462
   426.0,0.031810,0.019306,0.243247,0.000074,  37.463
   427.0,0.031226,0.018867,0.239812,0.000096,  37.456
   428.0,0.030684,0.018537,0.234509,0.000087,  37.460
   429.0,0.030206,0.018242,0.230858,0.000101,  37.459
   430.0,0.029500,0.017813,0.227013,0.000136,  37.466
   431.0,0.028859,0.017463,0.221415,0.000101,  37.471
   432.0,0.028234,0.017124,0.217637,0.000087,  37.473
   433.0,0.027688,0.016789,0.213060,0.000123,  37.477
   434.0,0.027308,0.016538,0.210414,0.000101,  37.481
   435.0,0.026803,0.016249,0.207080,0.000136,  37.487
   436.0,0.026250,0.015842,0.202027,0.000114,  37.488
   437.0,0.025740,0.015526,0.199131,0.000074,  37.489
   438.0,0.025137,0.015174,0.195033,0.000074,  37.492
   439.0,0.024717,0.014947,0.191514,0.000087,  37.486
   440.0,0.024262,0.014658,0.189085,0.000074,  37.494
   441.0,0.023624,0.014354,0.184651,0.000087,  37.487
   442.0,0.023169,0.014077,0.181024,0.000074,  37.493
   443.0,0.022644,0.013738,0.178484,0.000074,  37.494
   444.0,0.022313,0.013498,0.174627,0.000087,  37.496
   445.0,0.021972,0.013314,0.171700,0.000101,  37.501
   446.0,0.021481,0.012999,0.168415,0.000101,  37.508
   447.0,0.020990,0.012713,0.164546,0.000101,  37.515
   448.0,0.020491,0.012397,0.162514,0.000074,  37.517
   449.0,0.020085,0.012166,0.158967,0.000074,  37.526
   450.0,0.019806,0.012032,0.156283,0.000087,  37.524
   451.0,0.019346,0.011767,0.154107,0.000087,  37.522
   452.0,0.018864,0.011464,0.150650,0.000087,  37.520
   453.0,0.018558,0.011218,0.148507,0.000033,  37.521
   454.0,0.018114,0.010962,0.145076,0.000060,  37.514
   455.0,0.017836,0.010808,0.142254,0.000087,  37.504
   456.0,0.017556,0.010619,0.140189,0.000060,  37.492
   457.0,0.017078,0.010339,0.136901,0.000109,  37.490
   458.0,0.016680,0.010145,0.134545,0.000060,  37.488
   459.0,0.016289,0.009908,0.132140,0.000047,  37.486
   460.0,0.016012,0.009731,0.129876,0.000060,  37.486
   461.0,0.015752,0.009561,0.127858,0.000060,  37.493
   462.0,0.015386,0.009318,0.125600,0.000060,  37.498
   463.0,0.015036,0.009118,0.122668,0.000074,  37.512
   464.0,0.014676,0.008891,0.120607,0.000047,  37.507
   465.0,0.014373,0.008721,0.118077,0.000082,  37.489
   466.0,0.014176,0.008590,0.116317,0.000060,  37.471
   467.0,0.013871,0.008443,0.113959,0.000096,  37.454
   468.0,0.013531,0.008231,0.111913,0.000060,  37.450
   469.0,0.013259,0.008060,0.110477,0.000020,  37.428
   470.0,0.012965,0.007852,0.108024,0.000069,  37.404
   471.0,0.012740,0.007726,0.106174,0.000047,  37.397
   472.0,0.012495,0.007575,0.104783,0.000047,  37.387
   473.0,0.012147,0.007374,0.102295,0.000082,  37.394
   474.0,0.011884,0.007230,0.100347,0.000033,  37.384
   475.0,0.011598,0.007033,0.098371,0.000055,  37.378
   476.0,0.011397,0.006926,0.096408,0.000069,  37.378
   477.0,0.011202,0.006822,0.095165,0.000047,  37.377
   478.0,0.010975,0.006645,0.093368,0.000082,  37.378
   479.0,0.010720,0.006499,0.091359,0.000047,  37.389
   480.0,0.010445,0.006320,0.090120,0.000047,  37.373
   481.0,0.010218,0.006201,0.088314,0.000069,  37.383
   482.0,0.010069,0.006112,0.086989,0.000047,  37.384
   483.0,0.009826,0.005967,0.085611,0.000069,  37.382
   484.0,0.009572,0.005838,0.083638,0.000069,  37.393
   485.0,0.009368,0.005704,0.082759,0.000020,  37.390
   486.0,0.009163,0.005572,0.080953,0.000020,  37.389
   487.0,0.009044,0.005493,0.079260,0.000033,  37.393
   488.0,0.008894,0.005399,0.078155,0.000047,  37.393
   489.0,0.008649,0.005256,0.076545,0.000069,  37.395
   490.0,0.008446,0.005133,0.075504,0.000033,  37.385
   491.0,0.008247,0.005016,0.074136,0.000020,  37.383
   492.0,0.008112,0.004939,0.072719,0.000042,  37.381
   493.0,0.007950,0.004864,0.071777,0.000033,  37.374
   494.0,0.007747,0.004738,0.070649,0.000069,  37.356
   495.0,0.007572,0.004630,0.069249,0.000033,  37.349
   496.0,0.007392,0.004498,0.068058,0.000033,  37.349
   497.0,0.007261,0.004424,0.066817,0.000069,  37.347
   498.0,0.007166,0.004365,0.065815,0.000047,  37.341
   499.0,0.007003,0.004267,0.064774,0.000047,  37.336
   500.0,0.006831,0.004168,0.063369,0.000069,  37.351
   501.0,0.006665,0.004086,0.062752,-0.000007,  37.331
   502.0,0.006511,0.003993,0.061547,0.000042,  37.330
   503.0,0.006411,0.003925,0.060648,0.000020,  37.335
   504.0,0.006309,0.003853,0.059884,0.000033,  37.335
   505.0,0.006135,0.003734,0.057955,0.000055,  37.347
   506.0,0.005974,0.003660,0.057229,0.000020,  37.344
   507.0,0.005841,0.003561,0.056539,0.000033,  37.349
   508.0,0.005753,0.003514,0.055675,0.000055,  37.357
   509.0,0.005651,0.003470,0.054971,0.000020,  37.362
   510.0,0.005507,0.003388,0.053971,0.000055,  37.363
   511.0,0.005399,0.003313,0.053200,0.000020,  37.358
   512.0,0.005265,0.003218,0.052551,0.000020,  37.362
   513.0,0.005179,0.003164,0.051472,0.000077,  37.365
   514.0,0.005095,0.003126,0.048212,0.000091,  37.368
   515.0,0.004978,0.003058,0.049413,0.000020,  37.364
   516.0,0.004855,0.002989,0.048944,0.000028,  37.377
   517.0,0.004732,0.002899,0.048597,-0.000007,  37.365
   518.0,0.004624,0.002843,0.047667,0.000042,  37.366
   519.0,0.004558,0.002809,0.047073,0.000020,  37.366
   520.0,0.004464,0.002764,0.046587,0.000033,  37.367
   521.0,0.004377,0.002698,0.045548,0.000055,  37.375
   522.0,0.004269,0.002634,0.045056,0.000020,  37.363
   523.0,0.004176,0.002578,0.044075,0.000020,  37.364
   524.0,0.004127,0.002543,0.043581,0.000055,  37.362
   525.0,0.004049,0.002501,0.043102,0.000020,  37.367
   526.0,0.003942,0.002436,0.042318,0.000042,  37.369
   527.0,0.003835,0.002385,0.041786,0.000064,  37.374
   528.0,0.003735,0.002307,0.041095,-0.000007,  37.367
   529.0,0.003692,0.002279,0.040497,0.000028,  37.343
   530.0,0.003653,0.002255,0.039977,0.000020,  37.345
   531.0,0.003577,0.002206,0.039486,0.000020,  37.345
   532.0,0.003493,0.002153,0.038851,0.000042,  37.378
   533.0,0.003388,0.002097,0.038660,-0.000034,  37.363
   534.0,0.003332,0.002053,0.037941,-0.000007,  37.351
   535.0,0.003287,0.002034,0.037438,0.000042,  37.349
   536.0,0.003219,0.001998,0.037038,0.000020,  37.355
   537.0,0.003138,0.001953,0.036401,0.000042,  37.367
   538.0,0.003057,0.001902,0.035875,-0.000007,  37.375
   539.0,0.003000,0.001861,0.035331,0.000006,  37.377
   540.0,0.002965,0.001842,0.034837,0.000042,  37.388
   541.0,0.002919,0.001814,0.034440,0.000064,  37.394
   542.0,0.002854,0.001750,0.033874,0.000042,  37.401
   543.0,0.002779,0.001722,0.033424,0.000037,  37.409
   544.0,0.002707,0.001683,0.033041,-0.000021,  37.406
   545.0,0.002670,0.001662,0.032622,0.000028,  37.415
   546.0,0.002635,0.001641,0.032353,-0.000007,  37.423
   547.0,0.002585,0.001603,0.031891,0.000006,  37.429
   548.0,0.002523,0.001571,0.031275,0.000028,  37.449
   549.0,0.002451,0.001522,0.030940,-0.000007,  37.437
   550.0,0.002422,0.001500,0.030654,0.000028,  37.441
   551.0,0.002390,0.001493,0.030317,0.000064,  37.441
   552.0,0.002350,0.001470,0.029887,0.000006,  37.443
   553.0,0.002289,0.001434,0.029526,0.000042,  37.447
   554.0,0.002225,0.001392,0.029353,-0.000007,  37.447
   555.0,0.002198,0.001375,0.028948,-0.000007,  37.442
   556.0,0.002172,0.001356,0.028516,0.000028,  37.448
   557.0,0.002145,0.001346,0.028239,-0.000007,  37.447
   558.0,0.002106,0.001320,0.027721,0.000006,  37.446
   559.0,0.002037,0.001274,0.027543,0.000037,  37.450
   560.0,0.001989,0.001243,0.027267,0.000064,  37.449
   561.0,0.001979,0.001239,0.026869,0.000077,  37.447
   562.0,0.001963,0.001232,0.026596,0.000099,  37.446
   563.0,0.001920,0.001209,0.026344,0.000055,  37.443
   564.0,0.001883,0.001183,0.025987,0.000064,  37.452
   565.0,0.001830,0.001147,0.025868,0.000023,  37.440
   566.0,0.001815,0.001139,0.025479,0.000001,  37.443
   567.0,0.001793,0.001129,0.025125,0.000050,  37.446
   568.0,0.001756,0.001106,0.024987,0.000050,  37.444
   569.0,0.001714,0.001078,0.024486,0.000015,  37.458
   570.0,0.001654,0.001041,0.024338,0.000050,  37.459
   571.0,0.001632,0.001031,0.024024,-0.000021,  37.464
   572.0,0.001622,0.001018,0.023735,0.000015,  37.469
   573.0,0.001603,0.001012,0.023540,-0.000007,  37.472
   574.0,0.001574,0.000984,0.023208,0.000006,  37.477
   575.0,0.001524,0.000959,0.023074,-0.000012,  37.477
   576.0,0.001491,0.000935,0.022822,-0.000034,  37.482
   577.0,0.001472,0.000924,0.022523,-0.000007,  37.486
   578.0,0.001459,0.000916,0.022339,0.000028,  37.487
   579.0,0.001424,0.000901,0.022224,0.000006,  37.492
   580.0,0.001393,0.000899,0.021935,0.000028,  37.497
   581.0,0.001349,0.000865,0.021723,0.000015,  37.495
   582.0,0.001353,0.000863,0.021359,0.000015,  37.499
   583.0,0.001345,0.000851,0.021301,0.000015,  37.501
   584.0,0.001328,0.000842,0.021102,0.000020,  37.502
   585.0,0.001311,0.000825,0.020788,0.000020,  37.507
   586.0,0.001260,0.000805,0.019993,0.000028,  37.501
   587.0,0.001252,0.000799,0.019937,0.000006,  37.501
   588.0,0.001230,0.000792,0.020172,0.000028,  37.497
   589.0,0.001225,0.000787,0.020260,0.000020,  37.503
   590.0,0.001197,0.000777,0.020054,0.000020,  37.505
   591.0,0.001161,0.000747,0.019983,0.000015,  37.504
   592.0,0.001151,0.000735,0.019787,0.000028,  37.511
   593.0,0.001140,0.000733,0.019524,0.000015,  37.516
   594.0,0.001147,0.000739,0.019466,0.000028,  37.536
   595.0,0.001128,0.000734,0.019069,0.000006,  37.541
   596.0,0.001099,0.000716,0.018835,0.000042,  37.548
   597.0,0.001080,0.000694,0.018969,-0.000034,  37.557
   598.0,0.001075,0.000693,0.018693,-0.000034,  37.563
   599.0,0.001065,0.000687,0.018490,0.000028,  37.568
   600.0,0.001043,0.000681,0.018430,0.000006,  37.571
   601.0,0.001019,0.000670,0.018136,0.000006,  37.575
   602.0,0.000972,0.000629,0.018063,0.000001,  37.583
   603.0,0.000968,0.000639,0.017747,-0.000007,  37.584
   604.0,0.000980,0.000633,0.017567,0.000001,  37.600
   605.0,0.000967,0.000628,0.017360,0.000015,  37.601
   606.0,0.000941,0.000618,0.017049,-0.000021,  37.605
   607.0,0.000912,0.000581,0.017035,-0.000039,  37.604
   608.0,0.000896,0.000565,0.016738,-0.000061,  37.607
   609.0,0.000883,0.000550,0.014459,-0.000048,  37.606
   610.0,0.000864,0.000550,0.015578,0.000001,  37.607
   611.0,0.000843,0.000535,0.015984,-0.000034,  37.609
   612.0,0.000806,0.000512,0.016135,-0.000034,  37.604
   613.0,0.000783,0.000480,0.016059,0.000015,  37.605
   614.0,0.000776,0.000475,0.015759,-0.000034,  37.605
   615.0,0.000777,0.000489,0.015861,0.000015,  37.603
   616.0,0.000783,0.000492,0.015791,-0.000007,  37.598
   617.0,0.000775,0.000490,0.015672,-0.000007,  37.592
   618.0,0.000760,0.000474,0.015667,0.000001,  37.577
   619.0,0.000768,0.000495,0.015573,-0.000007,  37.557
   620.0,0.000776,0.000508,0.015521,0.000006,  37.558
   621.0,0.000782,0.000505,0.015439,0.000028,  37.550
   622.0,0.000773,0.000512,0.015233,0.000006,  37.552
   623.0,0.000734,0.000476,0.015232,0.000001,  37.552
   624.0,0.000725,0.000476,0.014189,-0.000021,  37.546
   625.0,0.000747,0.000483,0.014515,-0.000007,  37.549
   626.0,0.000744,0.000488,0.014746,0.000042,  37.550
   627.0,0.000731,0.000484,0.014747,0.000020,  37.552
   628.0,0.000695,0.000472,0.014602,0.000028,  37.554
   629.0,0.000694,0.000461,0.014649,0.000050,  37.543
   630.0,0.000698,0.000467,0.014440,0.000006,  37.536
   631.0,0.000693,0.000462,0.014360,0.000042,  37.526
   632.0,0.000700,0.000461,0.014118,0.000020,  37.519
   633.0,0.000669,0.000452,0.013914,-0.000007,  37.520
   634.0,0.000633,0.000412,0.013869,0.000001,  37.514
   635.0,0.000631,0.000425,0.013779,0.000050,  37.505
   636.0,0.000634,0.000431,0.013743,0.000028,  37.499
   637.0,0.000637,0.000427,0.013543,0.000064,  37.486
   638.0,0.000624,0.000421,0.013480,-0.000007,  37.489
   639.0,0.000602,0.000407,0.013486,-0.000026,  37.500
   640.0,0.000608,0.000397,0.013253,-0.000034,  37.489
   641.0,0.000608,0.000402,0.013087,-0.000021,  37.491
   642.0,0.000611,0.000401,0.013154,0.000001,  37.494
   643.0,0.000605,0.000403,0.013167,-0.000007,  37.496
   644.0,0.000569,0.000390,0.012905,-0.000021,  37.512
   645.0,0.000561,0.000379,0.012944,0.000015,  37.514
   646.0,0.000575,0.000390,0.012767,-0.000007,  37.511
   647.0,0.000574,0.000384,0.012799,0.000015,  37.509
   648.0,0.000577,0.000388,0.012691,0.000086,  37.511
   649.0,0.000567,0.000382,0.012607,0.000015,  37.517
   650.0,0.000548,0.000372,0.012543,0.000037,  37.517
   651.0,0.000550,0.000376,0.012318,0.000050,  37.517
   652.0,0.000547,0.000380,0.012318,0.000015,  37.527
   653.0,0.000550,0.000376,0.012181,0.000064,  37.537
   654.0,0.000548,0.000382,0.012052,0.000064,  37.544
   655.0,0.000513,0.000340,0.012029,-0.000012,  37.552
   656.0,0.000516,0.000337,0.011932,0.000015,  37.558
   657.0,0.000526,0.000351,0.011973,-0.000007,  37.564
   658.0,0.000524,0.000354,0.011849,0.000015,  37.573
   659.0,0.000528,0.000364,0.011769,-0.000007,  37.579
   660.0,0.000509,0.000354,0.011769,-0.000021,  37.596
   661.0,0.000497,0.000343,0.011705,0.000015,  37.597
   662.0,0.000511,0.000351,0.011612,-0.000007,  37.606
   663.0,0.000500,0.000345,0.011574,0.000028,  37.607
   664.0,0.000509,0.000345,0.011459,0.000064,  37.615
   665.0,0.000485,0.000341,0.011382,0.000028,  37.619
   666.0,0.000464,0.000320,0.011428,0.000001,  37.627
   667.0,0.000483,0.000334,0.011305,-0.000007,  37.634
   668.0,0.000494,0.000335,0.011171,0.000020,  37.643
   669.0,0.000494,0.000346,0.009789,0.000028,  37.648
   670.0,0.000477,0.000343,0.009994,-0.000007,  37.667
   671.0,0.000461,0.000325,0.010755,-0.000048,  37.675
   672.0,0.000463,0.000327,0.010646,0.000001,  37.682
   673.0,0.000469,0.000334,0.010700,-0.000007,  37.686
   674.0,0.000468,0.000335,0.010782,0.000028,  37.688
   675.0,0.000475,0.000338,0.010625,0.000006,  37.699
   676.0,0.000446,0.000326,0.010503,0.000006,  37.701
   677.0,0.000449,0.000314,0.010335,0.000028,  37.710
   678.0,0.000456,0.000328,0.010349,-0.000007,  37.714
   679.0,0.000458,0.000323,0.010359,-0.000007,  37.718
   680.0,0.000457,0.000323,0.010166,0.000050,  37.731
   681.0,0.000440,0.000316,0.010001,0.000015,  37.723
   682.0,0.000434,0.000298,0.010041,0.000001,  37.738
   683.0,0.000427,0.000300,0.009964,-0.000021,  37.739
   684.0,0.000420,0.000303,0.009870,0.000006,  37.734
   685.0,0.000421,0.000301,0.009817,-0.000007,  37.738
   686.0,0.000415,0.000300,0.009707,-0.000007,  37.728
   687.0,0.000389,0.000279,0.009717,0.000006,  37.725
   688.0,0.000400,0.000269,0.009692,-0.000007,  37.718
   689.0,0.000413,0.000290,0.009569,-0.000007,  37.714
   690.0,0.000393,0.000287,0.009518,-0.000021,  37.709
   691.0,0.000393,0.000287,0.008563,0.000015,  37.705
   692.0,0.000372,0.000273,0.008760,-0.000021,  37.701
   693.0,0.000386,0.000272,0.009149,0.000015,  37.689
   694.0,0.000391,0.000289,0.009190,-0.000007,  37.687
   695.0,0.000391,0.000280,0.009059,-0.000021,  37.686
   696.0,0.000386,0.000285,0.009038,0.000015,  37.686
   697.0,0.000368,0.000274,0.009044,-0.000021,  37.682
   698.0,0.000341,0.000243,0.008985,-0.000034,  37.684
   699.0,0.000369,0.000268,0.008943,0.000015,  37.685
   700.0,0.000369,0.000265,0.008903,-0.000007,  37.689
   701.0,0.000372,0.000269,0.008895,0.000028,  37.680
   702.0,0.000364,0.000270,0.008897,-0.000007,  37.684
   703.0,0.000348,0.000246,0.008956,-0.000061,  37.685
   704.0,0.000354,0.000241,0.008992,0.000001,  37.697
   705.0,0.000361,0.000250,0.008853,-0.000007,  37.697
   706.0,0.000369,0.000256,0.008657,-0.000021,  37.700
   707.0,0.000367,0.000263,0.008575,0.000028,  37.694
   708.0,0.000332,0.000236,0.008428,-0.000007,  37.693
   709.0,0.000331,0.000245,0.008369,0.000015,  37.686
   710.0,0.000354,0.000257,0.008260,-0.000007,  37.687
   711.0,0.000362,0.000260,0.008009,-0.000021,  37.672
   712.0,0.000354,0.000252,0.008040,0.000001,  37.674
   713.0,0.000341,0.000243,0.008074,-0.000048,  37.675
   714.0,0.000325,0.000225,0.008079,-0.000075,  37.678
   715.0,0.000320,0.000222,0.007945,0.000001,  37.687
   716.0,0.000323,0.000221,0.007939,-0.000021,  37.689
   717.0,0.000323,0.000228,0.007834,0.000015,  37.689
   718.0,0.000320,0.000227,0.007796,-0.000007,  37.687
   719.0,0.000281,0.000209,0.007798,-0.000007,  37.677
   720.0,0.000301,0.000205,0.007747,0.000037,  37.661
   721.0,0.000313,0.000226,0.007726,0.000028,  37.649
   722.0,0.000327,0.000229,0.007623,0.000006,  37.648
   723.0,0.000325,0.000230,0.007625,0.000042,  37.640
   724.0,0.000300,0.000219,0.007721,-0.000007,  37.633
   725.0,0.000317,0.000226,0.007641,0.000015,  37.627
   726.0,0.000330,0.000236,0.007546,0.000015,  37.625
   727.0,0.000326,0.000239,0.007562,0.000006,  37.618
   728.0,0.000330,0.000238,0.007477,0.000028,  37.619
   729.0,0.000314,0.000232,0.007307,-0.000007,  37.618
   730.0,0.000299,0.000213,0.007194,-0.000007,  37.617
   731.0,0.000311,0.000229,0.007268,0.000028,  37.617
   732.0,0.000316,0.000235,0.007273,0.000006,  37.614
   733.0,0.000322,0.000233,0.007279,0.000020,  37.620
   734.0,0.000309,0.000237,0.007231,0.000042,  37.619
   735.0,0.000287,0.000221,0.007290,-0.000034,  37.619
   736.0,0.000301,0.000228,0.007188,0.000015,  37.620
   737.0,0.000305,0.000234,0.007107,0.000006,  37.623
   738.0,0.000304,0.000234,0.007067,0.000020,  37.626
   739.0,0.000313,0.000231,0.006896,0.000042,  37.631
   740.0,0.000281,0.000215,0.006938,-0.000007,  37.630
   741.0,0.000293,0.000213,0.006851,0.000006,  37.629
   742.0,0.000298,0.000225,0.006848,0.000028,  37.630
   743.0,0.000295,0.000225,0.006853,0.000006,  37.632
   744.0,0.000281,0.000225,0.006752,0.000028,  37.634
   745.0,0.000271,0.000217,0.006642,-0.000048,  37.642
   746.0,0.000270,0.000210,0.006665,-0.000048,  37.646
   747.0,0.000278,0.000211,0.006417,0.000015,  37.650
   748.0,0.000284,0.000219,0.006406,-0.000007,  37.656
   749.0,0.000289,0.000224,0.006523,-0.000007,  37.660
   750.0,0.000281,0.000214,0.006519,0.000015,  37.665
   751.0,0.000260,0.000200,0.006475,-0.000034,  37.667
   752.0,0.000265,0.000198,0.006206,0.000015,  37.668
   753.0,0.000275,0.000211,0.006307,0.000006,  37.673
   754.0,0.000278,0.000210,0.006207,0.000020,  37.676
   755.0,0.000289,0.000213,0.006143,0.000055,  37.677
   756.0,0.000271,0.000205,0.006293,-0.000007,  37.695
   757.0,0.000275,0.000207,0.006140,-0.000007,  37.702
   758.0,0.000287,0.000219,0.006209,0.000006,  37.705
   759.0,0.000284,0.000216,0.006152,0.000020,  37.709
   760.0,0.000278,0.000215,0.006002,0.000006,  37.717
   761.0,0.000263,0.000201,0.006129,-0.000007,  37.721
   762.0,0.000260,0.000186,0.006079,0.000006,  37.726
   763.0,0.000283,0.000200,0.005978,0.000028,  37.731
   764.0,0.000279,0.000212,0.006122,-0.000007,  37.736
   765.0,0.000290,0.000208,0.006016,0.000020,  37.751
   766.0,0.000277,0.000212,0.005874,0.000042,  37.751
   767.0,0.000266,0.000203,0.005975,-0.000007,  37.762
   768.0,0.000273,0.000205,0.005832,0.000006,  37.773
   769.0,0.000279,0.000218,0.005627,0.000042,  37.775
   770.0,0.000277,0.000215,0.005726,0.000006,  37.783
   771.0,0.000264,0.000215,0.005559,0.000064,  37.780
   772.0,0.000232,0.000188,0.005633,-0.000007,  37.790
   773.0,0.000245,0.000194,0.005489,-0.000021,  37.794
   774.0,0.000257,0.000195,0.005414,0.000015,  37.801
   775.0,0.000253,0.000195,0.005379,-0.000007,  37.805
   776.0,0.000248,0.000197,0.005380,-0.000007,  37.815
   777.0,0.000233,0.000188,0.005438,-0.000048,  37.814
   778.0,0.000240,0.000184,0.005119,-0.000021,  37.823
   779.0,0.000248,0.000186,0.005165,-0.000007,  37.829
   780.0,0.000257,0.000195,0.005214,-0.000007,  37.830
   781.0,0.000259,0.000188,0.005285,0.000006,  37.837
   782.0,0.000244,0.000196,0.005113,-0.000007,  37.829
   783.0,0.000214,0.000173,0.005075,0.000006,  37.844
   784.0,0.000227,0.000174,0.005125,0.000020,  37.851
   785.0,0.000241,0.000188,0.005028,0.000020,  37.856
   786.0,0.000243,0.000189,0.004929,0.000020,  37.856
   787.0,0.000242,0.000194,0.004706,0.000020,  37.853
   788.0,0.000235,0.000179,0.004934,0.000020,  37.865
   789.0,0.000240,0.000184,0.004915,0.000020,  37.876
   790.0,0.000249,0.000198,0.004832,0.000020,  37.879
   791.0,0.000240,0.000197,0.004681,0.000020,  37.871
   792.0,0.000245,0.000197,0.004797,0.000033,  37.870
   793.0,0.000230,0.000185,0.004868,-0.000007,  37.865
   794.0,0.000222,0.000175,0.004795,-0.000007,  37.872
   795.0,0.000233,0.000177,0.004688,0.000020,  37.875
   796.0,0.000233,0.000184,0.004442,0.000006,  37.876
   797.0,0.000233,0.000183,0.004559,0.000033,  37.875
   798.0,0.000223,0.000179,0.004453,0.000006,  37.861
   799.0,0.000212,0.000171,0.004521,-0.000007,  37.873
   800.0,0.000216,0.000171,0.004478,0.000020,  37.882
   801.0,0.000228,0.000178,0.004508,0.000028,  37.884
   802.0,0.000227,0.000185,0.004557,0.000020,  37.887
   803.0,0.000222,0.000177,0.004460,0.000055,  37.879
   804.0,0.000196,0.000154,0.004528,0.000042,  37.880
   805.0,0.000208,0.000168,0.004405,0.000033,  37.874
   806.0,0.000220,0.000173,0.004392,0.000055,  37.866
   807.0,0.000228,0.000181,0.004379,0.000020,  37.862
   808.0,0.000221,0.000180,0.004319,0.000033,  37.851
   809.0,0.000206,0.000164,0.004412,-0.000021,  37.851
   810.0,0.000214,0.000173,0.004376,0.000006,  37.850
   811.0,0.000224,0.000184,0.004273,0.000020,  37.851
   812.0,0.000233,0.000187,0.004298,0.000055,  37.845
   813.0,0.000224,0.000181,0.004181,0.000020,  37.838
   814.0,0.000209,0.000178,0.004099,0.000042,  37.830
   815.0,0.000193,0.000166,0.004192,0.000020,  37.830
   816.0,0.000211,0.000168,0.004155,0.000020,  37.814
   817.0,0.000220,0.000176,0.004119,0.000042,  37.815
   818.0,0.000219,0.000169,0.004074,0.000020,  37.811
   819.0,0.000219,0.000179,0.003969,0.000006,  37.803
   820.0,0.000209,0.000169,0.004045,0.000028,  37.809
   821.0,0.000211,0.000165,0.003845,0.000006,  37.805
   822.0,0.000214,0.000180,0.003846,0.000006,  37.805
   823.0,0.000216,0.000175,0.003875,0.000020,  37.803
   824.0,0.000208,0.000172,0.003693,0.000006,  37.802
   825.0,0.000197,0.000158,0.002266,-0.000007,  37.799
   826.0,0.000188,0.000150,0.003266,-0.000007,  37.798
   827.0,0.000194,0.000154,0.003453,-0.000007,  37.783
   828.0,0.000201,0.000171,0.003716,0.000028,  37.771
   829.0,0.000190,0.000170,0.003618,0.000006,  37.751
   830.0,0.000166,0.000153,0.003589,0.000015,  37.744
   831.0,0.000171,0.000133,0.003510,-0.000007,  37.713
   832.0,0.000175,0.000141,0.003470,-0.000007,  37.701
   833.0,0.000186,0.000136,0.003397,0.000028,  37.693
   834.0,0.000186,0.000146,0.003321,-0.000007,  37.677
   835.0,0.000184,0.000148,0.003243,-0.000007,  37.676
   836.0,0.000152,0.000117,0.003392,0.000001,  37.660
   837.0,0.000163,0.000133,0.003275,-0.000007,  37.641
   838.0,0.000177,0.000139,0.003257,0.000015,  37.640
   839.0,0.000181,0.000140,0.003237,-0.000007,  37.638
   840.0,0.000178,0.000143,0.003261,0.000006,  37.641
   841.0,0.000165,0.000139,0.003224,-0.000048,  37.640
   842.0,0.000175,0.000137,0.003237,-0.000021,  37.640
   843.0,0.000177,0.000148,0.003253,-0.000021,  37.644
   844.0,0.000186,0.000157,0.003093,-0.000021,  37.648
   845.0,0.000189,0.000161,0.003110,-0.000007,  37.655
   846.0,0.000153,0.000153,0.003178,-0.000007,  37.662
   847.0,0.000170,0.000143,0.003048,-0.000007,  37.666
   848.0,0.000186,0.000150,0.002959,0.000006,  37.669
   849.0,0.000186,0.000161,0.003010,0.000006,  37.678
   850.0,0.000187,0.000162,0.002948,0.000020,  37.697
   851.0,0.000179,0.000163,0.002862,-0.000007,  37.701
   852.0,0.000178,0.000141,0.003045,0.000015,  37.708
   853.0,0.000177,0.000150,0.002702,-0.000007,  37.717
   854.0,0.000182,0.000156,0.002755,0.000042,  37.724
   855.0,0.000196,0.000156,0.002871,0.000020,  37.733
   856.0,0.000200,0.000163,0.002850,0.000020,  37.740
   857.0,0.000168,0.000154,0.002856,0.000028,  37.747
   858.0,0.000176,0.000152,0.003118,0.000006,  37.760
   859.0,0.000175,0.000155,0.002851,0.000020,  37.772
   860.0,0.000194,0.000168,0.002805,0.000006,  37.784
   861.0,0.000197,0.000167,0.002620,0.000020,  37.789
   862.0,0.000170,0.000152,0.002737,-0.000021,  37.790
   863.0,0.000167,0.000143,0.002648,-0.000021,  37.804
   864.0,0.000172,0.000137,0.002549,0.000020,  37.813
   865.0,0.000178,0.000145,0.002536,0.000020,  37.822
   866.0,0.000189,0.000148,0.002431,0.000020,  37.820
   867.0,0.000174,0.000144,0.002423,0.000006,  37.823
   868.0,0.000160,0.000119,0.002589,-0.000007,  37.844
   869.0,0.000176,0.000147,0.002401,0.000020,  37.852
   870.0,0.000186,0.000147,0.002474,0.000006,  37.858
   871.0,0.000194,0.000160,0.002540,0.000006,  37.855
   872.0,0.000178,0.000164,0.002537,0.000006,  37.862
   873.0,0.000171,0.000148,0.002644,0.000015,  37.868
   874.0,0.000186,0.000160,0.002583,0.000006,  37.875
   875.0,0.000191,0.000162,0.000421,0.000020,  37.878
   876.0,0.000203,0.000170,0.001663,0.000042,  37.877
   877.0,0.000195,0.000168,0.001949,-0.000007,  37.876
   878.0,0.000157,0.000151,0.002297,-0.000021,  37.865
   879.0,0.000163,0.000139,0.002268,0.000015,  37.865
   880.0,0.000171,0.000140,0.002245,0.000006,  37.863
   881.0,0.000176,0.000146,0.002324,0.000042,  37.862
   882.0,0.000178,0.000154,0.002193,0.000020,  37.861
   883.0,0.000167,0.000151,0.002277,0.000006,  37.845
   884.0,0.000165,0.000135,0.002421,-0.000021,  37.852
   885.0,0.000176,0.000144,0.002276,0.000006,  37.850
   886.0,0.000172,0.000157,0.002295,0.000006,  37.846
   887.0,0.000181,0.000154,0.002291,0.000055,  37.842
   888.0,0.000176,0.000152,0.002300,0.000020,  37.836
   889.0,0.000143,0.000136,0.002328,0.000042,  37.834
   890.0,0.000173,0.000144,0.002268,0.000020,  37.832
   891.0,0.000173,0.000156,0.002219,0.000020,  37.827
   892.0,0.000189,0.000162,0.002211,0.000042,  37.830
   893.0,0.000189,0.000159,0.002210,0.000020,  37.823
   894.0,0.000180,0.000150,0.002310,0.000020,  37.821
   895.0,0.000184,0.000154,0.002252,0.000020,  37.825
   896.0,0.000197,0.000171,0.002071,0.000020,  37.822
   897.0,0.000191,0.000168,0.001936,0.000055,  37.819
   898.0,0.000189,0.000160,0.002055,0.000020,  37.820
   899.0,0.000176,0.000155,0.002124,0.000020,  37.816
   900.0,0.000159,0.000141,0.002041,0.000042,  37.817
   901.0,0.000158,0.000143,0.002047,0.000020,  37.816
   902.0,0.000169,0.000152,0.002064,0.000033,  37.818
   903.0,0.000180,0.000154,0.001975,0.000020,  37.816
   904.0,0.000166,0.000154,0.001915,0.000020,  37.814
   905.0,0.000150,0.000136,0.001550,-0.000034,  37.822
   906.0,0.000170,0.000140,0.001612,-0.000021,  37.823
   907.0,0.000169,0.000155,0.001751,-0.000007,  37.821
   908.0,0.000172,0.000183,0.001747,-0.000007,  37.822
   909.0,0.000166,0.000151,0.001698,-0.000007,  37.822
   910.0,0.000115,0.000115,0.001766,-0.000021,  37.820
   911.0,0.000122,0.000104,0.001428,-0.000021,  37.818
   912.0,0.000124,0.000110,0.001474,-0.000007,  37.816
   913.0,0.000129,0.000115,0.001452,0.000015,  37.809
   914.0,0.000133,0.000112,0.001378,-0.000021,  37.802
   915.0,0.000117,0.000101,0.001422,-0.000021,  37.801
   916.0,0.000107,0.000089,0.001459,-0.000048,  37.795
   917.0,0.000111,0.000096,0.001392,-0.000021,  37.797
   918.0,0.000115,0.000104,0.001396,0.000020,  37.782
   919.0,0.000120,0.000101,0.001227,0.000006,  37.783
   920.0,0.000106,0.000106,0.001319,0.000006,  37.780
   921.0,0.000091,0.000084,0.001328,-0.000021,  37.779
   922.0,0.000116,0.000099,0.001122,-0.000007,  37.781
   923.0,0.000128,0.000111,0.001249,0.000006,  37.779
   924.0,0.000122,0.000113,0.001207,-0.000007,  37.782
   925.0,0.000128,0.000115,0.001178,-0.000007,  37.780
   926.0,0.000106,0.000101,0.001335,-0.000034,  37.780
   927.0,0.000118,0.000105,0.001351,-0.000034,  37.778
   928.0,0.000134,0.000119,0.001375,-0.000007,  37.782
   929.0,0.000133,0.000119,0.001335,-0.000021,  37.780
   930.0,0.000143,0.000126,0.001367,-0.000021,  37.778
   931.0,0.000129,0.000132,0.001296,-0.000021,  37.774
   932.0,0.000127,0.000122,0.001361,-0.000021,  37.772
   933.0,0.000138,0.000128,0.001308,-0.000007,  37.773
   934.0,0.000135,0.000123,0.001323,0.000006,  37.767
   935.0,0.000149,0.000131,0.001333,0.000006,  37.764
   936.0,0.000147,0.000138,0.001342,0.000020,  37.764
   937.0,0.000135,0.000121,0.001406,0.000020,  37.762
   938.0,0.000152,0.000142,0.001307,0.000006,  37.764
   939.0,0.000155,0.000142,0.001351,0.000006,  37.763
   940.0,0.000157,0.000153,0.001348,0.000020,  37.766
   941.0,0.000165,0.000147,0.001176,0.000020,  37.764
   942.0,0.000127,0.000124,0.001020,-0.000021,  37.772
   943.0,0.000138,0.000134,0.000911,-0.000007,  37.770
   944.0,0.000140,0.000137,0.001031,-0.000007,  37.771
   945.0,0.000150,0.000147,0.001008,0.000006,  37.773
   946.0,0.000157,0.000145,0.000975,-0.000007,  37.777
   947.0,0.000129,0.000120,0.000582,-0.000048,  37.776
   948.0,0.000120,0.000108,0.000870,-0.000026,  37.780
   949.0,0.000119,0.000109,0.000927,-0.000021,  37.783
   950.0,0.000113,0.000106,0.000958,-0.000021,  37.787
   951.0,0.000117,0.000104,0.000894,0.000028,  37.789
   952.0,0.000100,0.000108,0.000616,-0.000007,  37.786
   953.0,0.000087,0.000085,0.000158,-0.000021,  37.788
   954.0,0.000109,0.000096,0.000602,0.000015,  37.792
   955.0,0.000113,0.000100,0.000779,-0.000007,  37.806
   956.0,0.000113,0.000106,0.000855,0.000015,  37.803
   957.0,0.000128,0.000119,0.000859,-0.000007,  37.808
   958.0,0.000118,0.000111,0.000985,-0.000034,  37.813
   959.0,0.000120,0.000113,0.000959,0.000001,  37.819
   960.0,0.000119,0.000108,0.000792,-0.000007,  37.819
   961.0,0.000121,0.000109,0.000910,0.000006,  37.827
   962.0,0.000129,0.000117,0.000959,0.000028,  37.831
   963.0,0.000113,0.000110,0.000955,-0.000007,  37.830
   964.0,0.000119,0.000118,0.001145,0.000006,  37.838
   965.0,0.000144,0.000136,0.001277,0.000042,  37.842
   966.0,0.000135,0.000138,0.001081,0.000020,  37.847
   967.0,0.000151,0.000144,0.000880,0.000020,  37.850
   968.0,0.000135,0.000137,0.000880,0.000020,  37.852
   969.0,0.000132,0.000120,0.000920,0.000020,  37.858
   970.0,0.000149,0.000135,0.000719,0.000006,  37.875
   971.0,0.000151,0.000146,0.000763,-0.000007,  37.883
   972.0,0.000150,0.000141,0.000763,0.000020,  37.886
   973.0,0.000151,0.000146,0.000752,0.000020,  37.892
   974.0,0.000119,0.000115,0.000818,-0.000021,  37.897
   975.0,0.000125,0.000113,0.000777,-0.000007,  37.902
   976.0,0.000127,0.000114,0.000714,0.000020,  37.903
   977.0,0.000133,0.000115,0.000681,0.000020,  37.904
   978.0,0.000124,0.000116,0.000651,0.000006,  37.904
   979.0,0.000111,0.000105,0.000749,-0.000007,  37.895
   980.0,0.000111,0.000108,0.000793,-0.000021,  37.900
   981.0,0.000136,0.000119,0.000683,0.000015,  37.896
   982.0,0.000127,0.000117,0.000629,-0.000007,  37.898
   983.0,0.000127,0.000125,0.000590,0.000015,  37.894
   984.0,0.000111,0.000122,0.000622,-0.000007,  37.886
   985.0,0.000099,0.000104,0.000703,-0.000021,  37.884
   986.0,0.000127,0.000108,0.000637,0.000015,  37.883
   987.0,0.000135,0.000119,0.000669,-0.000007,  37.882
   988.0,0.000128,0.000124,0.000686,0.000020,  37.885
   989.0,0.000129,0.000132,0.000524,0.000042,  37.880
   990.0,0.000113,0.000121,0.000678,-0.000034,  37.884
   991.0,0.000121,0.000118,0.000644,0.000015,  37.882
   992.0,0.000127,0.000121,0.000585,-0.000007,  37.881
   993.0,0.000129,0.000118,0.000368,0.000006,  37.880
   994.0,0.000135,0.000131,0.000393,0.000028,  37.869
   995.0,0.000111,0.000116,0.000596,-0.000007,  37.861
   996.0,0.000108,0.000107,0.000495,0.000006,  37.858
   997.0,0.000134,0.000123,0.000542,0.000028,  37.861
   998.0,0.000129,0.000128,0.000519,0.000006,  37.856
   999.0,0.000126,0.000127,0.000510,0.000042,  37.853
  1000.0,0.000119,0.000126,0.000525,0.000006,  37.843
  1001.0,0.000111,0.000111,0.000497,0.000006,  37.843
  1002.0,0.000121,0.000114,0.000439,0.000028,  37.836
  1003.0,0.000127,0.000120,0.000430,-0.000007,  37.837
  1004.0,0.000127,0.000122,0.000411,0.000020,  37.818
  1005.0,0.000133,0.000123,0.000433,0.000042,  37.822
  1006.0,0.000113,0.000098,0.000468,-0.000007,  37.815
  1007.0,0.000110,0.000102,0.000315,0.000028,  37.810
  1008.0,0.000129,0.000109,0.000366,0.000015,  37.808
  1009.0,0.000129,0.000113,0.000376,-0.000021,  37.797
  1010.0,0.000129,0.000110,0.000409,0.000028,  37.784
  1011.0,0.000108,0.000101,0.000335,-0.000007,  37.781
  1012.0,0.000105,0.000108,0.000440,-0.000007,  37.774
  1013.0,0.000118,0.000112,0.000454,0.000028,  37.770
  1014.0,0.000117,0.000125,0.000458,-0.000007,  37.763
  1015.0,0.000128,0.000133,0.000476,0.000006,  37.757
  1016.0,0.000111,0.000129,0.000436,0.000028,  37.757
  1017.0,0.000096,0.000105,0.000436,-0.000007,  37.738
  1018.0,0.000110,0.000103,0.000383,0.000028,  37.733
  1019.0,0.000119,0.000124,0.000378,-0.000007,  37.728
  1020.0,0.000112,0.000127,0.000302,0.000006,  37.727
  1021.0,0.000118,0.000121,0.000334,0.000028,  37.730
  1022.0,0.000102,0.000118,0.000466,-0.000034,  37.727
  1023.0,0.000110,0.000102,0.000372,0.000001,  37.724
  1024.0,0.000116,0.000116,0.000317,0.000050,  37.721
  1025.0,0.000121,0.000125,0.000304,0.000042,  37.715
  1026.0,0.000118,0.000119,0.000087,0.000042,  37.715
  1027.0,0.000099,0.000110,0.000174,-0.000007,  37.719
  1028.0,0.000110,0.000106,0.000266,-0.000007,  37.717
  1029.0,0.000118,0.000110,0.000170,0.000006,  37.713
  1030.0,0.000124,0.000118,0.000179,0.000020,  37.716
  1031.0,0.000121,0.000122,0.000242,0.000020,  37.714
  1032.0,0.000123,0.000110,0.000164,-0.000007,  37.724
  1033.0,0.000116,0.000110,0.000086,-0.000007,  37.723
  1034.0,0.000113,0.000114,0.000191,-0.000007,  37.727
  1035.0,0.000124,0.000117,0.000218,-0.000007,  37.736
  1036.0,0.000119,0.000118,0.000155,-0.000007,  37.740
  1037.0,0.000119,0.000120,0.000147,-0.000007,  37.750
  1038.0,0.000100,0.000100,-0.000134,-0.000007,  37.754
  1039.0,0.000113,0.000111,-0.000729,-0.000007,  37.760
  1040.0,0.000119,0.000122,-0.000272,-0.000007,  37.767
  1041.0,0.000119,0.000119,-0.000107,-0.000007,  37.787
  1042.0,0.000113,0.000118,-0.000098,-0.000007,  37.793
  1043.0,0.000106,0.000114,0.000147,-0.000007,  37.798
  1044.0,0.000121,0.000120,0.000201,0.000006,  37.802
  1045.0,0.000130,0.000125,0.000151,0.000006,  37.801
  1046.0,0.000124,0.000127,0.000154,0.000020,  37.804
  1047.0,0.000129,0.000131,-0.000073,0.000020,  37.806
  1048.0,0.000109,0.000129,-0.000036,-0.000021,  37.811
  1049.0,0.000106,0.000122,0.000102,-0.000007,  37.803
  1050.0,0.000116,0.000126,0.000043,-0.000007,  37.807
  1051.0,0.000127,0.000128,-0.000023,-0.000007,  37.825
  1052.0,0.000127,0.000126,-0.000043,0.000006,  37.827
  1053.0,0.000125,0.000132,0.000069,-0.000007,  37.827
  1054.0,0.000106,0.000116,0.000183,-0.000034,  37.821
  1055.0,0.000119,0.000119,0.000119,-0.000034,  37.806
  1056.0,0.000131,0.000122,0.000055,-0.000021,  37.791
  1057.0,0.000131,0.000123,0.000089,-0.000007,  37.779
  1058.0,0.000120,0.000129,0.000056,0.000006,  37.758
  1059.0,0.000102,0.000096,0.000100,0.000015,  37.756
  1060.0,0.000103,0.000104,-0.000155,-0.000007,  37.749
  1061.0,0.000113,0.000114,-0.000061,0.000015,  37.748
  1062.0,0.000117,0.000107,-0.000092,-0.000007,  37.746
  1063.0,0.000113,0.000106,-0.000105,-0.000021,  37.744
  1064.0,0.000112,0.000109,-0.000075,0.000015,  37.749
  1065.0,0.000106,0.000101,-0.000048,-0.000034,  37.737
  1066.0,0.000107,0.000104,-0.000141,-0.000012,  37.734
  1067.0,0.000108,0.000120,-0.000256,0.000015,  37.734
  1068.0,0.000108,0.000118,-0.000200,-0.000007,  37.730
  1069.0,0.000094,0.000109,-0.000161,0.000015,  37.732
  1070.0,0.000098,0.000097,-0.000131,-0.000007,  37.714
  1071.0,0.000100,0.000098,-0.000210,-0.000021,  37.684
  1072.0,0.000120,0.000114,-0.000171,0.000028,  37.679
  1073.0,0.000113,0.000113,-0.000204,-0.000007,  37.673
  1074.0,0.000099,0.000114,-0.000421,-0.000021,  37.674
  1075.0,0.000087,0.000089,-0.000237,0.000001,  37.676
  1076.0,0.000100,0.000104,-0.000301,-0.000021,  37.667
  1077.0,0.000107,0.000114,-0.000267,0.000015,  37.653
  1078.0,0.000111,0.000108,-0.000275,-0.000007,  37.630
  1079.0,0.000107,0.000107,-0.000288,-0.000021,  37.600
  1080.0,0.000084,0.000105,0.000001,0.000001,  37.605
  1081.0,0.000084,0.000105,-0.000236,-0.000034,  37.579
  1082.0,0.000103,0.000099,-0.000300,-0.000034,  37.571
  1083.0,0.000114,0.000116,-0.000345,0.000001,  37.536
  1084.0,0.000106,0.000115,-0.000385,-0.000034,  37.515
  1085.0,0.000090,0.000105,-0.000409,0.000001,  37.522
  1086.0,0.000088,0.000088,-0.000370,-0.000075,  37.504
  1087.0,0.000093,0.000089,-0.000506,-0.000048,  37.480
  1088.0,0.000091,0.000087,-0.000595,-0.000048,  37.472
  1089.0,0.000084,0.000092,-0.000654,-0.000034,  37.464
  1090.0,0.000077,0.000084,-0.000608,-0.000034,  37.463
  1091.0,0.000048,0.000048,-0.000502,-0.000012,  37.464
  1092.0,0.000058,0.000060,-0.000591,-0.000034,  37.462
  1093.0,0.000063,0.000068,-0.000560,-0.000012,  37.462
  1094.0,0.000076,0.000071,-0.000645,-0.000034,  37.461
  1095.0,0.000081,0.000080,-0.000643,-0.000034,  37.461
  1096.0,0.000076,0.000078,-0.000556,-0.000039,  37.491
  1097.0,0.000069,0.000071,-0.001089,-0.000061,  37.470
  1098.0,0.000069,0.000077,-0.001928,-0.000061,  37.474
  1099.0,0.000088,0.000080,-0.001132,-0.000012,  37.474
  1100.0,0.000084,0.000090,-0.000808,-0.000034,  37.461
  1101.0,0.000062,0.000088,-0.000655,-0.000012,  37.475
  1102.0,0.000050,0.000070,-0.000672,-0.000012,  37.460
  1103.0,0.000066,0.000072,-0.000662,-0.000048,  37.459
  1104.0,0.000083,0.000082,-0.000680,0.000001,  37.459
  1105.0,0.000081,0.000086,-0.000673,-0.000034,  37.461
  1106.0,0.000072,0.000086,-0.000697,-0.000021,  37.461
  1107.0,0.000074,0.000071,-0.000781,-0.000012,  37.465
  1108.0,0.000076,0.000077,-0.000714,-0.000034,  37.459
  1109.0,0.000084,0.000088,-0.000775,-0.000048,  37.458
  1110.0,0.000092,0.000095,-0.000661,0.000001,  37.459
  1111.0,0.000086,0.000099,-0.000904,-0.000034,  37.457
  1112.0,0.000061,0.000078,-0.000680,-0.000026,  37.472
  1113.0,0.000062,0.000074,-0.000623,-0.000048,  37.455
  1114.0,0.000078,0.000083,-0.000730,-0.000034,  37.456
  1115.0,0.000081,0.000094,-0.000645,0.000015,  37.462
  1116.0,0.000083,0.000098,-0.000675,-0.000007,  37.474
  1117.0,0.000076,0.000095,-0.000595,-0.000021,  37.500
  1118.0,0.000078,0.000095,-0.000585,-0.000026,  37.502
  1119.0,0.000094,0.000099,-0.000786,-0.000034,  37.509
  1120.0,0.000091,0.000099,-0.000655,0.000001,  37.511
  1121.0,0.000102,0.000104,-0.000666,-0.000007,  37.523
  1122.0,0.000085,0.000096,-0.000657,-0.000021,  37.542
  1123.0,0.000070,0.000074,-0.000585,0.000001,  37.547
  1124.0,0.000076,0.000084,-0.000613,-0.000007,  37.553
  1125.0,0.000077,0.000088,-0.000615,-0.000021,  37.558
  1126.0,0.000091,0.000099,-0.000711,-0.000012,  37.561
  1127.0,0.000099,0.000114,-0.000816,-0.000021,  37.570
  1128.0,0.000077,0.000105,-0.000787,-0.000026,  37.599
  1129.0,0.000094,0.000109,-0.000727,-0.000012,  37.593
  1130.0,0.000099,0.000106,-0.000719,-0.000034,  37.598
  1131.0,0.000099,0.000110,-0.000785,0.000023,  37.593
  1132.0,0.000105,0.000108,-0.000854,0.000001,  37.587
  1133.0,0.000077,0.000097,-0.000826,-0.000034,  37.595
  1134.0,0.000064,0.000084,-0.001420,0.000001,  37.579
  1135.0,0.000074,0.000083,-0.001339,-0.000034,  37.575
  1136.0,0.000077,0.000088,-0.001132,0.000001,  37.574
  1137.0,0.000083,0.000093,-0.000992,0.000001,  37.572
  1138.0,0.000074,0.000091,-0.001054,-0.000034,  37.576
  1139.0,0.000069,0.000074,-0.001011,-0.000012,  37.586
  1140.0,0.000071,0.000089,-0.000866,0.000001,  37.585
  1141.0,0.000079,0.000090,-0.000848,0.000001,  37.591
  1142.0,0.000091,0.000098,-0.000861,0.000050,  37.594
  1143.0,0.000089,0.000100,-0.000876,0.000064,  37.604
  1144.0,0.000067,0.000078,-0.000929,-0.000012,  37.619
  1145.0,0.000073,0.000085,-0.000975,0.000023,  37.617
  1146.0,0.000083,0.000087,-0.000971,0.000001,  37.622
  1147.0,0.000087,0.000085,-0.000901,0.000015,  37.631
  1148.0,0.000083,0.000096,-0.000835,-0.000007,  37.646
  1149.0,0.000064,0.000092,-0.000822,-0.000021,  37.663
  1150.0,0.000073,0.000088,-0.000803,0.000001,  37.668
  1151.0,0.000080,0.000097,-0.000838,-0.000007,  37.672
  1152.0,0.000088,0.000100,-0.000880,-0.000021,  37.681
  1153.0,0.000094,0.000108,-0.000977,0.000015,  37.687
  1154.0,0.000074,0.000099,-0.000893,-0.000021,  37.699
  1155.0,0.000061,0.000075,-0.000885,0.000001,  37.704
  1156.0,0.000083,0.000088,-0.000943,-0.000034,  37.719
  1157.0,0.000094,0.000105,-0.000905,-0.000021,  37.727
  1158.0,0.000108,0.000112,-0.000883,0.000015,  37.726
  1159.0,0.000105,0.000116,-0.001033,-0.000007,  37.724
  1160.0,0.000089,0.000098,-0.000809,-0.000039,  37.720
  1161.0,0.000091,0.000106,-0.000850,0.000023,  37.692
  1162.0,0.000094,0.000101,-0.000835,0.000037,  37.690
  1163.0,0.000082,0.000102,-0.000931,0.000015,  37.690
  1164.0,0.000089,0.000101,-0.000968,-0.000007,  37.690
  1165.0,0.000063,0.000094,-0.000928,-0.000034,  37.702
  1166.0,0.000064,0.000081,-0.001026,0.000001,  37.695
  1167.0,0.000079,0.000093,-0.001023,-0.000021,  37.695
  1168.0,0.000087,0.000091,-0.001040,-0.000021,  37.692
  1169.0,0.000088,0.000094,-0.000948,0.000037,  37.698
  1170.0,0.000080,0.000098,-0.001026,0.000037,  37.707
  1171.0,0.000071,0.000092,-0.000869,0.000010,  37.710
  1172.0,0.000083,0.000100,-0.000925,0.000037,  37.691
  1173.0,0.000091,0.000095,-0.000965,0.000001,  37.689
  1174.0,0.000091,0.000108,-0.000993,0.000050,  37.686
  1175.0,0.000087,0.000118,-0.000961,0.000064,  37.686
  1176.0,0.000064,0.000095,-0.000988,-0.000021,  37.686
  1177.0,0.000075,0.000092,-0.000958,0.000015,  37.679
  1178.0,0.000086,0.000104,-0.001003,-0.000021,  37.682
  1179.0,0.000088,0.000103,-0.001005,0.000001,  37.679
  1180.0,0.000100,0.000109,-0.002375,0.000001,  37.677
  1181.0,0.000081,0.000099,-0.001485,-0.000034,  37.687
  1182.0,0.000081,0.000095,-0.001198,-0.000012,  37.676
  1183.0,0.000074,0.000095,-0.001146,-0.000034,  37.680
  1184.0,0.000073,0.000092,-0.001102,-0.000034,  37.678
  1185.0,0.000091,0.000105,-0.001109,0.000001,  37.680
  1186.0,0.000068,0.000086,-0.001065,-0.000034,  37.684
  1187.0,0.000037,0.000059,-0.001075,-0.000048,  37.684
  1188.0,0.000068,0.000079,-0.001136,-0.000012,  37.685
  1189.0,0.000074,0.000091,-0.001210,-0.000034,  37.682
  1190.0,0.000077,0.000090,-0.001280,0.000015,  37.691
  1191.0,0.000074,0.000103,-0.001222,-0.000007,  37.692
  1192.0,0.000055,0.000084,-0.001061,-0.000088,  37.701
  1193.0,0.000072,0.000088,-0.001075,-0.000026,  37.698
  1194.0,0.000077,0.000090,-0.001325,-0.000034,  37.697
  1195.0,0.000079,0.000092,-0.001113,-0.000021,  37.697
  1196.0,0.000083,0.000092,-0.001249,0.000015,  37.705
  1197.0,0.000060,0.000085,-0.001102,-0.000034,  37.712
  1198.0,0.000070,0.000082,-0.001115,0.000015,  37.719
  1199.0,0.000095,0.000099,-0.001067,-0.000007,  37.722
  1200.0,0.000093,0.000099,-0.001145,-0.000021,  37.731
  1201.0,0.000099,0.000109,-0.001035,0.000015,  37.738
  1202.0,0.000094,0.000108,-0.001060,-0.000021,  37.751
  1203.0,0.000077,0.000094,-0.001093,-0.000048,  37.749
  1204.0,0.000091,0.000101,-0.001096,0.000001,  37.760
  1205.0,0.000082,0.000103,-0.001147,-0.000034,  37.765
  1206.0,0.000082,0.000098,-0.001169,0.000001,  37.767
  1207.0,0.000080,0.000101,-0.001135,-0.000034,  37.774
  1208.0,0.000053,0.000081,-0.001081,-0.000034,  37.788
  1209.0,0.000069,0.000090,-0.001259,0.000023,  37.790
  1210.0,0.000071,0.000099,-0.001269,0.000037,  37.791
  1211.0,0.000074,0.000099,-0.001184,0.000001,  37.797
  1212.0,0.000080,0.000091,-0.001150,0.000037,  37.803
  1213.0,0.000063,0.000078,-0.001085,0.000023,  37.803
  1214.0,0.000072,0.000079,-0.001098,0.000023,  37.809
  1215.0,0.000083,0.000098,-0.001211,0.000001,  37.812
  1216.0,0.000083,0.000096,-0.001162,-0.000021,  37.815
  1217.0,0.000091,0.000095,-0.001244,0.000028,  37.822
  1218.0,0.000076,0.000081,-0.001223,-0.000021,  37.823
  1219.0,0.000051,0.000075,-0.002416,-0.000048,  37.828
  1220.0,0.000072,0.000091,-0.001777,-0.000012,  37.831
  1221.0,0.000079,0.000097,-0.001449,-0.000034,  37.836
  1222.0,0.000076,0.000096,-0.001401,0.000001,  37.851
  1223.0,0.000080,0.000107,-0.001431,0.000001,  37.855
