Run Name,group 1
Run Date,03:08:59 PM   01-28-14
Method Name,35%B-Isocratic.1_grp 1
Export Format Version, 1.00
Method ID, 1729
Points/Second, 5.00
Number of Records,   3629
Offset from Run Start Time,00:00:00
Run End Time,00:12:06
Time,Second
QuadTec 1, (280.0 nm), AU
QuadTec 2, (260.0 nm), AU
Gradient Pump,<Not Selected>
QuadTec 3, (214.0 nm), AU
QuadTec 4, (405.0 nm), AU
Conductivity,mS/cm
Trace 6,<Not Available>
GP Pressure,<Not Selected>
Volume,<Not Selected>
Fraction,<Not Available>
Time,QuadTec 1,QuadTec 2,QuadTec 3,QuadTec 4,Conductivity
     0.0,0.000200,0.000192,0.004121,0.000027,  35.509
     0.2,0.000202,0.000193,0.004141,0.000027,  35.510
     0.4,0.000193,0.000191,0.004166,0.000040,  35.512
     0.6,0.000191,0.000190,0.004186,0.000027,  35.513
     0.8,0.000193,0.000189,0.004175,0.000027,  35.514
     1.0,0.000182,0.000189,0.004150,0.000027,  35.514
     1.2,0.000058,0.000194,0.004116,0.000027,  35.513
     1.4,0.000067,0.000192,0.004112,0.000027,  35.513
     1.6,0.000067,0.000189,0.004100,0.000027,  35.514
     1.8,0.000064,0.000188,0.004127,0.000027,  35.518
     2.0,0.000000,0.000186,0.004131,0.000027,  35.523
     2.2,0.000000,0.000187,0.004116,0.000014,  35.522
     2.4,0.000000,0.000000,0.004071,0.000014,  35.523
     2.6,0.000000,0.000000,0.003549,0.000000,  35.520
     2.8,0.000000,0.000000,0.003549,0.000000,  35.521
     3.0,0.000000,0.000000,0.003549,0.000000,  35.520
     3.2,0.000000,0.000000,0.003549,0.000000,  35.525
     3.4,0.000000,0.000000,0.003549,0.000000,  35.525
     3.6,0.000000,0.000000,0.000000,0.000000,  35.528
     3.8,0.000000,0.000000,0.000000,0.000000,  35.526
     4.0,0.000000,0.000000,0.000000,0.000000,  35.526
     4.2,0.000000,0.000000,0.000000,0.000000,  35.527
     4.4,0.000000,0.000000,0.000000,0.000000,  35.526
     4.6,0.000000,0.000000,0.000000,0.000000,  35.528
     4.8,0.000000,0.000000,0.000000,0.000000,  35.531
     5.0,0.000000,0.000000,0.000000,0.000000,  35.526
     5.2,0.000000,0.000000,0.000000,0.000000,  35.526
     5.4,0.000000,0.000000,0.000000,0.000000,  35.529
     5.6,0.000000,0.000000,0.000000,0.000000,  35.524
     5.8,-0.000013,0.000000,0.000000,0.000000,  35.529
     6.0,-0.000010,0.000000,0.000000,0.000000,  35.532
     6.2,-0.000010,0.000000,0.000000,0.000000,  35.537
     6.4,-0.000011,0.000000,0.000000,0.000000,  35.533
     6.6,-0.000009,0.000000,0.000000,0.000000,  35.537
     6.8,-0.000002,0.000000,0.000000,0.000000,  35.539
     7.0,-0.000006,0.000000,0.000000,0.000023,  35.540
     7.2,-0.000003,0.000005,0.000096,0.000036,  35.540
     7.4,0.000000,-0.000001,-0.001161,0.000036,  35.538
     7.6,0.000001,0.000002,-0.002003,0.000013,  35.542
     7.8,0.000006,0.000003,-0.002462,-0.000010,  35.541
     8.0,0.000013,0.000006,-0.002511,-0.000032,  35.540
     8.2,0.000010,0.000001,-0.002179,-0.000023,  35.544
     8.4,0.000009,0.000003,-0.001441,-0.000023,  35.546
     8.6,-0.000001,0.000003,-0.001225,-0.000045,  35.548
     8.8,-0.000012,0.000001,-0.001070,-0.000010,  35.548
     9.0,-0.000015,0.000006,-0.001000,-0.000010,  35.553
     9.2,-0.000013,0.000004,-0.001060,-0.000045,  35.560
     9.4,-0.000022,0.000003,-0.001224,-0.000010,  35.548
     9.6,-0.000032,0.000003,-0.001509,-0.000010,  35.552
     9.8,-0.000039,0.000002,-0.001455,0.000003,  35.548
    10.0,-0.000043,0.000006,-0.001280,-0.000010,  35.550
    10.2,-0.000038,0.000006,-0.001004,-0.000010,  35.555
    10.4,-0.000026,0.000002,-0.000859,-0.000032,  35.556
    10.6,-0.000027,-0.000000,-0.000720,0.000003,  35.555
    10.8,-0.000024,-0.000004,-0.000601,-0.000010,  35.549
    11.0,-0.000024,-0.000008,-0.000497,-0.000010,  35.552
    11.2,-0.000028,-0.000011,-0.000466,-0.000045,  35.558
    11.4,-0.000022,-0.000008,-0.000485,-0.000010,  35.552
    11.6,-0.000019,-0.000004,-0.000538,-0.000010,  35.560
    11.8,-0.000023,-0.000005,-0.000336,-0.000032,  35.559
    12.0,-0.000022,0.000003,-0.000068,0.000003,  35.557
    12.2,-0.000024,0.000007,0.000319,0.000003,  35.556
    12.4,-0.000031,0.000003,0.000365,-0.000032,  35.559
    12.6,-0.000024,0.000003,0.000269,-0.000010,  35.556
    12.8,-0.000027,0.000001,0.000051,-0.000010,  35.559
    13.0,-0.000033,-0.000001,0.000003,-0.000045,  35.553
    13.2,-0.000027,-0.000007,-0.000025,-0.000010,  35.555
    13.4,-0.000030,-0.000007,-0.000041,-0.000010,  35.556
    13.6,-0.000036,-0.000009,-0.000052,-0.000045,  35.554
    13.8,-0.000030,-0.000013,-0.000080,-0.000010,  35.555
    14.0,-0.000032,-0.000017,-0.000092,-0.000010,  35.556
    14.2,-0.000039,-0.000021,-0.000133,-0.000045,  35.555
    14.4,-0.000036,-0.000022,-0.000199,-0.000023,  35.553
    14.6,-0.000039,-0.000017,-0.000290,-0.000023,  35.557
    14.8,-0.000039,-0.000022,-0.000311,-0.000045,  35.554
    15.0,-0.000039,-0.000024,-0.000303,-0.000023,  35.556
    15.2,-0.000041,-0.000027,-0.000267,-0.000023,  35.552
    15.4,-0.000035,-0.000028,-0.000292,-0.000045,  35.553
    15.6,-0.000041,-0.000024,-0.000363,-0.000023,  35.552
    15.8,-0.000035,-0.000026,-0.000426,-0.000023,  35.557
    16.0,-0.000035,-0.000029,-0.000451,-0.000045,  35.559
    16.2,-0.000041,-0.000029,-0.000482,-0.000023,  35.559
    16.4,-0.000035,-0.000029,-0.000492,-0.000023,  35.563
    16.6,-0.000035,-0.000030,-0.000482,-0.000045,  35.557
    16.8,-0.000044,-0.000028,-0.000488,-0.000023,  35.559
    17.0,-0.000038,-0.000023,-0.000467,-0.000023,  35.565
    17.2,-0.000038,-0.000028,-0.000427,-0.000045,  35.557
    17.4,-0.000047,-0.000018,-0.000373,-0.000023,  35.557
    17.6,-0.000040,-0.000015,-0.000324,-0.000023,  35.559
    17.8,-0.000040,-0.000018,-0.000320,-0.000045,  35.559
    18.0,-0.000044,-0.000022,-0.000320,-0.000010,  35.559
    18.2,-0.000044,-0.000025,-0.000355,-0.000010,  35.557
    18.4,-0.000047,-0.000026,-0.000390,0.000003,  35.558
    18.6,-0.000050,-0.000024,-0.000440,-0.000010,  35.558
    18.8,-0.000044,-0.000017,-0.000495,-0.000010,  35.552
    19.0,-0.000038,-0.000023,-0.000545,-0.000032,  35.559
    19.2,-0.000043,-0.000021,-0.000589,0.000003,  35.557
    19.4,-0.000038,-0.000016,-0.000649,-0.000010,  35.551
    19.6,-0.000029,-0.000019,-0.000703,-0.000010,  35.555
    19.8,-0.000029,-0.000022,-0.000678,-0.000045,  35.557
    20.0,-0.000039,-0.000021,-0.000643,-0.000010,  35.553
    20.2,-0.000034,-0.000019,-0.000584,-0.000010,  35.557
    20.4,-0.000038,-0.000021,-0.000605,-0.000045,  35.554
    20.6,-0.000035,-0.000022,-0.000655,-0.000010,  35.554
    20.8,-0.000038,-0.000022,-0.000714,-0.000010,  35.556
    21.0,-0.000044,-0.000023,-0.001099,-0.000045,  35.553
    21.2,-0.000038,-0.000024,-0.001644,-0.000010,  35.555
    21.4,-0.000040,-0.000025,-0.002367,-0.000010,  35.558
    21.6,-0.000047,-0.000024,-0.002596,-0.000045,  35.551
    21.8,-0.000043,-0.000026,-0.002676,-0.000010,  35.555
    22.0,-0.000046,-0.000022,-0.002606,-0.000010,  35.549
    22.2,-0.000052,-0.000025,-0.002447,-0.000045,  35.554
    22.4,-0.000046,-0.000022,-0.002173,-0.000010,  35.553
    22.6,-0.000046,-0.000027,-0.001784,-0.000010,  35.554
    22.8,-0.000055,-0.000027,-0.001556,-0.000045,  35.553
    23.0,-0.000048,-0.000036,-0.001332,-0.000010,  35.552
    23.2,-0.000048,-0.000040,-0.001128,-0.000010,  35.553
    23.4,-0.000057,-0.000040,-0.001024,-0.000045,  35.552
    23.6,-0.000054,-0.000044,-0.000959,-0.000023,  35.554
    23.8,-0.000054,-0.000042,-0.000943,-0.000023,  35.555
    24.0,-0.000054,-0.000044,-0.000914,-0.000045,  35.554
    24.2,-0.000060,-0.000048,-0.000904,-0.000023,  35.555
    24.4,-0.000060,-0.000044,-0.000929,-0.000023,  35.556
    24.6,-0.000060,-0.000046,-0.001144,-0.000045,  35.551
    24.8,-0.000063,-0.000052,-0.001474,-0.000023,  35.555
    25.0,-0.000063,-0.000048,-0.001912,-0.000023,  35.553
    25.2,-0.000065,-0.000048,-0.001904,-0.000045,  35.553
    25.4,-0.000069,-0.000051,-0.001740,-0.000023,  35.555
    25.6,-0.000072,-0.000052,-0.001406,-0.000023,  35.555
    25.8,-0.000072,-0.000056,-0.001252,-0.000045,  35.555
    26.0,-0.000075,-0.000054,-0.001109,-0.000023,  35.557
    26.2,-0.000069,-0.000055,-0.000990,-0.000023,  35.556
    26.4,-0.000069,-0.000060,-0.000930,-0.000058,  35.559
    26.6,-0.000073,-0.000060,-0.000909,-0.000036,  35.556
    26.8,-0.000066,-0.000055,-0.000939,-0.000036,  35.559
    27.0,-0.000066,-0.000060,-0.000899,-0.000058,  35.560
    27.2,-0.000070,-0.000057,-0.000855,-0.000023,  35.557
    27.4,-0.000064,-0.000058,-0.000796,-0.000023,  35.556
    27.6,-0.000064,-0.000061,-0.000761,-0.000023,  35.556
    27.8,-0.000068,-0.000059,-0.000746,-0.000023,  35.561
    28.0,-0.000061,-0.000057,-0.000751,-0.000036,  35.558
    28.2,-0.000064,-0.000058,-0.000740,-0.000071,  35.557
    28.4,-0.000068,-0.000056,-0.000720,-0.000036,  35.556
    28.6,-0.000064,-0.000049,-0.000715,-0.000049,  35.558
    28.8,-0.000066,-0.000052,-0.000710,-0.000049,  35.560
    29.0,-0.000070,-0.000050,-0.000745,-0.000084,  35.559
    29.2,-0.000066,-0.000047,-0.000784,-0.000036,  35.559
    29.4,-0.000060,-0.000050,-0.000839,-0.000023,  35.556
    29.6,-0.000064,-0.000050,-0.001229,-0.000058,  35.556
    29.8,-0.000064,-0.000051,-0.001782,-0.000036,  35.563
    30.0,-0.000055,-0.000054,-0.002509,-0.000036,  35.563
    30.2,-0.000059,-0.000056,-0.002519,-0.000071,  35.565
    30.4,-0.000056,-0.000051,-0.002255,-0.000036,  35.566
    30.6,-0.000049,-0.000050,-0.001722,-0.000036,  35.563
    30.8,-0.000053,-0.000050,-0.001563,-0.000058,  35.564
    31.0,-0.000051,-0.000046,-0.001457,-0.000023,  35.568
    31.2,-0.000049,-0.000041,-0.001406,-0.000023,  35.574
    31.4,-0.000056,-0.000044,-0.001311,-0.000023,  35.566
    31.6,-0.000056,-0.000044,-0.001242,0.000000,  35.573
    31.8,-0.000052,-0.000039,-0.001178,0.000000,  35.569
    32.0,-0.000061,-0.000044,-0.001078,0.000013,  35.569
    32.2,-0.000061,-0.000046,-0.000984,0.000013,  35.572
    32.4,-0.000055,-0.000045,-0.000870,0.000013,  35.572
    32.6,-0.000055,-0.000048,-0.000855,0.000026,  35.570
    32.8,-0.000064,-0.000048,-0.000874,0.000013,  35.578
    33.0,-0.000064,-0.000048,-0.000949,0.000013,  35.573
    33.2,-0.000063,-0.000052,-0.000934,0.000026,  35.575
    33.4,-0.000072,-0.000045,-0.000915,0.000013,  35.579
    33.6,-0.000072,-0.000044,-0.000875,0.000013,  35.578
    33.8,-0.000072,-0.000049,-0.000831,0.000026,  35.579
    34.0,-0.000075,-0.000049,-0.000761,0.000013,  35.578
    34.2,-0.000072,-0.000056,-0.000696,0.000013,  35.580
    34.4,-0.000065,-0.000060,-0.000727,-0.000010,  35.579
    34.6,-0.000069,-0.000054,-0.000801,-0.000023,  35.582
    34.8,-0.000072,-0.000052,-0.000940,-0.000023,  35.586
    35.0,-0.000065,-0.000056,-0.000975,-0.000045,  35.591
    35.2,-0.000069,-0.000056,-0.000985,-0.000023,  35.591
    35.4,-0.000072,-0.000058,-0.000975,-0.000023,  35.592
    35.6,-0.000065,-0.000063,-0.000981,-0.000058,  35.591
    35.8,-0.000066,-0.000061,-0.000976,-0.000036,  35.600
    36.0,-0.000064,-0.000058,-0.000956,-0.000049,  35.593
    36.2,-0.000052,-0.000065,-0.000976,-0.000036,  35.594
    36.4,-0.000056,-0.000065,-0.001001,-0.000036,  35.591
    36.6,-0.000053,-0.000064,-0.001035,-0.000036,  35.596
    36.8,-0.000056,-0.000067,-0.001025,-0.000071,  35.594
    37.0,-0.000062,-0.000065,-0.001016,-0.000023,  35.592
    37.2,-0.000053,-0.000056,-0.000987,-0.000023,  35.595
    37.4,-0.000056,-0.000059,-0.000963,-0.000023,  35.596
    37.6,-0.000062,-0.000054,-0.000959,-0.000058,  35.601
    37.8,-0.000051,-0.000052,-0.000963,-0.000036,  35.599
    38.0,-0.000051,-0.000054,-0.000962,-0.000036,  35.598
    38.2,-0.000054,-0.000048,-0.000928,-0.000058,  35.597
    38.4,-0.000045,-0.000041,-0.000868,-0.000023,  35.597
    38.6,-0.000045,-0.000043,-0.000778,-0.000023,  35.595
    38.8,-0.000049,-0.000040,-0.001209,-0.000045,  35.597
    39.0,-0.000043,-0.000036,-0.001882,-0.000023,  35.596
    39.2,-0.000043,-0.000036,-0.002808,-0.000023,  35.597
    39.4,-0.000047,-0.000035,-0.002853,-0.000045,  35.593
    39.6,-0.000040,-0.000031,-0.002583,-0.000023,  35.592
    39.8,-0.000038,-0.000026,-0.002010,-0.000023,  35.595
    40.0,-0.000044,-0.000024,-0.001805,-0.000045,  35.598
    40.2,-0.000038,-0.000023,-0.001630,-0.000023,  35.598
    40.4,-0.000038,-0.000028,-0.001494,-0.000023,  35.601
    40.6,-0.000044,-0.000031,-0.001533,-0.000045,  35.603
    40.8,-0.000038,-0.000028,-0.001699,-0.000023,  35.601
    41.0,-0.000034,-0.000029,-0.001952,-0.000023,  35.605
    41.2,-0.000038,-0.000032,-0.001857,-0.000045,  35.602
    41.4,-0.000038,-0.000032,-0.001653,-0.000023,  35.605
    41.6,-0.000034,-0.000030,-0.001324,-0.000023,  35.605
    41.8,-0.000031,-0.000033,-0.001210,-0.000045,  35.602
    42.0,-0.000035,-0.000028,-0.001139,-0.000023,  35.604
    42.2,-0.000035,-0.000028,-0.001114,-0.000023,  35.602
    42.4,-0.000029,-0.000033,-0.001065,-0.000045,  35.612
    42.6,-0.000026,-0.000028,-0.001049,-0.000023,  35.613
    42.8,-0.000023,-0.000028,-0.001037,-0.000023,  35.609
    43.0,-0.000026,-0.000029,-0.000983,-0.000045,  35.613
    43.2,-0.000032,-0.000031,-0.000912,-0.000023,  35.612
    43.4,-0.000030,-0.000025,-0.000837,-0.000023,  35.614
    43.6,-0.000026,-0.000021,-0.001003,-0.000045,  35.612
    43.8,-0.000035,-0.000024,-0.001277,-0.000023,  35.612
    44.0,-0.000035,-0.000014,-0.001681,-0.000023,  35.613
    44.2,-0.000031,-0.000012,-0.001721,-0.000045,  35.612
    44.4,-0.000040,-0.000019,-0.001626,-0.000023,  35.609
    44.6,-0.000043,-0.000020,-0.001421,-0.000023,  35.612
    44.8,-0.000036,-0.000023,-0.001311,-0.000045,  35.612
    45.0,-0.000043,-0.000023,-0.001186,-0.000023,  35.614
    45.2,-0.000045,-0.000021,-0.001057,-0.000023,  35.615
    45.4,-0.000044,-0.000026,-0.000963,-0.000023,  35.613
    45.6,-0.000051,-0.000025,-0.000874,-0.000023,  35.612
    45.8,-0.000051,-0.000029,-0.000789,-0.000023,  35.612
    46.0,-0.000047,-0.000033,-0.000919,-0.000058,  35.613
    46.2,-0.000056,-0.000033,-0.001144,-0.000023,  35.611
    46.4,-0.000059,-0.000033,-0.001478,-0.000023,  35.616
    46.6,-0.000057,-0.000040,-0.001548,-0.000023,  35.616
    46.8,-0.000064,-0.000037,-0.001538,-0.000045,  35.621
    47.0,-0.000064,-0.000035,-0.001443,-0.000023,  35.611
    47.2,-0.000055,-0.000039,-0.001277,-0.000023,  35.615
    47.4,-0.000061,-0.000041,-0.001188,-0.000045,  35.620
    47.6,-0.000061,-0.000046,-0.001109,-0.000023,  35.612
    47.8,-0.000057,-0.000048,-0.001004,-0.000023,  35.620
    48.0,-0.000061,-0.000044,-0.000996,-0.000045,  35.617
    48.2,-0.000064,-0.000046,-0.001006,-0.000023,  35.622
    48.4,-0.000066,-0.000048,-0.001070,-0.000023,  35.621
    48.6,-0.000073,-0.000048,-0.001031,-0.000045,  35.618
    48.8,-0.000069,-0.000048,-0.000962,-0.000023,  35.621
    49.0,-0.000074,-0.000048,-0.000872,-0.000023,  35.619
    49.2,-0.000081,-0.000052,-0.000847,-0.000045,  35.620
    49.4,-0.000072,-0.000053,-0.000843,-0.000023,  35.617
    49.6,-0.000068,-0.000054,-0.000868,-0.000023,  35.619
    49.8,-0.000074,-0.000053,-0.000893,-0.000045,  35.617
    50.0,-0.000074,-0.000052,-0.000932,-0.000023,  35.611
    50.2,-0.000070,-0.000049,-0.000976,-0.000023,  35.609
    50.4,-0.000077,-0.000049,-0.001001,-0.000045,  35.611
    50.6,-0.000074,-0.000052,-0.001053,-0.000023,  35.610
    50.8,-0.000068,-0.000054,-0.001077,-0.000023,  35.608
    51.0,-0.000068,-0.000057,-0.001113,-0.000058,  35.611
    51.2,-0.000074,-0.000061,-0.001162,-0.000036,  35.604
    51.4,-0.000077,-0.000057,-0.001201,-0.000036,  35.606
    51.6,-0.000073,-0.000054,-0.001151,-0.000071,  35.605
    51.8,-0.000070,-0.000052,-0.001082,-0.000036,  35.601
    52.0,-0.000070,-0.000053,-0.000963,-0.000036,  35.601
    52.2,-0.000070,-0.000052,-0.000913,-0.000058,  35.602
    52.4,-0.000074,-0.000050,-0.000894,-0.000023,  35.602
    52.6,-0.000072,-0.000056,-0.000894,-0.000023,  35.600
    52.8,-0.000069,-0.000061,-0.001055,-0.000045,  35.600
    53.0,-0.000072,-0.000060,-0.001280,-0.000023,  35.595
    53.2,-0.000067,-0.000053,-0.001583,-0.000023,  35.598
    53.4,-0.000061,-0.000058,-0.001632,-0.000045,  35.597
    53.6,-0.000061,-0.000053,-0.001577,-0.000023,  35.607
    53.8,-0.000071,-0.000050,-0.001432,-0.000036,  35.613
    54.0,-0.000065,-0.000048,-0.001376,-0.000036,  35.637
    54.2,-0.000052,-0.000044,-0.001337,-0.000013,  35.644
    54.4,-0.000040,-0.000043,-0.001312,-0.000026,  35.647
    54.6,-0.000010,-0.000041,-0.001243,-0.000026,  35.646
    54.8,-0.000056,-0.000042,-0.001154,-0.000013,  35.633
    55.0,-0.000127,-0.000045,-0.001054,-0.000013,  35.612
    55.2,-0.000229,-0.000045,-0.000984,-0.000026,  35.606
    55.4,-0.000272,-0.000044,-0.000922,-0.000049,  35.594
    55.6,-0.000290,-0.000039,-0.000865,-0.000062,  35.594
    55.8,-0.000293,-0.000064,-0.000783,-0.000097,  35.589
    56.0,-0.000294,-0.000101,-0.000685,-0.000075,  35.584
    56.2,-0.000278,-0.000148,-0.000567,-0.000088,  35.586
    56.4,-0.000243,-0.000185,-0.000442,-0.000114,  35.583
    56.6,-0.000229,-0.000214,-0.000416,-0.000215,  35.582
    56.8,-0.000210,-0.000239,-0.000435,-0.000270,  35.585
    57.0,-0.000183,-0.000244,-0.000480,-0.000283,  35.587
    57.2,-0.000171,-0.000235,-0.000497,-0.000293,  35.580
    57.4,-0.000158,-0.000209,-0.000529,-0.000231,  35.583
    57.6,-0.000141,-0.000195,-0.000562,-0.000218,  35.582
    57.8,-0.000131,-0.000180,-0.001210,-0.000228,  35.584
    58.0,-0.000119,-0.000160,-0.002159,-0.000166,  35.584
    58.2,-0.000104,-0.000149,-0.003418,-0.000140,  35.582
    58.4,-0.000096,-0.000142,-0.003494,-0.000163,  35.584
    58.6,-0.000085,-0.000133,-0.003127,-0.000101,  35.584
    58.8,-0.000077,-0.000131,-0.002317,-0.000075,  35.585
    59.0,-0.000070,-0.000126,-0.002087,-0.000110,  35.581
    59.2,-0.000065,-0.000114,-0.001918,-0.000088,  35.583
    59.4,-0.000060,-0.000105,-0.001823,-0.000075,  35.588
    59.6,-0.000050,-0.000096,-0.001659,-0.000097,  35.586
    59.8,-0.000043,-0.000092,-0.001500,-0.000062,  35.586
    60.0,-0.000026,-0.000084,-0.001350,-0.000049,  35.589
    60.2,-0.000017,-0.000075,-0.001290,-0.000084,  35.587
    60.4,-0.000001,-0.000068,-0.001295,-0.000049,  35.583
    60.6,0.000015,-0.000061,-0.001339,-0.000036,  35.587
    60.8,0.000022,-0.000052,-0.001394,-0.000071,  35.589
    61.0,0.000024,-0.000038,-0.001467,-0.000036,  35.584
    61.2,0.000030,-0.000020,-0.001582,-0.000023,  35.591
    61.4,0.000028,-0.000013,-0.001522,-0.000045,  35.587
    61.6,0.000028,0.000003,-0.001396,-0.000010,  35.593
    61.8,0.000022,0.000017,-0.001216,0.000003,  35.594
    62.0,0.000020,0.000019,-0.001112,-0.000019,  35.596
    62.2,0.000011,0.000018,-0.001002,0.000030,  35.592
    62.4,0.000015,0.000020,-0.000912,0.000043,  35.592
    62.6,0.000009,0.000021,-0.000883,0.000007,  35.589
    62.8,0.000003,0.000028,-0.000883,0.000030,  35.591
    63.0,0.000009,0.000037,-0.000917,0.000043,  35.587
    63.2,0.000007,0.000035,-0.000931,-0.000006,  35.591
    63.4,0.000000,0.000036,-0.000946,0.000017,  35.587
    63.6,0.000003,0.000042,-0.000975,0.000030,  35.585
    63.8,0.000003,0.000038,-0.000946,-0.000019,  35.588
    64.0,-0.000003,0.000031,-0.000892,0.000017,  35.585
    64.2,-0.000001,0.000029,-0.000813,0.000017,  35.567
    64.4,0.000003,0.000031,-0.000779,0.000030,  35.554
    64.6,-0.000014,0.000032,-0.000754,0.000030,  35.563
    64.8,-0.000027,0.000037,-0.000733,0.000030,  35.579
    65.0,-0.000044,0.000036,-0.000743,-0.000006,  35.587
    65.2,-0.000045,0.000034,-0.000773,0.000030,  35.584
    65.4,-0.000030,0.000032,-0.000827,0.000017,  35.582
    65.6,0.000000,0.000010,-0.000842,0.000030,  35.582
    65.8,0.000002,-0.000015,-0.000848,-0.000019,  35.580
    66.0,0.000007,-0.000043,-0.000832,0.000017,  35.581
    66.2,0.000016,-0.000044,-0.000827,0.000017,  35.580
    66.4,0.000012,-0.000029,-0.000892,0.000003,  35.581
    66.6,0.000012,0.000006,-0.001002,0.000026,  35.581
    66.8,0.000019,0.000007,-0.001131,0.000026,  35.582
    67.0,0.000012,0.000009,-0.001145,0.000039,  35.578
    67.2,0.000007,0.000005,-0.001116,0.000039,  35.578
    67.4,0.000006,0.000005,-0.001056,0.000039,  35.578
    67.6,-0.000003,0.000005,-0.000992,0.000052,  35.578
    67.8,-0.000006,0.000001,-0.000892,0.000039,  35.576
    68.0,0.000000,0.000002,-0.000777,0.000039,  35.580
    68.2,-0.000006,0.000004,-0.000773,0.000052,  35.580
    68.4,-0.000006,0.000008,-0.000813,0.000039,  35.578
    68.6,-0.000002,0.000013,-0.000887,0.000039,  35.581
    68.8,-0.000011,0.000008,-0.000883,0.000052,  35.580
    69.0,-0.000011,0.000010,-0.000878,0.000039,  35.583
    69.2,-0.000008,0.000009,-0.000853,0.000039,  35.584
    69.4,-0.000009,0.000007,-0.000814,0.000017,  35.577
    69.6,-0.000001,0.000001,-0.000760,0.000003,  35.582
    69.8,0.000019,-0.000001,-0.000699,0.000003,  35.582
    70.0,0.000021,-0.000003,-0.000710,-0.000032,  35.584
    70.2,0.000015,-0.000003,-0.000735,-0.000010,  35.585
    70.4,0.000010,-0.000003,-0.000799,-0.000010,  35.582
    70.6,0.000008,-0.000006,-0.000774,-0.000032,  35.582
    70.8,-0.000001,0.000002,-0.000735,-0.000032,  35.581
    71.0,-0.000003,0.000016,-0.000660,-0.000032,  35.585
    71.2,-0.000006,0.000015,-0.000626,-0.000019,  35.586
    71.4,-0.000015,0.000015,-0.000607,0.000003,  35.587
    71.6,-0.000011,0.000015,-0.000586,0.000003,  35.588
    71.8,-0.000014,0.000012,-0.000586,-0.000032,  35.582
    72.0,-0.000023,0.000021,-0.000627,-0.000010,  35.587
    72.2,-0.000019,0.000021,-0.000682,-0.000010,  35.581
    72.4,-0.000019,0.000016,-0.000677,-0.000032,  35.580
    72.6,-0.000020,0.000019,-0.000657,0.000003,  35.580
    72.8,-0.000011,0.000019,-0.000632,0.000017,  35.578
    73.0,-0.000009,0.000013,-0.000657,-0.000006,  35.576
    73.2,-0.000015,0.000011,-0.000701,0.000043,  35.577
    73.4,-0.000009,0.000007,-0.000774,0.000043,  35.574
    73.6,-0.000010,0.000004,-0.000808,0.000056,  35.573
    73.8,-0.000017,0.000011,-0.000853,0.000043,  35.574
    74.0,-0.000019,0.000015,-0.000893,0.000030,  35.571
    74.2,-0.000013,0.000010,-0.000887,-0.000006,  35.563
    74.4,-0.000017,0.000015,-0.000878,0.000030,  35.564
    74.6,-0.000019,0.000011,-0.000848,0.000017,  35.566
    74.8,-0.000013,0.000004,-0.000804,0.000030,  35.561
    75.0,-0.000019,0.000007,-0.000833,-0.000019,  35.560
    75.2,-0.000022,0.000003,-0.000887,0.000017,  35.559
    75.4,-0.000021,-0.000003,-0.000977,0.000030,  35.557
    75.6,-0.000024,-0.000001,-0.000947,-0.000019,  35.557
    75.8,-0.000024,-0.000002,-0.000862,0.000017,  35.554
    76.0,-0.000024,-0.000007,-0.000748,0.000017,  35.548
    76.2,-0.000031,-0.000011,-0.000743,-0.000019,  35.554
    76.4,-0.000024,-0.000009,-0.000773,0.000003,  35.550
    76.6,-0.000027,-0.000009,-0.000848,0.000003,  35.554
    76.8,-0.000033,-0.000018,-0.000864,-0.000019,  35.552
    77.0,-0.000024,-0.000015,-0.000843,0.000003,  35.550
    77.2,-0.000027,-0.000014,-0.000829,0.000003,  35.550
    77.4,-0.000033,-0.000018,-0.001089,-0.000019,  35.549
    77.6,-0.000024,-0.000021,-0.001473,0.000003,  35.546
    77.8,-0.000027,-0.000017,-0.001997,0.000003,  35.550
    78.0,-0.000033,-0.000024,-0.001988,-0.000019,  35.547
    78.2,-0.000027,-0.000023,-0.001764,0.000003,  35.549
    78.4,-0.000032,-0.000020,-0.001335,0.000003,  35.544
    78.6,-0.000032,-0.000022,-0.001595,-0.000019,  35.545
    78.8,-0.000032,-0.000025,-0.002083,0.000003,  35.543
    79.0,-0.000035,-0.000023,-0.002808,0.000003,  35.546
    79.2,-0.000035,-0.000026,-0.002798,-0.000019,  35.545
    79.4,-0.000041,-0.000024,-0.002538,0.000003,  35.541
    79.6,-0.000032,-0.000021,-0.002051,0.000003,  35.538
    79.8,-0.000032,-0.000026,-0.001833,-0.000032,  35.540
    80.0,-0.000036,-0.000026,-0.001614,-0.000010,  35.539
    80.2,-0.000027,-0.000023,-0.001404,-0.000010,  35.543
    80.4,-0.000018,-0.000027,-0.001735,-0.000045,  35.541
    80.6,-0.000022,-0.000026,-0.002328,-0.000010,  35.543
    80.8,-0.000024,-0.000020,-0.003178,-0.000010,  35.539
    81.0,-0.000018,-0.000025,-0.003114,-0.000045,  35.539
    81.2,-0.000024,-0.000021,-0.002747,-0.000010,  35.536
    81.4,-0.000030,-0.000015,-0.002045,-0.000010,  35.537
    81.6,-0.000029,-0.000018,-0.001811,-0.000045,  35.535
    81.8,-0.000038,-0.000013,-0.001656,-0.000010,  35.531
    82.0,-0.000038,-0.000015,-0.001559,-0.000010,  35.530
    82.2,-0.000031,-0.000018,-0.001415,-0.000045,  35.532
    82.4,-0.000040,-0.000018,-0.001286,-0.000010,  35.530
    82.6,-0.000040,-0.000020,-0.001177,-0.000010,  35.529
    82.8,-0.000031,-0.000022,-0.001107,0.000003,  35.532
    83.0,-0.000038,-0.000024,-0.001061,-0.000010,  35.530
    83.2,-0.000038,-0.000022,-0.001076,-0.000010,  35.530
    83.4,-0.000040,-0.000026,-0.001066,-0.000032,  35.527
    83.6,-0.000044,-0.000028,-0.001060,0.000003,  35.525
    83.8,-0.000038,-0.000028,-0.001070,-0.000010,  35.525
    84.0,-0.000040,-0.000030,-0.001089,-0.000010,  35.527
    84.2,-0.000041,-0.000028,-0.001085,-0.000045,  35.527
    84.4,-0.000035,-0.000028,-0.001095,-0.000010,  35.533
    84.6,-0.000035,-0.000031,-0.001085,-0.000010,  35.526
    84.8,-0.000039,-0.000026,-0.001081,-0.000045,  35.529
    85.0,-0.000030,-0.000026,-0.001056,-0.000010,  35.529
    85.2,-0.000032,-0.000027,-0.001035,-0.000010,  35.527
    85.4,-0.000039,-0.000023,-0.001020,-0.000045,  35.525
    85.6,-0.000030,-0.000019,-0.001016,-0.000010,  35.527
    85.8,-0.000032,-0.000017,-0.001004,-0.000010,  35.529
    86.0,-0.000039,-0.000015,-0.000969,-0.000045,  35.522
    86.2,-0.000030,-0.000017,-0.000930,-0.000010,  35.524
    86.4,-0.000032,-0.000015,-0.000890,-0.000010,  35.527
    86.6,-0.000039,-0.000019,-0.000900,-0.000045,  35.524
    86.8,-0.000032,-0.000016,-0.000924,-0.000010,  35.527
    87.0,-0.000035,-0.000018,-0.000978,-0.000010,  35.523
    87.2,-0.000041,-0.000021,-0.000943,-0.000032,  35.524
    87.4,-0.000032,-0.000017,-0.000889,0.000003,  35.524
    87.6,-0.000026,-0.000015,-0.000809,0.000003,  35.525
    87.8,-0.000019,-0.000020,-0.000760,-0.000019,  35.529
    88.0,-0.000026,-0.000020,-0.000724,0.000003,  35.526
    88.2,-0.000026,-0.000019,-0.000695,0.000003,  35.532
    88.4,-0.000026,-0.000026,-0.000726,-0.000019,  35.528
    88.6,-0.000032,-0.000022,-0.000784,0.000003,  35.532
    88.8,-0.000032,-0.000018,-0.000878,0.000003,  35.532
    89.0,-0.000032,-0.000022,-0.000878,-0.000019,  35.537
    89.2,-0.000039,-0.000024,-0.000874,0.000003,  35.536
    89.4,-0.000030,-0.000022,-0.000824,0.000003,  35.535
    89.6,-0.000032,-0.000024,-0.001340,-0.000032,  35.537
    89.8,-0.000040,-0.000022,-0.002118,-0.000010,  35.540
    90.0,-0.000029,-0.000023,-0.003168,-0.000010,  35.541
    90.2,-0.000025,-0.000026,-0.003213,-0.000045,  35.541
    90.4,-0.000029,-0.000029,-0.002900,-0.000010,  35.543
    90.6,-0.000030,-0.000028,-0.002217,-0.000010,  35.542
    90.8,-0.000033,-0.000030,-0.001954,-0.000045,  35.543
    91.0,-0.000034,-0.000028,-0.001720,-0.000010,  35.547
    91.2,-0.000030,-0.000028,-0.001521,-0.000010,  35.546
    91.4,-0.000035,-0.000032,-0.001347,-0.000045,  35.546
    91.6,-0.000039,-0.000034,-0.001202,-0.000010,  35.546
    91.8,-0.000039,-0.000033,-0.001092,-0.000010,  35.548
    92.0,-0.000039,-0.000036,-0.001042,0.000003,  35.540
    92.2,-0.000043,-0.000039,-0.001037,-0.000010,  35.548
    92.4,-0.000043,-0.000035,-0.001091,-0.000010,  35.551
    92.6,-0.000036,-0.000039,-0.001070,-0.000010,  35.553
    92.8,-0.000040,-0.000032,-0.001051,-0.000023,  35.546
    93.0,-0.000040,-0.000027,-0.001010,0.000000,  35.549
    93.2,-0.000034,-0.000029,-0.000981,0.000000,  35.552
    93.4,-0.000035,-0.000024,-0.000957,0.000000,  35.551
    93.6,-0.000035,-0.000024,-0.000912,0.000000,  35.557
    93.8,-0.000029,-0.000022,-0.000866,0.000000,  35.557
    94.0,-0.000032,-0.000022,-0.000891,0.000000,  35.551
    94.2,-0.000027,-0.000018,-0.000935,0.000000,  35.559
    94.4,-0.000021,-0.000018,-0.001019,0.000000,  35.558
    94.6,-0.000024,-0.000014,-0.001073,-0.000036,  35.560
    94.8,-0.000024,-0.000014,-0.001123,-0.000036,  35.557
    95.0,-0.000018,-0.000009,-0.001173,-0.000036,  35.559
    95.2,-0.000024,-0.000009,-0.001383,-0.000071,  35.565
    95.4,-0.000024,-0.000008,-0.001697,-0.000036,  35.561
    95.6,-0.000021,-0.000009,-0.002106,-0.000036,  35.564
    95.8,-0.000024,-0.000006,-0.002052,-0.000071,  35.564
    96.0,-0.000013,-0.000001,-0.001829,-0.000036,  35.560
    96.2,-0.000001,-0.000002,-0.001441,-0.000036,  35.566
    96.4,-0.000002,-0.000000,-0.001312,-0.000058,  35.565
    96.6,0.000007,0.000002,-0.001236,-0.000023,  35.563
    96.8,0.000012,0.000006,-0.001215,-0.000023,  35.562
    97.0,0.000015,0.000001,-0.001130,-0.000045,  35.562
    97.2,0.000013,0.000006,-0.001056,-0.000023,  35.566
    97.4,0.000017,0.000010,-0.000965,-0.000023,  35.565
    97.6,0.000020,0.000008,-0.000915,-0.000045,  35.566
    97.8,0.000022,0.000016,-0.000884,-0.000023,  35.563
    98.0,0.000017,0.000020,-0.000868,-0.000023,  35.558
    98.2,0.000012,0.000022,-0.000858,-0.000045,  35.562
    98.4,0.000006,0.000025,-0.000867,-0.000010,  35.562
    98.6,0.000012,0.000027,-0.000896,-0.000010,  35.560
    98.8,0.000009,0.000025,-0.001166,-0.000045,  35.560
    99.0,0.000009,0.000024,-0.001566,-0.000010,  35.560
    99.2,0.000007,0.000023,-0.002104,-0.000010,  35.562
    99.4,0.000008,0.000023,-0.002123,-0.000045,  35.563
    99.6,0.000005,0.000020,-0.001953,-0.000010,  35.566
    99.8,-0.000001,0.000019,-0.001598,-0.000010,  35.562
   100.0,0.000003,0.000021,-0.001488,-0.000045,  35.565
   100.2,-0.000004,0.000015,-0.001418,-0.000010,  35.566
   100.4,-0.000006,0.000011,-0.001383,-0.000010,  35.567
   100.6,-0.000006,0.000011,-0.001264,0.000003,  35.571
   100.8,-0.000010,0.000006,-0.001125,-0.000010,  35.574
   101.0,-0.000006,0.000011,-0.000971,-0.000010,  35.569
   101.2,-0.000006,0.000007,-0.000917,-0.000032,  35.575
   101.4,-0.000010,0.000003,-0.000896,0.000003,  35.573
   101.6,-0.000004,0.000002,-0.000921,-0.000010,  35.578
   101.8,-0.000004,-0.000003,-0.000892,-0.000010,  35.577
   102.0,-0.000008,-0.000003,-0.000821,-0.000045,  35.581
   102.2,-0.000006,-0.000002,-0.000777,-0.000023,  35.583
   102.4,-0.000012,-0.000000,-0.000702,-0.000023,  35.583
   102.6,-0.000013,0.000001,-0.000708,-0.000045,  35.587
   102.8,-0.000004,0.000006,-0.000727,-0.000010,  35.584
   103.0,0.000001,0.000005,-0.000772,-0.000010,  35.583
   103.2,0.000003,0.000004,-0.000747,-0.000045,  35.583
   103.4,0.000011,0.000006,-0.000717,-0.000010,  35.578
   103.6,0.000019,0.000008,-0.000657,-0.000010,  35.581
   103.8,0.000020,0.000005,-0.000842,-0.000045,  35.580
   104.0,0.000028,0.000007,-0.001157,-0.000023,  35.583
   104.2,0.000036,0.000012,-0.001574,-0.000023,  35.581
   104.4,0.000037,0.000019,-0.001579,-0.000045,  35.578
   104.6,0.000052,0.000027,-0.001455,-0.000023,  35.579
   104.8,0.000059,0.000039,-0.001169,-0.000023,  35.578
   105.0,0.000058,0.000042,-0.001024,-0.000032,  35.570
   105.2,0.000072,0.000055,-0.000895,0.000003,  35.564
   105.4,0.000080,0.000063,-0.000750,0.000017,  35.563
   105.6,0.000089,0.000069,-0.000679,-0.000019,  35.567
   105.8,0.000086,0.000079,-0.000654,0.000017,  35.566
   106.0,0.000092,0.000090,-0.000657,0.000030,  35.566
   106.2,0.000089,0.000098,-0.000847,-0.000019,  35.561
   106.4,0.000095,0.000105,-0.001141,0.000017,  35.562
   106.6,0.000097,0.000114,-0.001544,0.000030,  35.559
   106.8,0.000105,0.000117,-0.001544,-0.000006,  35.561
   107.0,0.000101,0.000120,-0.001389,0.000030,  35.561
   107.2,0.000099,0.000123,-0.001089,0.000043,  35.565
   107.4,0.000105,0.000124,-0.000958,0.000007,  35.561
   107.6,0.000108,0.000123,-0.000844,0.000030,  35.559
   107.8,0.000102,0.000132,-0.000728,0.000043,  35.558
   108.0,0.000113,0.000132,-0.000637,0.000007,  35.558
   108.2,0.000110,0.000133,-0.000567,0.000030,  35.555
   108.4,0.000098,0.000139,-0.000511,0.000043,  35.553
   108.6,0.000100,0.000138,-0.000456,0.000007,  35.553
   108.8,0.000091,0.000138,-0.000420,0.000030,  35.551
   109.0,0.000091,0.000139,-0.000410,0.000043,  35.549
   109.2,0.000093,0.000134,-0.000410,-0.000006,  35.551
   109.4,0.000089,0.000130,-0.000439,0.000017,  35.547
   109.6,0.000098,0.000123,-0.000478,0.000017,  35.546
   109.8,0.000101,0.000114,-0.000468,0.000017,  35.543
   110.0,0.000097,0.000121,-0.000457,0.000030,  35.547
   110.2,0.000097,0.000118,-0.000432,0.000017,  35.542
   110.4,0.000092,0.000111,-0.000387,-0.000006,  35.540
   110.6,0.000088,0.000114,-0.000343,0.000017,  35.540
   110.8,0.000091,0.000112,-0.000268,0.000003,  35.537
   111.0,0.000093,0.000108,-0.000203,0.000017,  35.533
   111.2,0.000092,0.000109,-0.000158,-0.000019,  35.533
   111.4,0.000101,0.000107,-0.000131,0.000017,  35.530
   111.6,0.000107,0.000100,-0.000109,0.000030,  35.530
   111.8,0.000109,0.000098,-0.000074,-0.000019,  35.532
   112.0,0.000122,0.000094,-0.000013,0.000017,  35.529
   112.2,0.000139,0.000092,0.000054,0.000017,  35.533
   112.4,0.000140,0.000091,0.000049,-0.000019,  35.528
   112.6,0.000147,0.000089,0.000047,0.000003,  35.530
   112.8,0.000156,0.000091,0.000015,0.000003,  35.532
   113.0,0.000163,0.000093,0.000061,-0.000019,  35.529
   113.2,0.000176,0.000098,0.000114,0.000003,  35.528
   113.4,0.000189,0.000102,0.000192,0.000003,  35.531
   113.6,0.000198,0.000106,0.000320,-0.000019,  35.529
   113.8,0.000217,0.000110,0.000462,0.000003,  35.530
   114.0,0.000239,0.000119,0.000630,0.000003,  35.530
   114.2,0.000251,0.000125,0.000772,-0.000019,  35.533
   114.4,0.000269,0.000134,0.000921,0.000003,  35.531
   114.6,0.000291,0.000144,0.001043,0.000003,  35.536
   114.8,0.000309,0.000145,0.001231,-0.000019,  35.534
   115.0,0.000324,0.000153,0.001430,0.000003,  35.532
   115.2,0.000342,0.000159,0.001656,0.000003,  35.533
   115.4,0.000367,0.000162,0.001811,-0.000019,  35.535
   115.6,0.000396,0.000171,0.001911,0.000003,  35.535
   115.8,0.000422,0.000185,0.001998,0.000003,  35.539
   116.0,0.000454,0.000196,0.001947,-0.000019,  35.543
   116.2,0.000481,0.000211,0.001810,0.000003,  35.539
   116.4,0.000515,0.000221,0.001582,0.000003,  35.541
   116.6,0.000559,0.000233,0.001220,-0.000032,  35.542
   116.8,0.000586,0.000249,0.000728,-0.000010,  35.538
   117.0,0.000629,0.000269,0.000133,-0.000010,  35.540
   117.2,0.000670,0.000287,0.000535,-0.000010,  35.546
   117.4,0.000703,0.000305,0.001364,0.000026,  35.543
   117.6,0.000751,0.000324,0.002635,0.000026,  35.545
   117.8,0.000788,0.000343,0.003324,0.000026,  35.547
   118.0,0.000824,0.000366,0.003938,0.000026,  35.541
   118.2,0.000875,0.000382,0.004490,0.000026,  35.547
   118.4,0.000919,0.000404,0.005011,0.000026,  35.549
   118.6,0.000963,0.000425,0.005481,0.000013,  35.549
   118.8,0.001013,0.000448,0.005908,0.000013,  35.549
   119.0,0.001068,0.000469,0.006391,0.000013,  35.552
   119.2,0.001122,0.000491,0.006869,0.000013,  35.550
   119.4,0.001182,0.000519,0.007339,0.000013,  35.553
   119.6,0.001249,0.000546,0.007772,0.000013,  35.548
   119.8,0.001308,0.000572,0.008178,-0.000036,  35.550
   120.0,0.001374,0.000604,0.008565,0.000000,  35.550
   120.2,0.001446,0.000629,0.008931,0.000000,  35.553
   120.4,0.001511,0.000665,0.009423,0.000000,  35.549
   120.6,0.001581,0.000700,0.009954,0.000000,  35.553
   120.8,0.001664,0.000733,0.010507,0.000000,  35.557
   121.0,0.001737,0.000770,0.010677,0.000013,  35.553
   121.2,0.001813,0.000810,0.010673,0.000013,  35.555
   121.4,0.001901,0.000849,0.010509,0.000013,  35.561
   121.6,0.001981,0.000886,0.011211,0.000013,  35.559
   121.8,0.002065,0.000932,0.012268,0.000000,  35.560
   122.0,0.002152,0.000966,0.013682,0.000000,  35.558
   122.2,0.002238,0.001006,0.014652,0.000000,  35.560
   122.4,0.002337,0.001032,0.015563,0.000000,  35.564
   122.6,0.002435,0.001069,0.016430,0.000000,  35.564
   122.8,0.002529,0.001114,0.017335,0.000000,  35.562
   123.0,0.002632,0.001164,0.018205,0.000000,  35.560
   123.2,0.002741,0.001214,0.019073,0.000000,  35.563
   123.4,0.002843,0.001265,0.020000,-0.000036,  35.562
   123.6,0.002953,0.001316,0.020940,-0.000036,  35.562
   123.8,0.003071,0.001373,0.021905,-0.000036,  35.565
   124.0,0.003168,0.001428,0.022872,-0.000071,  35.565
   124.2,0.003251,0.001487,0.023846,-0.000036,  35.562
   124.4,0.003333,0.001549,0.024829,-0.000036,  35.565
   124.6,0.003414,0.001608,0.025830,-0.000058,  35.560
   124.8,0.003527,0.001673,0.026839,-0.000023,  35.562
   125.0,0.003654,0.001736,0.027862,-0.000023,  35.560
   125.2,0.003791,0.001799,0.028952,-0.000045,  35.565
   125.4,0.003917,0.001868,0.030072,-0.000023,  35.563
   125.6,0.004054,0.001938,0.031239,-0.000023,  35.564
   125.8,0.004196,0.002003,0.032410,-0.000045,  35.569
   126.0,0.004332,0.002076,0.033584,-0.000023,  35.571
   126.2,0.004478,0.002149,0.034783,-0.000023,  35.568
   126.4,0.004630,0.002226,0.035997,-0.000045,  35.571
   126.6,0.004772,0.002300,0.037232,-0.000023,  35.568
   126.8,0.004929,0.002379,0.038476,-0.000023,  35.573
   127.0,0.005084,0.002464,0.039784,-0.000045,  35.572
   127.2,0.005234,0.002545,0.041125,-0.000023,  35.567
   127.4,0.005399,0.002630,0.042521,-0.000023,  35.567
   127.6,0.005558,0.002717,0.043933,-0.000023,  35.568
   127.8,0.005716,0.002803,0.045355,-0.000023,  35.570
   128.0,0.005887,0.002884,0.046810,-0.000023,  35.571
   128.2,0.006055,0.002970,0.048316,-0.000045,  35.568
   128.4,0.006224,0.003061,0.049862,-0.000010,  35.570
   128.6,0.006408,0.003154,0.051443,-0.000010,  35.574
   128.8,0.006592,0.003249,0.052739,-0.000010,  35.567
   129.0,0.006769,0.003344,0.053912,-0.000045,  35.571
   129.2,0.006952,0.003440,0.054970,-0.000010,  35.572
   129.4,0.007139,0.003541,0.055892,-0.000010,  35.571
   129.6,0.007324,0.003641,0.057125,-0.000045,  35.571
   129.8,0.007513,0.003746,0.058407,-0.000010,  35.574
   130.0,0.007712,0.003855,0.059758,-0.000010,  35.571
   130.2,0.007902,0.003963,0.061481,-0.000045,  35.570
   130.4,0.008103,0.004076,0.063395,-0.000010,  35.571
   130.6,0.008309,0.004186,0.065527,-0.000010,  35.575
   130.8,0.008508,0.004291,0.067430,-0.000045,  35.572
   131.0,0.008720,0.004399,0.069316,-0.000010,  35.576
   131.2,0.008934,0.004496,0.071193,-0.000010,  35.577
   131.4,0.009142,0.004585,0.073139,-0.000045,  35.579
   131.6,0.009359,0.004670,0.075100,-0.000010,  35.581
   131.8,0.009582,0.004749,0.077083,-0.000010,  35.587
   132.0,0.009802,0.004858,0.079086,-0.000045,  35.587
   132.2,0.010028,0.004981,0.081093,-0.000010,  35.590
   132.4,0.010263,0.005107,0.083108,-0.000010,  35.588
   132.6,0.010487,0.005229,0.085172,-0.000045,  35.585
   132.8,0.010718,0.005355,0.087295,-0.000010,  35.585
   133.0,0.010951,0.005483,0.089416,-0.000010,  35.588
   133.2,0.011155,0.005606,0.091490,-0.000045,  35.585
   133.4,0.011334,0.005739,0.093584,-0.000010,  35.578
   133.6,0.011506,0.005874,0.095642,-0.000010,  35.571
   133.8,0.011659,0.006007,0.097817,-0.000032,  35.570
   134.0,0.011886,0.006144,0.100036,0.000003,  35.567
   134.2,0.012128,0.006280,0.102299,0.000003,  35.568
   134.4,0.012389,0.006419,0.104514,-0.000019,  35.564
   134.6,0.012634,0.006560,0.106719,0.000003,  35.569
   134.8,0.012887,0.006699,0.108921,0.000003,  35.566
   135.0,0.013144,0.006838,0.111209,-0.000019,  35.566
   135.2,0.013396,0.006983,0.113536,0.000003,  35.564
   135.4,0.013660,0.007125,0.115910,0.000003,  35.562
   135.6,0.013919,0.007268,0.118251,-0.000019,  35.562
   135.8,0.014175,0.007420,0.120616,0.000003,  35.562
   136.0,0.014439,0.007567,0.122994,0.000017,  35.563
   136.2,0.014696,0.007716,0.125407,-0.000019,  35.560
   136.4,0.014955,0.007876,0.127820,0.000017,  35.559
   136.6,0.015225,0.008030,0.130272,0.000017,  35.559
   136.8,0.015491,0.008183,0.132701,0.000030,  35.559
   137.0,0.015750,0.008340,0.135088,0.000030,  35.558
   137.2,0.016026,0.008496,0.137492,0.000017,  35.558
   137.4,0.016295,0.008651,0.139978,-0.000006,  35.555
   137.6,0.016558,0.008805,0.142488,0.000030,  35.553
   137.8,0.016839,0.008966,0.145035,0.000017,  35.555
   138.0,0.017114,0.009123,0.147207,0.000030,  35.554
   138.2,0.017386,0.009285,0.149247,-0.000019,  35.555
   138.4,0.017673,0.009451,0.151083,0.000017,  35.548
   138.6,0.017949,0.009613,0.152767,0.000030,  35.555
   138.8,0.018225,0.009777,0.155161,-0.000019,  35.552
   139.0,0.018507,0.009943,0.157746,0.000017,  35.555
   139.2,0.018793,0.010110,0.160545,0.000030,  35.554
   139.4,0.019066,0.010277,0.163063,-0.000019,  35.552
   139.6,0.019351,0.010452,0.165546,0.000017,  35.552
   139.8,0.019635,0.010594,0.167970,0.000030,  35.554
   140.0,0.019917,0.010727,0.170592,-0.000019,  35.553
   140.2,0.020205,0.010846,0.173289,0.000017,  35.553
   140.4,0.020488,0.010956,0.176056,0.000030,  35.555
   140.6,0.020767,0.011107,0.178751,-0.000019,  35.556
   140.8,0.021053,0.011283,0.181432,0.000017,  35.554
   141.0,0.021340,0.011467,0.184120,0.000030,  35.551
   141.2,0.021620,0.011640,0.186795,-0.000019,  35.552
   141.4,0.021903,0.011812,0.189413,0.000017,  35.554
   141.6,0.022187,0.011984,0.192005,0.000030,  35.555
   141.8,0.022430,0.012158,0.194153,-0.000006,  35.552
   142.0,0.022649,0.012330,0.196035,0.000030,  35.552
   142.2,0.022857,0.012507,0.197640,0.000043,  35.552
   142.4,0.023046,0.012685,0.200251,0.000007,  35.551
   142.6,0.023309,0.012857,0.203256,0.000030,  35.553
   142.8,0.023593,0.013035,0.206664,0.000043,  35.551
   143.0,0.023892,0.013208,0.209561,0.000007,  35.549
   143.2,0.024171,0.013383,0.212407,0.000030,  35.551
   143.4,0.024453,0.013561,0.215204,0.000043,  35.551
   143.6,0.024736,0.013734,0.217964,0.000030,  35.552
   143.8,0.025013,0.013906,0.220685,0.000052,  35.550
   144.0,0.025290,0.014080,0.223343,0.000065,  35.551
   144.2,0.025568,0.014251,0.226040,0.000052,  35.547
   144.4,0.025839,0.014427,0.228761,0.000052,  35.546
   144.6,0.026124,0.014604,0.231464,0.000065,  35.548
   144.8,0.026406,0.014777,0.234102,0.000052,  35.546
   145.0,0.026675,0.014954,0.236702,0.000052,  35.549
   145.2,0.026960,0.015130,0.239223,0.000052,  35.551
   145.4,0.027236,0.015299,0.241832,0.000052,  35.548
   145.6,0.027500,0.015471,0.244456,0.000065,  35.551
   145.8,0.027778,0.015643,0.247078,0.000052,  35.551
   146.0,0.028046,0.015811,0.249649,0.000065,  35.547
   146.2,0.028306,0.015985,0.252224,0.000017,  35.552
   146.4,0.028571,0.016157,0.254764,0.000039,  35.552
   146.6,0.028841,0.016323,0.256785,0.000039,  35.552
   146.8,0.029098,0.016498,0.258554,0.000017,  35.554
   147.0,0.029358,0.016663,0.260023,0.000003,  35.554
   147.2,0.029625,0.016830,0.261196,0.000003,  35.553
   147.4,0.029880,0.016992,0.263494,-0.000019,  35.554
   147.6,0.030141,0.017157,0.266046,0.000003,  35.554
   147.8,0.030403,0.017321,0.268896,0.000003,  35.553
   148.0,0.030652,0.017488,0.271299,-0.000032,  35.555
   148.2,0.030899,0.017649,0.273642,-0.000023,  35.554
   148.4,0.031153,0.017810,0.275880,-0.000023,  35.555
   148.6,0.031398,0.017976,0.278198,-0.000058,  35.555
   148.8,0.031645,0.018136,0.280527,-0.000036,  35.553
   149.0,0.031900,0.018273,0.282850,-0.000049,  35.549
   149.2,0.032139,0.018390,0.285193,-0.000084,  35.554
   149.4,0.032384,0.018506,0.287498,-0.000049,  35.554
   149.6,0.032636,0.018604,0.289835,-0.000062,  35.549
   149.8,0.032875,0.018747,0.292116,-0.000097,  35.550
   150.0,0.033121,0.018902,0.294348,-0.000062,  35.556
   150.2,0.033374,0.019066,0.296537,-0.000049,  35.547
   150.4,0.033577,0.019217,0.298711,-0.000097,  35.551
   150.6,0.033758,0.019373,0.300875,-0.000088,  35.544
   150.8,0.033922,0.019524,0.303000,-0.000088,  35.545
   151.0,0.034073,0.019675,0.305165,-0.000123,  35.540
   151.2,0.034294,0.019827,0.307356,-0.000114,  35.544
   151.4,0.034529,0.019977,0.309517,-0.000114,  35.541
   151.6,0.034782,0.020124,0.311331,-0.000150,  35.538
   151.8,0.035011,0.020272,0.312976,-0.000140,  35.537
   152.0,0.035244,0.020417,0.314423,-0.000153,  35.537
   152.2,0.035480,0.020562,0.316460,-0.000189,  35.532
   152.4,0.035707,0.020712,0.318679,-0.000179,  35.528
   152.6,0.035940,0.020855,0.321127,-0.000179,  35.526
   152.8,0.036174,0.020995,0.323350,-0.000228,  35.521
   153.0,0.036398,0.021143,0.325541,-0.000192,  35.516
   153.2,0.036626,0.021283,0.327733,-0.000192,  35.516
   153.4,0.036848,0.021422,0.329806,-0.000241,  35.511
   153.6,0.037070,0.021566,0.331775,-0.000231,  35.494
   153.8,0.037296,0.021708,0.333681,-0.000244,  35.489
   154.0,0.037525,0.021841,0.335754,-0.000257,  35.488
   154.2,0.037744,0.021980,0.337833,-0.000248,  35.480
   154.4,0.037964,0.022112,0.339926,-0.000261,  35.480
   154.6,0.038193,0.022243,0.341861,-0.000274,  35.472
   154.8,0.038413,0.022379,0.343749,-0.000274,  35.466
   155.0,0.038633,0.022513,0.345526,-0.000274,  35.458
   155.2,0.038863,0.022638,0.347144,-0.000287,  35.452
   155.4,0.039095,0.022773,0.348647,-0.000336,  35.445
   155.6,0.039330,0.022903,0.350001,-0.000313,  35.430
   155.8,0.039580,0.023022,0.351255,-0.000326,  35.421
   156.0,0.039815,0.023149,0.352745,-0.000339,  35.413
   156.2,0.040056,0.023271,0.354285,-0.000365,  35.401
   156.4,0.040301,0.023403,0.355831,-0.000378,  35.387
   156.6,0.040542,0.023545,0.357791,-0.000427,  35.382
   156.8,0.040792,0.023697,0.359960,-0.000440,  35.356
   157.0,0.041046,0.023814,0.362360,-0.000440,  35.353
   157.2,0.041296,0.023919,0.364517,-0.000488,  35.334
   157.4,0.041555,0.024017,0.366625,-0.000479,  35.315
   157.6,0.041821,0.024106,0.368719,-0.000492,  35.298
   157.8,0.042089,0.024238,0.370843,-0.000541,  35.280
   158.0,0.042374,0.024381,0.372964,-0.000518,  35.268
   158.2,0.042673,0.024537,0.375071,-0.000531,  35.254
   158.4,0.042952,0.024679,0.377170,-0.000567,  35.222
   158.6,0.043242,0.024829,0.379260,-0.000531,  35.211
   158.8,0.043535,0.024978,0.381341,-0.000518,  35.192
   159.0,0.043833,0.025131,0.383614,-0.000567,  35.164
   159.2,0.044147,0.025297,0.385943,-0.000557,  35.144
   159.4,0.044463,0.025465,0.388348,-0.000544,  35.120
   159.6,0.044727,0.025620,0.390446,-0.000593,  35.095
   159.8,0.044974,0.025787,0.392386,-0.000570,  35.076
   160.0,0.045195,0.025945,0.394211,-0.000570,  35.039
   160.2,0.045395,0.026111,0.396633,-0.000619,  35.016
   160.4,0.045686,0.026288,0.399304,-0.000596,  34.991
   160.6,0.046012,0.026464,0.402170,-0.000596,  34.962
   160.8,0.046359,0.026636,0.404890,-0.000632,  34.934
   161.0,0.046697,0.026814,0.407601,-0.000596,  34.896
   161.2,0.047053,0.026984,0.410336,-0.000596,  34.872
   161.4,0.047415,0.027160,0.413068,-0.000596,  34.825
   161.6,0.047777,0.027338,0.415769,-0.000573,  34.806
   161.8,0.048158,0.027512,0.418473,-0.000573,  34.766
   162.0,0.048548,0.027701,0.421248,-0.000560,  34.733
   162.2,0.048917,0.027895,0.424007,-0.000573,  34.700
   162.4,0.049286,0.028092,0.426796,-0.000560,  34.647
   162.6,0.049653,0.028299,0.429790,-0.000534,  34.624
   162.8,0.050026,0.028509,0.432833,-0.000521,  34.580
   163.0,0.050408,0.028734,0.435988,-0.000508,  34.543
   163.2,0.050785,0.028936,0.439137,-0.000531,  34.503
   163.4,0.051170,0.029144,0.442253,-0.000518,  34.447
   163.6,0.051575,0.029349,0.445402,-0.000518,  34.408
   163.8,0.051973,0.029552,0.448511,-0.000505,  34.368
   164.0,0.052374,0.029759,0.451590,-0.000505,  34.325
   164.2,0.052792,0.029966,0.454638,-0.000492,  34.268
   164.4,0.053206,0.030177,0.457926,-0.000501,  34.208
   164.6,0.053617,0.030400,0.461274,-0.000453,  34.174
   164.8,0.054030,0.030622,0.464732,-0.000427,  34.132
   165.0,0.054448,0.030851,0.467700,-0.000401,  34.079
   165.2,0.054849,0.031082,0.470481,-0.000423,  34.023
   165.4,0.055250,0.031318,0.473025,-0.000375,  33.962
   165.6,0.055647,0.031556,0.475375,-0.000349,  33.920
   165.8,0.056028,0.031790,0.478756,-0.000358,  33.866
   166.0,0.056413,0.032022,0.482414,-0.000309,  33.814
   166.2,0.056786,0.032245,0.486386,-0.000283,  33.763
   166.4,0.057153,0.032468,0.489993,-0.000306,  33.699
   166.6,0.057527,0.032690,0.493535,-0.000244,  33.659
   166.8,0.057895,0.032878,0.496982,-0.000218,  33.603
   167.0,0.058253,0.033049,0.500505,-0.000228,  33.550
   167.2,0.058619,0.033194,0.504045,-0.000166,  33.489
   167.4,0.058976,0.033329,0.507509,-0.000140,  33.418
   167.6,0.059327,0.033524,0.510892,-0.000150,  33.377
   167.8,0.059682,0.033735,0.514285,-0.000088,  33.321
   168.0,0.060034,0.033963,0.517552,-0.000049,  33.265
   168.2,0.060353,0.034168,0.521008,-0.000045,  33.212
   168.4,0.060660,0.034378,0.524492,0.000003,  33.141
   168.6,0.060958,0.034577,0.528033,0.000043,  33.105
   168.8,0.061206,0.034776,0.531440,0.000046,  33.043
   169.0,0.061413,0.034977,0.534815,0.000095,  32.992
   169.2,0.061598,0.035172,0.538116,0.000134,  32.938
   169.4,0.061752,0.035352,0.541365,0.000137,  32.872
   169.6,0.061984,0.035531,0.544572,0.000199,  32.835
   169.8,0.062226,0.035703,0.547657,0.000225,  32.782
   170.0,0.062480,0.035856,0.550601,0.000216,  32.737
   170.2,0.062698,0.036012,0.553430,0.000277,  32.678
   170.4,0.062910,0.036153,0.556087,0.000304,  32.626
   170.6,0.063116,0.036291,0.558866,0.000281,  32.592
   170.8,0.063300,0.036431,0.561594,0.000343,  32.545
   171.0,0.063482,0.036563,0.564263,0.000382,  32.499
   171.2,0.063655,0.036686,0.566938,0.000372,  32.457
   171.4,0.063807,0.036812,0.569509,0.000434,  32.403
   171.6,0.063958,0.036932,0.572051,0.000460,  32.374
   171.8,0.064104,0.037038,0.574538,0.000451,  32.332
   172.0,0.064216,0.037140,0.576928,0.000499,  32.295
   172.2,0.064314,0.037243,0.579208,0.000512,  32.259
   172.4,0.064396,0.037333,0.581423,0.000526,  32.220
   172.6,0.064462,0.037418,0.583588,0.000552,  32.199
   172.8,0.064520,0.037501,0.585605,0.000565,  32.170
   173.0,0.064572,0.037567,0.587501,0.000591,  32.141
   173.2,0.064611,0.037620,0.589258,0.000604,  32.115
   173.4,0.064648,0.037662,0.590856,0.000653,  32.091
   173.6,0.064688,0.037703,0.592218,0.000679,  32.067
   173.8,0.064703,0.037737,0.593413,0.000705,  32.047
   174.0,0.064718,0.037767,0.594414,0.000718,  32.031
   174.2,0.064728,0.037786,0.595176,0.000744,  32.013
   174.4,0.064712,0.037803,0.596355,0.000721,  32.004
   174.6,0.064700,0.037814,0.597584,0.000721,  31.987
   174.8,0.064670,0.037816,0.598782,0.000735,  31.979
   175.0,0.064631,0.037819,0.599960,0.000699,  31.976
   175.2,0.064573,0.037817,0.601100,0.000748,  31.970
   175.4,0.064501,0.037815,0.602201,0.000761,  31.968
   175.6,0.064428,0.037804,0.603218,0.000725,  31.968
   175.8,0.064340,0.037794,0.604196,0.000774,  31.966
   176.0,0.064242,0.037778,0.605057,0.000787,  31.975
   176.2,0.064148,0.037751,0.605684,0.000751,  31.978
   176.4,0.064044,0.037710,0.606145,0.000787,  31.985
   176.6,0.063947,0.037663,0.606465,0.000800,  31.997
   176.8,0.063829,0.037608,0.606844,0.000777,  32.005
   177.0,0.063707,0.037555,0.607046,0.000800,  32.020
   177.2,0.063574,0.037493,0.607170,0.000787,  32.044
   177.4,0.063440,0.037430,0.607378,0.000787,  32.060
   177.6,0.063307,0.037371,0.607497,0.000809,  32.081
   177.8,0.063173,0.037307,0.607586,0.000796,  32.102
   178.0,0.063049,0.037234,0.607592,0.000796,  32.120
   178.2,0.062922,0.037153,0.607473,0.000809,  32.151
   178.4,0.062810,0.037075,0.607277,0.000809,  32.179
   178.6,0.062701,0.036988,0.606634,0.000809,  32.209
   178.8,0.062541,0.036896,0.605691,0.000809,  32.235
   179.0,0.062360,0.036805,0.604449,0.000809,  32.264
   179.2,0.062163,0.036711,0.604125,0.000774,  32.302
   179.4,0.061975,0.036618,0.604055,0.000774,  32.338
   179.6,0.061788,0.036524,0.604239,0.000774,  32.370
   179.8,0.061601,0.036420,0.603951,0.000725,  32.401
   180.0,0.061404,0.036305,0.603616,0.000748,  32.442
   180.2,0.061202,0.036186,0.603117,0.000761,  32.484
   180.4,0.061004,0.036073,0.602559,0.000699,  32.536
   180.6,0.060792,0.035951,0.601937,0.000721,  32.568
   180.8,0.060581,0.035834,0.601163,0.000721,  32.608
   181.0,0.060371,0.035715,0.600023,0.000673,  32.653
   181.2,0.060154,0.035589,0.598677,0.000695,  32.699
   181.4,0.059947,0.035463,0.597004,0.000682,  32.754
   181.6,0.059736,0.035331,0.596072,0.000682,  32.790
   181.8,0.059504,0.035202,0.595391,0.000682,  32.836
   182.0,0.059279,0.035065,0.594871,0.000669,  32.884
   182.2,0.059039,0.034927,0.594197,0.000634,  32.931
   182.4,0.058802,0.034800,0.593609,0.000656,  32.991
   182.6,0.058577,0.034671,0.592983,0.000643,  33.035
   182.8,0.058341,0.034530,0.592449,0.000643,  33.080
   183.0,0.058101,0.034389,0.591435,0.000594,  33.129
   183.2,0.057874,0.034244,0.590200,0.000617,  33.178
   183.4,0.057637,0.034101,0.588850,0.000617,  33.238
   183.6,0.057395,0.033955,0.587612,0.000568,  33.276
   183.8,0.057165,0.033812,0.586377,0.000578,  33.327
   184.0,0.056929,0.033689,0.585106,0.000578,  33.379
   184.2,0.056687,0.033574,0.583827,0.000529,  33.432
   184.4,0.056451,0.033473,0.582518,0.000552,  33.492
   184.6,0.056219,0.033382,0.581201,0.000539,  33.533
   184.8,0.055968,0.033246,0.579828,0.000503,  33.582
   185.0,0.055724,0.033101,0.578321,0.000526,  33.634
   185.2,0.055475,0.032936,0.576753,0.000526,  33.678
   185.4,0.055221,0.032791,0.575350,0.000477,  33.735
   185.6,0.054974,0.032641,0.573983,0.000499,  33.774
   185.8,0.054725,0.032500,0.572621,0.000499,  33.825
   186.0,0.054514,0.032352,0.571083,0.000464,  33.874
   186.2,0.054311,0.032200,0.569474,0.000473,  33.916
   186.4,0.054143,0.032055,0.567801,0.000473,  33.971
   186.6,0.053989,0.031905,0.566167,0.000425,  34.009
   186.8,0.053755,0.031747,0.564469,0.000434,  34.057
   187.0,0.053497,0.031596,0.562772,0.000421,  34.105
   187.2,0.053224,0.031446,0.561056,0.000385,  34.143
   187.4,0.052972,0.031292,0.559326,0.000421,  34.197
   187.6,0.052730,0.031148,0.557604,0.000408,  34.233
   187.8,0.052491,0.030994,0.555891,0.000372,  34.281
   188.0,0.052239,0.030839,0.554216,0.000408,  34.315
   188.2,0.051994,0.030690,0.552535,0.000421,  34.359
   188.4,0.051755,0.030543,0.550841,0.000372,  34.411
   188.6,0.051495,0.030389,0.549057,0.000382,  34.443
   188.8,0.051239,0.030247,0.547218,0.000395,  34.474
   189.0,0.050986,0.030099,0.545485,0.000346,  34.518
   189.2,0.050726,0.029954,0.543734,0.000369,  34.551
   189.4,0.050473,0.029809,0.541960,0.000369,  34.593
   189.6,0.050224,0.029656,0.540170,0.000333,  34.623
   189.8,0.049970,0.029505,0.538305,0.000356,  34.651
   190.0,0.049726,0.029349,0.536412,0.000356,  34.691
   190.2,0.049483,0.029193,0.534504,0.000343,  34.721
   190.4,0.049230,0.029040,0.532575,0.000356,  34.761
   190.6,0.048987,0.028890,0.530591,0.000343,  34.789
   190.8,0.048744,0.028737,0.528928,0.000307,  34.817
   191.0,0.048498,0.028595,0.527422,0.000330,  34.843
   191.2,0.048263,0.028455,0.526058,0.000317,  34.880
   191.4,0.048036,0.028302,0.524814,0.000304,  34.910
   191.6,0.047789,0.028159,0.523064,0.000268,  34.939
   191.8,0.047550,0.028015,0.521152,0.000304,  34.966
   192.0,0.047314,0.027866,0.519134,0.000291,  34.994
   192.2,0.047068,0.027729,0.517329,0.000255,  35.021
   192.4,0.046825,0.027590,0.515508,0.000304,  35.059
   192.6,0.046587,0.027445,0.513690,0.000304,  35.073
   192.8,0.046341,0.027308,0.511171,0.000268,  35.097
   193.0,0.046109,0.027164,0.508252,0.000291,  35.126
   193.2,0.045874,0.027038,0.505012,0.000304,  35.146
   193.4,0.045631,0.026925,0.503086,0.000255,  35.177
   193.6,0.045399,0.026828,0.501588,0.000242,  35.192
   193.8,0.045164,0.026738,0.500544,0.000255,  35.213
   194.0,0.044931,0.026603,0.498936,0.000242,  35.237
   194.2,0.044711,0.026461,0.497274,0.000264,  35.257
   194.4,0.044484,0.026314,0.495586,0.000277,  35.277
   194.6,0.044249,0.026168,0.493793,0.000229,  35.303
   194.8,0.044017,0.026031,0.491968,0.000251,  35.318
   195.0,0.043777,0.025897,0.490097,0.000251,  35.335
   195.2,0.043539,0.025758,0.488339,0.000216,  35.358
   195.4,0.043314,0.025626,0.486555,0.000238,  35.377
   195.6,0.043085,0.025500,0.484816,0.000251,  35.390
   195.8,0.042888,0.025363,0.482309,0.000216,  35.415
   196.0,0.042703,0.025228,0.479369,0.000251,  35.426
   196.2,0.042547,0.025091,0.476084,0.000264,  35.444
   196.4,0.042400,0.024956,0.474130,0.000216,  35.460
   196.6,0.042186,0.024815,0.472565,0.000251,  35.478
   196.8,0.041956,0.024678,0.471495,0.000251,  35.484
   197.0,0.041708,0.024546,0.469902,0.000216,  35.499
   197.2,0.041479,0.024409,0.468181,0.000238,  35.507
   197.4,0.041269,0.024281,0.466442,0.000238,  35.523
   197.6,0.041059,0.024144,0.464656,0.000216,  35.541
   197.8,0.040840,0.024011,0.462746,0.000203,  35.550
   198.0,0.040633,0.023875,0.460796,0.000203,  35.560
   198.2,0.040421,0.023742,0.458897,0.000203,  35.569
   198.4,0.040193,0.023621,0.456988,0.000190,  35.585
   198.6,0.039972,0.023495,0.455087,0.000190,  35.598
   198.8,0.039740,0.023366,0.453271,0.000190,  35.608
   199.0,0.039512,0.023249,0.451474,0.000190,  35.618
   199.2,0.039301,0.023123,0.449736,0.000190,  35.625
   199.4,0.039089,0.022992,0.447930,0.000190,  35.636
   199.6,0.038880,0.022864,0.446074,0.000154,  35.640
   199.8,0.038668,0.022732,0.444192,0.000177,  35.648
   200.0,0.038462,0.022597,0.442244,0.000154,  35.665
   200.2,0.038247,0.022470,0.440265,0.000141,  35.672
   200.4,0.038041,0.022343,0.438217,0.000177,  35.680
   200.6,0.037832,0.022215,0.436581,0.000177,  35.687
   200.8,0.037623,0.022093,0.435198,0.000190,  35.693
   201.0,0.037433,0.021976,0.433924,0.000177,  35.700
   201.2,0.037238,0.021852,0.432848,0.000177,  35.705
   201.4,0.037039,0.021731,0.431150,0.000177,  35.713
   201.6,0.036831,0.021614,0.429331,0.000164,  35.722
   201.8,0.036626,0.021495,0.427355,0.000164,  35.732
   202.0,0.036427,0.021381,0.425287,0.000164,  35.737
   202.2,0.036218,0.021270,0.423088,0.000164,  35.745
   202.4,0.036022,0.021167,0.420768,0.000164,  35.750
   202.6,0.035829,0.021070,0.418624,0.000164,  35.750
   202.8,0.035629,0.020990,0.416513,0.000164,  35.756
   203.0,0.035442,0.020915,0.414432,0.000151,  35.760
   203.2,0.035249,0.020804,0.412708,0.000151,  35.764
   203.4,0.035047,0.020693,0.411158,0.000151,  35.765
   203.6,0.034857,0.020570,0.409748,0.000137,  35.772
   203.8,0.034673,0.020462,0.408155,0.000137,  35.775
   204.0,0.034482,0.020347,0.406599,0.000151,  35.787
   204.2,0.034307,0.020237,0.404977,0.000151,  35.792
   204.4,0.034119,0.020124,0.403340,0.000151,  35.791
   204.6,0.033935,0.020013,0.401683,0.000151,  35.796
   204.8,0.033751,0.019892,0.399992,0.000151,  35.804
   205.0,0.033592,0.019777,0.398314,0.000151,  35.805
   205.2,0.033444,0.019675,0.396616,0.000137,  35.810
   205.4,0.033315,0.019573,0.394917,0.000151,  35.811
   205.6,0.033196,0.019466,0.392969,0.000151,  35.815
   205.8,0.033027,0.019356,0.390890,0.000137,  35.818
   206.0,0.032846,0.019250,0.388674,0.000151,  35.822
   206.2,0.032654,0.019141,0.386939,0.000151,  35.825
   206.4,0.032472,0.019032,0.385382,0.000137,  35.823
   206.6,0.032304,0.018932,0.383986,0.000151,  35.826
   206.8,0.032126,0.018825,0.382400,0.000137,  35.824
   207.0,0.031951,0.018721,0.380752,0.000124,  35.830
   207.2,0.031788,0.018621,0.379121,0.000137,  35.833
   207.4,0.031622,0.018519,0.377398,0.000124,  35.835
   207.6,0.031452,0.018419,0.375614,0.000124,  35.833
   207.8,0.031292,0.018319,0.373739,0.000137,  35.837
   208.0,0.031126,0.018214,0.372092,0.000124,  35.835
   208.2,0.030951,0.018117,0.370531,0.000124,  35.834
   208.4,0.030788,0.018017,0.369035,0.000124,  35.836
   208.6,0.030611,0.017919,0.367592,0.000124,  35.834
   208.8,0.030446,0.017827,0.366177,0.000089,  35.832
   209.0,0.030283,0.017744,0.364857,0.000124,  35.836
   209.2,0.030126,0.017648,0.363308,0.000102,  35.838
   209.4,0.029969,0.017550,0.361611,0.000089,  35.831
   209.6,0.029808,0.017458,0.359838,0.000124,  35.836
   209.8,0.029660,0.017359,0.358448,0.000137,  35.830
   210.0,0.029509,0.017268,0.357202,0.000111,  35.835
   210.2,0.029358,0.017180,0.356076,0.000134,  35.834
   210.4,0.029216,0.017090,0.355087,0.000147,  35.834
   210.6,0.029067,0.017003,0.353659,0.000098,  35.833
   210.8,0.028919,0.016919,0.352155,0.000134,  35.834
   211.0,0.028768,0.016834,0.350588,0.000147,  35.831
   211.2,0.028619,0.016745,0.349129,0.000098,  35.831
   211.4,0.028471,0.016668,0.347680,0.000134,  35.830
   211.6,0.028329,0.016595,0.346231,0.000147,  35.826
   211.8,0.028184,0.016528,0.344730,0.000098,  35.834
   212.0,0.028041,0.016465,0.343239,0.000134,  35.832
   212.2,0.027903,0.016410,0.341721,0.000147,  35.834
   212.4,0.027763,0.016333,0.340258,0.000098,  35.834
   212.6,0.027614,0.016252,0.338771,0.000134,  35.830
   212.8,0.027472,0.016161,0.337306,0.000147,  35.835
   213.0,0.027332,0.016077,0.335836,0.000098,  35.831
   213.2,0.027184,0.015990,0.334331,0.000134,  35.829
   213.4,0.027051,0.015909,0.332810,0.000147,  35.825
   213.6,0.026934,0.015830,0.331333,0.000098,  35.828
   213.8,0.026827,0.015742,0.329844,0.000134,  35.829
   214.0,0.026744,0.015661,0.328388,0.000147,  35.827
   214.2,0.026666,0.015582,0.326964,0.000098,  35.830
   214.4,0.026537,0.015501,0.325565,0.000134,  35.825
   214.6,0.026404,0.015419,0.324177,0.000147,  35.824
   214.8,0.026256,0.015344,0.322915,0.000098,  35.819
   215.0,0.026125,0.015272,0.321716,0.000134,  35.822
   215.2,0.025995,0.015203,0.320600,0.000134,  35.821
   215.4,0.025873,0.015125,0.319243,0.000098,  35.818
   215.6,0.025752,0.015055,0.317785,0.000121,  35.817
   215.8,0.025621,0.014981,0.316271,0.000121,  35.816
   216.0,0.025506,0.014903,0.314854,0.000098,  35.820
   216.2,0.025381,0.014833,0.313436,0.000121,  35.813
   216.4,0.025259,0.014760,0.312049,0.000121,  35.817
   216.6,0.025128,0.014686,0.310704,0.000098,  35.812
   216.8,0.025005,0.014620,0.309335,0.000121,  35.813
   217.0,0.024888,0.014549,0.308004,0.000121,  35.812
   217.2,0.024775,0.014477,0.306742,0.000085,  35.815
   217.4,0.024657,0.014404,0.305484,0.000108,  35.814
   217.6,0.024537,0.014333,0.304270,0.000108,  35.813
   217.8,0.024426,0.014263,0.302975,0.000108,  35.813
   218.0,0.024316,0.014191,0.301612,0.000108,  35.808
   218.2,0.024198,0.014133,0.300245,0.000108,  35.806
   218.4,0.024085,0.014068,0.299131,0.000072,  35.804
   218.6,0.023971,0.014007,0.298172,0.000108,  35.811
   218.8,0.023858,0.013949,0.297313,0.000108,  35.807
   219.0,0.023757,0.013886,0.296581,0.000108,  35.799
   219.2,0.023649,0.013826,0.295051,0.000072,  35.806
   219.4,0.023538,0.013760,0.293293,0.000108,  35.804
   219.6,0.023433,0.013695,0.291306,0.000108,  35.804
   219.8,0.023331,0.013635,0.290069,0.000072,  35.803
   220.0,0.023225,0.013574,0.289101,0.000108,  35.799
   220.2,0.023120,0.013522,0.288353,0.000108,  35.802
   220.4,0.023020,0.013475,0.287337,0.000072,  35.802
   220.6,0.022914,0.013437,0.286340,0.000108,  35.803
   220.8,0.022824,0.013399,0.285300,0.000108,  35.798
   221.0,0.022728,0.013342,0.284235,0.000072,  35.794
   221.2,0.022625,0.013283,0.283150,0.000108,  35.798
   221.4,0.022534,0.013223,0.282014,0.000108,  35.800
   221.6,0.022441,0.013168,0.280996,0.000072,  35.799
   221.8,0.022340,0.013116,0.280019,0.000108,  35.796
   222.0,0.022253,0.013066,0.279058,0.000108,  35.795
   222.2,0.022159,0.013013,0.278007,0.000072,  35.797
   222.4,0.022062,0.012961,0.276907,0.000108,  35.795
   222.6,0.021977,0.012908,0.275801,0.000108,  35.800
   222.8,0.021898,0.012855,0.274679,0.000072,  35.799
   223.0,0.021829,0.012807,0.273527,0.000108,  35.799
   223.2,0.021760,0.012752,0.272356,0.000108,  35.797
   223.4,0.021706,0.012702,0.271287,0.000072,  35.795
   223.6,0.021629,0.012653,0.270259,0.000108,  35.792
   223.8,0.021543,0.012605,0.269258,0.000108,  35.797
   224.0,0.021455,0.012553,0.268159,0.000072,  35.792
   224.2,0.021373,0.012499,0.267062,0.000108,  35.794
   224.4,0.021290,0.012451,0.265898,0.000108,  35.794
   224.6,0.021205,0.012403,0.264813,0.000072,  35.794
   224.8,0.021122,0.012350,0.263774,0.000108,  35.796
   225.0,0.021040,0.012307,0.262718,0.000108,  35.794
   225.2,0.020955,0.012266,0.261806,0.000072,  35.800
   225.4,0.020875,0.012217,0.260934,0.000108,  35.798
   225.6,0.020789,0.012179,0.260138,0.000108,  35.798
   225.8,0.020709,0.012136,0.259212,0.000072,  35.799
   226.0,0.020632,0.012090,0.258250,0.000108,  35.797
   226.2,0.020553,0.012046,0.257241,0.000108,  35.799
   226.4,0.020479,0.012004,0.256258,0.000108,  35.796
   226.6,0.020405,0.011958,0.255246,0.000095,  35.796
   226.8,0.020334,0.011916,0.254206,0.000095,  35.795
   227.0,0.020260,0.011875,0.253261,0.000072,  35.795
   227.2,0.020188,0.011831,0.252361,0.000095,  35.801
   227.4,0.020113,0.011792,0.251481,0.000095,  35.802
   227.6,0.020045,0.011748,0.250675,0.000095,  35.801
   227.8,0.019976,0.011707,0.249945,0.000072,  35.800
   228.0,0.019899,0.011667,0.249264,0.000095,  35.797
   228.2,0.019834,0.011629,0.248632,0.000095,  35.804
   228.4,0.019765,0.011593,0.247814,0.000072,  35.799
   228.6,0.019693,0.011562,0.246931,0.000095,  35.801
   228.8,0.019628,0.011529,0.245995,0.000095,  35.799
   229.0,0.019566,0.011486,0.245165,0.000072,  35.802
   229.2,0.019505,0.011455,0.244372,0.000095,  35.802
   229.4,0.019450,0.011428,0.243592,0.000095,  35.801
   229.6,0.019387,0.011400,0.242718,0.000072,  35.801
   229.8,0.019327,0.011372,0.241827,0.000095,  35.803
   230.0,0.019257,0.011345,0.240890,0.000095,  35.799
   230.2,0.019195,0.011310,0.240092,0.000072,  35.801
   230.4,0.019138,0.011276,0.239296,0.000108,  35.802
   230.6,0.019086,0.011240,0.238555,0.000108,  35.799
   230.8,0.019022,0.011205,0.237738,0.000072,  35.797
   231.0,0.018965,0.011175,0.236892,0.000095,  35.801
   231.2,0.018911,0.011141,0.236007,0.000095,  35.800
   231.4,0.018853,0.011108,0.235212,0.000072,  35.802
   231.6,0.018796,0.011080,0.234448,0.000095,  35.801
   231.8,0.018741,0.011054,0.233692,0.000095,  35.803
   232.0,0.018692,0.011025,0.232889,0.000072,  35.800
   232.2,0.018645,0.010991,0.232024,0.000095,  35.805
   232.4,0.018613,0.010961,0.231167,0.000095,  35.806
   232.6,0.018574,0.010930,0.230346,0.000072,  35.810
   232.8,0.018518,0.010897,0.229538,0.000095,  35.806
   233.0,0.018470,0.010867,0.228743,0.000095,  35.807
   233.2,0.018412,0.010834,0.227974,0.000072,  35.806
   233.4,0.018363,0.010806,0.227222,0.000095,  35.804
   233.6,0.018310,0.010775,0.226507,0.000095,  35.802
   233.8,0.018270,0.010742,0.225775,0.000072,  35.799
   234.0,0.018227,0.010716,0.225039,0.000095,  35.802
   234.2,0.018170,0.010695,0.224287,0.000095,  35.803
   234.4,0.018124,0.010669,0.223577,0.000072,  35.805
   234.6,0.018077,0.010638,0.222862,0.000095,  35.803
   234.8,0.018016,0.010620,0.222142,0.000095,  35.803
   235.0,0.017971,0.010596,0.221281,0.000072,  35.801
   235.2,0.017924,0.010571,0.220361,0.000095,  35.802
   235.4,0.017871,0.010557,0.219358,0.000095,  35.801
   235.6,0.017834,0.010530,0.218655,0.000108,  35.801
   235.8,0.017791,0.010502,0.218072,0.000095,  35.801
   236.0,0.017747,0.010478,0.217591,0.000095,  35.803
   236.2,0.017712,0.010454,0.217049,0.000072,  35.799
   236.4,0.017674,0.010431,0.216536,0.000095,  35.797
   236.6,0.017631,0.010405,0.216057,0.000095,  35.802
   236.8,0.017587,0.010383,0.215596,0.000095,  35.795
   237.0,0.017549,0.010361,0.215073,0.000072,  35.800
   237.2,0.017508,0.010335,0.214528,0.000095,  35.799
   237.4,0.017467,0.010308,0.213944,0.000095,  35.793
   237.6,0.017431,0.010281,0.213401,0.000072,  35.795
   237.8,0.017384,0.010266,0.212852,0.000095,  35.795
   238.0,0.017346,0.010245,0.212288,0.000095,  35.791
   238.2,0.017308,0.010224,0.211121,0.000072,  35.793
   238.4,0.017263,0.010211,0.209673,0.000095,  35.791
   238.6,0.017229,0.010197,0.207907,0.000095,  35.795
   238.8,0.017193,0.010181,0.207240,0.000072,  35.791
   239.0,0.017154,0.010165,0.206951,0.000095,  35.791
   239.2,0.017128,0.010157,0.207083,0.000095,  35.789
   239.4,0.017098,0.010139,0.206728,0.000072,  35.789
   239.6,0.017064,0.010116,0.206292,0.000095,  35.792
   239.8,0.017041,0.010101,0.205817,0.000095,  35.790
   240.0,0.017010,0.010081,0.205377,0.000072,  35.787
   240.2,0.016985,0.010063,0.204876,0.000095,  35.781
   240.4,0.016961,0.010045,0.204382,0.000095,  35.780
   240.6,0.016936,0.010029,0.203888,0.000059,  35.773
   240.8,0.016915,0.010012,0.203390,0.000082,  35.778
   241.0,0.016893,0.010002,0.202860,0.000082,  35.777
   241.2,0.016877,0.009992,0.202363,0.000046,  35.775
   241.4,0.016853,0.009976,0.201873,0.000082,  35.768
   241.6,0.016826,0.009966,0.201372,0.000082,  35.773
   241.8,0.016798,0.009958,0.200904,0.000059,  35.774
   242.0,0.016777,0.009944,0.200463,0.000095,  35.773
   242.2,0.016743,0.009936,0.200016,0.000095,  35.767
   242.4,0.016725,0.009922,0.199490,0.000072,  35.766
   242.6,0.016697,0.009907,0.198938,0.000095,  35.767
   242.8,0.016667,0.009891,0.198333,0.000095,  35.764
   243.0,0.016640,0.009879,0.197874,0.000072,  35.763
   243.2,0.016618,0.009874,0.197436,0.000095,  35.761
   243.4,0.016602,0.009869,0.197030,0.000095,  35.758
   243.6,0.016590,0.009854,0.196535,0.000059,  35.760
   243.8,0.016571,0.009846,0.196014,0.000082,  35.755
   244.0,0.016549,0.009834,0.195436,0.000082,  35.755
   244.2,0.016530,0.009824,0.194931,0.000082,  35.753
   244.4,0.016511,0.009812,0.194481,0.000082,  35.756
   244.6,0.016489,0.009806,0.194042,0.000082,  35.755
   244.8,0.016467,0.009794,0.193619,0.000046,  35.751
   245.0,0.016448,0.009783,0.193208,0.000082,  35.750
   245.2,0.016429,0.009779,0.192775,0.000082,  35.750
   245.4,0.016413,0.009771,0.192355,0.000082,  35.755
   245.6,0.016402,0.009761,0.191919,0.000046,  35.753
   245.8,0.016388,0.009758,0.191501,0.000082,  35.751
   246.0,0.016375,0.009749,0.191068,0.000082,  35.749
   246.2,0.016364,0.009740,0.190674,0.000046,  35.748
   246.4,0.016347,0.009732,0.190291,0.000082,  35.745
   246.6,0.016330,0.009723,0.189928,0.000082,  35.748
   246.8,0.016320,0.009720,0.189545,0.000046,  35.748
   247.0,0.016302,0.009719,0.189142,0.000082,  35.746
   247.2,0.016298,0.009712,0.188745,0.000082,  35.747
   247.4,0.016288,0.009707,0.188365,0.000046,  35.750
   247.6,0.016275,0.009707,0.187985,0.000082,  35.750
   247.8,0.016264,0.009707,0.187595,0.000082,  35.750
   248.0,0.016253,0.009703,0.187040,0.000046,  35.743
   248.2,0.016235,0.009699,0.186413,0.000082,  35.749
   248.4,0.016224,0.009697,0.185679,0.000082,  35.747
   248.6,0.016212,0.009693,0.185286,0.000046,  35.748
   248.8,0.016192,0.009687,0.185023,0.000082,  35.749
   249.0,0.016187,0.009683,0.184857,0.000069,  35.750
   249.2,0.016179,0.009677,0.184572,0.000069,  35.750
   249.4,0.016162,0.009676,0.184278,0.000104,  35.750
   249.6,0.016151,0.009673,0.183953,0.000104,  35.752
   249.8,0.016139,0.009666,0.183644,0.000069,  35.750
   250.0,0.016134,0.009668,0.183325,0.000082,  35.752
   250.2,0.016131,0.009665,0.182990,0.000095,  35.748
   250.4,0.016126,0.009659,0.182630,0.000059,  35.754
   250.6,0.016114,0.009657,0.182246,0.000082,  35.753
   250.8,0.016115,0.009648,0.181836,0.000082,  35.753
   251.0,0.016106,0.009642,0.181493,0.000046,  35.752
   251.2,0.016101,0.009651,0.181181,0.000082,  35.756
   251.4,0.016097,0.009655,0.180881,0.000082,  35.753
   251.6,0.016088,0.009651,0.180605,0.000046,  35.752
   251.8,0.016086,0.009653,0.180364,0.000082,  35.752
   252.0,0.016074,0.009647,0.180123,0.000082,  35.751
   252.2,0.016075,0.009644,0.179284,0.000046,  35.750
   252.4,0.016072,0.009646,0.178128,0.000082,  35.755
   252.6,0.016066,0.009646,0.176674,0.000082,  35.753
   252.8,0.016067,0.009643,0.176366,0.000046,  35.750
   253.0,0.016067,0.009642,0.176460,0.000082,  35.753
   253.2,0.016060,0.009645,0.176962,0.000082,  35.757
   253.4,0.016067,0.009641,0.176966,0.000046,  35.757
   253.6,0.016072,0.009641,0.176929,0.000082,  35.753
   253.8,0.016066,0.009643,0.176833,0.000082,  35.757
   254.0,0.016072,0.009645,0.176686,0.000046,  35.755
   254.2,0.016068,0.009649,0.176480,0.000082,  35.755
   254.4,0.016068,0.009655,0.176218,0.000082,  35.757
   254.6,0.016066,0.009656,0.176022,0.000082,  35.755
   254.8,0.016059,0.009664,0.175852,0.000082,  35.758
   255.0,0.016066,0.009671,0.175683,0.000082,  35.755
   255.2,0.016066,0.009677,0.175473,0.000082,  35.759
   255.4,0.016059,0.009681,0.175224,0.000056,  35.757
   255.6,0.016071,0.009688,0.174990,0.000091,  35.752
   255.8,0.016074,0.009692,0.174706,0.000091,  35.758
   256.0,0.016077,0.009691,0.174160,0.000091,  35.757
   256.2,0.016082,0.009698,0.173490,0.000104,  35.756
   256.4,0.016094,0.009702,0.172681,0.000104,  35.756
   256.6,0.016099,0.009706,0.172471,0.000104,  35.756
   256.8,0.016101,0.009721,0.172486,0.000091,  35.755
   257.0,0.016116,0.009727,0.172741,0.000104,  35.750
   257.2,0.016124,0.009727,0.172672,0.000104,  35.757
   257.4,0.016123,0.009733,0.172548,0.000091,  35.754
   257.6,0.016129,0.009736,0.172389,0.000104,  35.753
   257.8,0.016134,0.009744,0.172335,0.000104,  35.756
   258.0,0.016145,0.009748,0.172282,0.000104,  35.749
   258.2,0.016153,0.009756,0.172247,0.000117,  35.752
   258.4,0.016154,0.009762,0.172147,0.000082,  35.755
   258.6,0.016169,0.009773,0.172004,0.000082,  35.760
   258.8,0.016172,0.009777,0.171836,0.000095,  35.756
   259.0,0.016174,0.009787,0.171678,0.000072,  35.759
   259.2,0.016176,0.009793,0.171474,0.000095,  35.755
   259.4,0.016183,0.009808,0.171276,0.000095,  35.756
   259.6,0.016188,0.009816,0.171099,0.000072,  35.756
   259.8,0.016199,0.009820,0.170892,0.000108,  35.754
   260.0,0.016210,0.009830,0.170691,0.000108,  35.758
   260.2,0.016226,0.009834,0.170474,0.000072,  35.756
   260.4,0.016231,0.009839,0.170264,0.000108,  35.756
   260.6,0.016248,0.009851,0.170029,0.000108,  35.762
   260.8,0.016256,0.009860,0.169920,0.000072,  35.762
   261.0,0.016267,0.009872,0.169872,0.000108,  35.761
   261.2,0.016275,0.009887,0.169874,0.000108,  35.763
   261.4,0.016287,0.009897,0.169752,0.000085,  35.760
   261.6,0.016300,0.009910,0.169597,0.000121,  35.761
   261.8,0.016302,0.009918,0.169368,0.000121,  35.759
   262.0,0.016317,0.009923,0.169201,0.000098,  35.760
   262.2,0.016325,0.009930,0.169050,0.000121,  35.764
   262.4,0.016324,0.009936,0.168887,0.000121,  35.764
   262.6,0.016333,0.009941,0.168754,0.000121,  35.759
   262.8,0.016344,0.009951,0.168627,0.000134,  35.762
   263.0,0.016348,0.009957,0.168510,0.000121,  35.760
   263.2,0.016368,0.009965,0.168374,0.000085,  35.760
   263.4,0.016376,0.009969,0.168222,0.000121,  35.760
   263.6,0.016392,0.009973,0.168052,0.000121,  35.764
   263.8,0.016403,0.009981,0.167907,0.000121,  35.759
   264.0,0.016410,0.009987,0.167801,0.000085,  35.759
   264.2,0.016427,0.010000,0.167656,0.000108,  35.759
   264.4,0.016436,0.010008,0.167550,0.000108,  35.758
   264.6,0.016449,0.010019,0.167411,0.000072,  35.762
   264.8,0.016460,0.010038,0.167278,0.000108,  35.762
   265.0,0.016475,0.010046,0.167120,0.000108,  35.753
   265.2,0.016488,0.010056,0.166999,0.000072,  35.755
   265.4,0.016498,0.010068,0.166878,0.000108,  35.755
   265.6,0.016521,0.010078,0.166758,0.000108,  35.752
   265.8,0.016537,0.010083,0.166695,0.000072,  35.748
   266.0,0.016547,0.010092,0.166642,0.000108,  35.748
   266.2,0.016567,0.010098,0.166613,0.000108,  35.751
   266.4,0.016586,0.010104,0.166532,0.000072,  35.745
   266.6,0.016599,0.010117,0.166426,0.000108,  35.744
   266.8,0.016624,0.010126,0.166287,0.000108,  35.743
   267.0,0.016641,0.010133,0.166240,0.000072,  35.742
   267.2,0.016648,0.010145,0.166198,0.000108,  35.743
   267.4,0.016665,0.010158,0.166211,0.000108,  35.741
   267.6,0.016676,0.010169,0.166175,0.000072,  35.741
   267.8,0.016690,0.010190,0.166111,0.000108,  35.739
   268.0,0.016694,0.010206,0.166038,0.000108,  35.738
   268.2,0.016709,0.010215,0.165963,0.000072,  35.738
   268.4,0.016722,0.010232,0.165882,0.000108,  35.734
   268.6,0.016739,0.010240,0.165777,0.000108,  35.733
   268.8,0.016755,0.010248,0.165638,0.000072,  35.734
   269.0,0.016768,0.010260,0.165469,0.000108,  35.726
   269.2,0.016778,0.010272,0.165273,0.000108,  35.718
   269.4,0.016801,0.010279,0.165144,0.000108,  35.713
   269.6,0.016826,0.010289,0.165059,0.000130,  35.712
   269.8,0.016841,0.010304,0.164990,0.000130,  35.713
   270.0,0.016872,0.010309,0.164788,0.000108,  35.710
   270.2,0.016896,0.010319,0.164508,0.000095,  35.707
   270.4,0.016906,0.010334,0.164180,0.000095,  35.702
   270.6,0.016929,0.010346,0.164126,0.000072,  35.707
   270.8,0.016942,0.010358,0.164168,0.000095,  35.706
   271.0,0.016961,0.010381,0.164289,0.000095,  35.708
   271.2,0.016974,0.010397,0.164069,0.000072,  35.703
   271.4,0.016994,0.010406,0.163759,0.000095,  35.706
   271.6,0.017013,0.010425,0.163293,0.000095,  35.702
   271.8,0.017038,0.010439,0.163296,0.000108,  35.700
   272.0,0.017057,0.010447,0.163459,0.000095,  35.699
   272.2,0.017070,0.010459,0.163782,0.000095,  35.696
   272.4,0.017098,0.010469,0.163872,0.000059,  35.696
   272.6,0.017120,0.010483,0.163936,0.000095,  35.696
   272.8,0.017138,0.010497,0.163939,0.000082,  35.694
   273.0,0.017172,0.010508,0.163915,0.000082,  35.697
   273.2,0.017196,0.010522,0.164021,0.000046,  35.696
   273.4,0.017211,0.010535,0.164111,0.000082,  35.698
   273.6,0.017237,0.010545,0.164241,0.000069,  35.695
   273.8,0.017259,0.010564,0.164308,0.000033,  35.696
   274.0,0.017269,0.010579,0.164341,0.000069,  35.696
   274.2,0.017289,0.010590,0.164362,0.000056,  35.699
   274.4,0.017301,0.010606,0.163793,0.000020,  35.699
   274.6,0.017318,0.010623,0.162894,0.000069,  35.698
   274.8,0.017337,0.010637,0.161694,0.000069,  35.700
   275.0,0.017352,0.010643,0.161632,0.000033,  35.701
   275.2,0.017380,0.010655,0.161979,0.000069,  35.702
   275.4,0.017405,0.010669,0.162734,0.000069,  35.699
   275.6,0.017426,0.010680,0.162981,0.000033,  35.699
   275.8,0.017457,0.010693,0.163173,0.000069,  35.697
   276.0,0.017484,0.010716,0.163318,0.000069,  35.699
   276.2,0.017511,0.010727,0.163459,0.000033,  35.699
   276.4,0.017541,0.010746,0.163552,0.000069,  35.699
   276.6,0.017575,0.010762,0.163612,0.000082,  35.700
   276.8,0.017602,0.010776,0.163675,0.000046,  35.698
   277.0,0.017618,0.010796,0.163729,0.000082,  35.698
   277.2,0.017641,0.010814,0.163765,0.000095,  35.698
   277.4,0.017660,0.010830,0.163862,0.000059,  35.696
   277.6,0.017679,0.010851,0.163994,0.000082,  35.697
   277.8,0.017686,0.010871,0.164165,0.000082,  35.697
   278.0,0.017706,0.010883,0.164262,0.000046,  35.698
   278.2,0.017731,0.010897,0.164329,0.000082,  35.696
   278.4,0.017758,0.010915,0.164407,0.000082,  35.697
   278.6,0.017782,0.010927,0.164437,0.000046,  35.694
   278.8,0.017810,0.010945,0.164422,0.000082,  35.698
   279.0,0.017825,0.010970,0.164395,0.000069,  35.695
   279.2,0.017851,0.010985,0.164425,0.000033,  35.691
   279.4,0.017883,0.011003,0.164445,0.000069,  35.695
   279.6,0.017913,0.011021,0.164475,0.000056,  35.695
   279.8,0.017953,0.011039,0.164505,0.000020,  35.694
   280.0,0.017983,0.011058,0.164541,0.000069,  35.694
   280.2,0.018007,0.011079,0.164568,0.000069,  35.691
   280.4,0.018032,0.011095,0.164613,0.000033,  35.692
   280.6,0.018059,0.011112,0.164652,0.000069,  35.691
   280.8,0.018078,0.011136,0.164718,0.000069,  35.691
   281.0,0.018100,0.011154,0.164768,0.000082,  35.691
   281.2,0.018127,0.011176,0.164795,0.000082,  35.689
   281.4,0.018145,0.011196,0.164827,0.000082,  35.684
   281.6,0.018173,0.011212,0.164863,0.000046,  35.688
   281.8,0.018203,0.011227,0.164878,0.000082,  35.686
   282.0,0.018224,0.011244,0.164893,0.000082,  35.686
   282.2,0.018260,0.011262,0.164903,0.000082,  35.685
   282.4,0.018290,0.011275,0.164951,0.000046,  35.684
   282.6,0.018314,0.011300,0.165026,0.000082,  35.680
   282.8,0.018350,0.011320,0.165095,0.000082,  35.684
   283.0,0.018380,0.011334,0.165204,0.000046,  35.680
   283.2,0.018401,0.011358,0.165327,0.000082,  35.680
   283.4,0.018438,0.011372,0.165481,0.000082,  35.681
   283.6,0.018468,0.011391,0.165586,0.000046,  35.679
   283.8,0.018490,0.011399,0.165637,0.000082,  35.679
   284.0,0.018518,0.011414,0.165679,0.000082,  35.679
   284.2,0.018545,0.011432,0.165778,0.000046,  35.679
   284.4,0.018561,0.011452,0.165899,0.000082,  35.679
   284.6,0.018585,0.011474,0.166019,0.000082,  35.681
   284.8,0.018613,0.011494,0.166143,0.000059,  35.677
   285.0,0.018631,0.011503,0.166276,0.000108,  35.680
   285.2,0.018665,0.011517,0.166409,0.000108,  35.679
   285.4,0.018692,0.011537,0.166318,0.000072,  35.677
   285.6,0.018707,0.011551,0.166069,0.000108,  35.675
   285.8,0.018738,0.011573,0.165720,0.000108,  35.676
   286.0,0.018760,0.011593,0.165365,0.000072,  35.672
   286.2,0.018785,0.011607,0.164917,0.000108,  35.673
   286.4,0.018800,0.011629,0.164419,0.000108,  35.672
   286.6,0.018826,0.011643,0.164542,0.000072,  35.671
   286.8,0.018853,0.011661,0.164934,0.000095,  35.671
   287.0,0.018878,0.011679,0.165604,0.000095,  35.674
   287.2,0.018909,0.011695,0.165930,0.000072,  35.671
   287.4,0.018936,0.011719,0.166187,0.000095,  35.670
   287.6,0.018964,0.011739,0.166392,0.000095,  35.671
   287.8,0.018991,0.011755,0.166634,0.000072,  35.668
   288.0,0.019021,0.011778,0.166870,0.000108,  35.667
   288.2,0.019045,0.011792,0.167062,0.000108,  35.666
   288.4,0.019075,0.011808,0.167259,0.000072,  35.666
   288.6,0.019105,0.011827,0.167432,0.000108,  35.665
   288.8,0.019126,0.011848,0.167581,0.000108,  35.659
   289.0,0.019157,0.011868,0.167744,0.000072,  35.656
   289.2,0.019190,0.011885,0.167908,0.000108,  35.653
   289.4,0.019211,0.011910,0.168039,0.000108,  35.653
   289.6,0.019250,0.011932,0.168163,0.000108,  35.653
   289.8,0.019280,0.011955,0.168278,0.000108,  35.653
   290.0,0.019305,0.011972,0.168375,0.000108,  35.647
   290.2,0.019333,0.011996,0.168481,0.000072,  35.649
   290.4,0.019361,0.012011,0.168581,0.000108,  35.650
   290.6,0.019385,0.012030,0.168641,0.000108,  35.647
   290.8,0.019407,0.012045,0.168717,0.000108,  35.644
   291.0,0.019435,0.012067,0.168832,0.000072,  35.646
   291.2,0.019450,0.012091,0.168959,0.000108,  35.645
   291.4,0.019472,0.012107,0.169081,0.000108,  35.646
   291.6,0.019499,0.012119,0.169190,0.000072,  35.643
   291.8,0.019520,0.012130,0.169296,0.000095,  35.643
   292.0,0.019554,0.012142,0.169382,0.000095,  35.641
   292.2,0.019582,0.012160,0.168959,0.000072,  35.641
   292.4,0.019600,0.012177,0.168262,0.000108,  35.636
   292.6,0.019628,0.012191,0.167318,0.000108,  35.644
   292.8,0.019652,0.012207,0.167365,0.000072,  35.641
   293.0,0.019679,0.012221,0.167751,0.000108,  35.639
   293.2,0.019707,0.012233,0.168481,0.000108,  35.641
   293.4,0.019728,0.012245,0.168779,0.000072,  35.642
   293.6,0.019759,0.012265,0.169053,0.000108,  35.638
   293.8,0.019781,0.012282,0.169247,0.000108,  35.642
   294.0,0.019802,0.012298,0.169491,0.000072,  35.642
   294.2,0.019838,0.012319,0.169741,0.000108,  35.639
   294.4,0.019868,0.012342,0.169955,0.000108,  35.642
   294.6,0.019892,0.012356,0.170129,0.000072,  35.638
   294.8,0.019926,0.012373,0.170300,0.000108,  35.642
   295.0,0.019951,0.012389,0.170416,0.000108,  35.641
   295.2,0.019975,0.012409,0.170586,0.000072,  35.634
   295.4,0.019991,0.012429,0.170727,0.000108,  35.636
   295.6,0.020017,0.012456,0.170888,0.000108,  35.633
   295.8,0.020036,0.012474,0.171054,0.000085,  35.632
   296.0,0.020066,0.012490,0.171215,0.000121,  35.635
   296.2,0.020099,0.012505,0.171371,0.000121,  35.635
   296.4,0.020132,0.012519,0.171394,0.000098,  35.632
   296.6,0.020156,0.012538,0.171349,0.000121,  35.631
   296.8,0.020184,0.012558,0.171231,0.000121,  35.633
   297.0,0.020206,0.012574,0.171328,0.000098,  35.631
   297.2,0.020224,0.012593,0.171505,0.000121,  35.635
   297.4,0.020250,0.012621,0.171750,0.000121,  35.633
   297.6,0.020269,0.012637,0.171891,0.000098,  35.633
   297.8,0.020291,0.012659,0.172028,0.000121,  35.630
   298.0,0.020316,0.012673,0.172141,0.000121,  35.633
   298.2,0.020347,0.012687,0.172301,0.000098,  35.637
   298.4,0.020369,0.012704,0.172476,0.000121,  35.634
   298.6,0.020384,0.012714,0.172661,0.000121,  35.635
   298.8,0.020413,0.012727,0.172771,0.000121,  35.636
   299.0,0.020440,0.012752,0.172863,0.000134,  35.635
   299.2,0.020461,0.012770,0.172921,0.000121,  35.637
   299.4,0.020495,0.012782,0.173003,0.000085,  35.639
   299.6,0.020522,0.012795,0.173073,0.000121,  35.642
   299.8,0.020547,0.012807,0.173140,0.000121,  35.643
   300.0,0.020578,0.012819,0.173202,0.000121,  35.642
   300.2,0.020600,0.012836,0.173278,0.000098,  35.648
   300.4,0.020619,0.012859,0.173376,0.000121,  35.647
   300.6,0.020630,0.012877,0.173443,0.000121,  35.648
   300.8,0.020650,0.012893,0.173544,0.000098,  35.648
   301.0,0.020672,0.012912,0.173688,0.000121,  35.649
   301.2,0.020691,0.012926,0.173826,0.000121,  35.652
   301.4,0.020713,0.012942,0.173902,0.000098,  35.658
   301.6,0.020738,0.012950,0.173960,0.000121,  35.652
   301.8,0.020760,0.012961,0.173987,0.000121,  35.653
   302.0,0.020784,0.012973,0.174073,0.000098,  35.657
   302.2,0.020809,0.012981,0.174159,0.000121,  35.653
   302.4,0.020831,0.012989,0.174255,0.000121,  35.659
   302.6,0.020856,0.012999,0.174312,0.000085,  35.661
   302.8,0.020883,0.013017,0.174335,0.000108,  35.663
   303.0,0.020908,0.013030,0.174340,0.000108,  35.662
   303.2,0.020930,0.013042,0.174432,0.000072,  35.665
   303.4,0.020952,0.013049,0.174548,0.000108,  35.665
   303.6,0.020971,0.013068,0.174690,0.000108,  35.666
   303.8,0.020988,0.013088,0.174422,0.000072,  35.668
   304.0,0.021001,0.013102,0.173950,0.000108,  35.669
   304.2,0.021015,0.013127,0.173305,0.000108,  35.670
   304.4,0.021023,0.013141,0.173187,0.000072,  35.680
   304.6,0.021043,0.013152,0.173218,0.000108,  35.678
   304.8,0.021059,0.013159,0.173424,0.000108,  35.678
   305.0,0.021081,0.013171,0.173664,0.000072,  35.679
   305.2,0.021103,0.013184,0.174014,0.000108,  35.686
   305.4,0.021125,0.013195,0.174465,0.000108,  35.680
   305.6,0.021147,0.013206,0.174781,0.000072,  35.689
   305.8,0.021161,0.013222,0.175082,0.000108,  35.693
   306.0,0.021165,0.013237,0.175359,0.000108,  35.690
   306.2,0.021168,0.013251,0.175556,0.000072,  35.686
   306.4,0.021185,0.013265,0.175689,0.000095,  35.687
   306.6,0.021198,0.013279,0.175753,0.000095,  35.690
   306.8,0.021226,0.013290,0.175935,0.000072,  35.688
   307.0,0.021251,0.013296,0.176137,0.000095,  35.689
   307.2,0.021269,0.013303,0.176355,0.000082,  35.686
   307.4,0.021303,0.013313,0.176364,0.000046,  35.685
   307.6,0.021331,0.013316,0.176305,0.000056,  35.686
   307.8,0.021352,0.013322,0.176133,0.000043,  35.683
   308.0,0.021383,0.013334,0.176245,0.000043,  35.685
   308.2,0.021408,0.013348,0.176453,0.000043,  35.681
   308.4,0.021420,0.013367,0.176763,0.000056,  35.681
   308.6,0.021443,0.013382,0.176906,0.000033,  35.681
   308.8,0.021471,0.013395,0.177020,0.000056,  35.680
   309.0,0.021492,0.013417,0.177066,0.000056,  35.678
   309.2,0.021529,0.013433,0.177099,0.000069,  35.673
   309.4,0.021556,0.013446,0.177004,0.000033,  35.676
   309.6,0.021575,0.013462,0.176825,0.000069,  35.672
   309.8,0.021608,0.013472,0.176559,0.000082,  35.673
   310.0,0.021632,0.013493,0.176636,0.000046,  35.664
   310.2,0.021665,0.013514,0.176814,0.000082,  35.660
   310.4,0.021698,0.013528,0.177112,0.000095,  35.658
   310.6,0.021722,0.013548,0.177286,0.000059,  35.656
   310.8,0.021747,0.013572,0.177471,0.000082,  35.658
   311.0,0.021769,0.013589,0.177637,0.000082,  35.655
   311.2,0.021779,0.013598,0.177831,0.000046,  35.652
   311.4,0.021797,0.013615,0.178039,0.000082,  35.651
   311.6,0.021809,0.013628,0.178273,0.000082,  35.654
   311.8,0.021816,0.013646,0.178525,0.000046,  35.651
   312.0,0.021831,0.013662,0.178782,0.000082,  35.650
   312.2,0.021839,0.013682,0.179042,0.000082,  35.652
   312.4,0.021849,0.013694,0.179156,0.000046,  35.648
   312.6,0.021872,0.013703,0.179203,0.000082,  35.650
   312.8,0.021894,0.013709,0.179168,0.000082,  35.646
   313.0,0.021910,0.013717,0.179199,0.000046,  35.649
   313.2,0.021915,0.013723,0.179236,0.000082,  35.647
   313.4,0.021935,0.013735,0.179236,0.000082,  35.646
   313.6,0.021941,0.013743,0.179327,0.000059,  35.646
   313.8,0.021957,0.013754,0.179440,0.000095,  35.644
   314.0,0.021977,0.013768,0.179587,0.000095,  35.644
   314.2,0.021994,0.013776,0.179608,0.000072,  35.640
   314.4,0.022013,0.013789,0.179566,0.000095,  35.644
   314.6,0.022030,0.013801,0.179457,0.000095,  35.641
   314.8,0.022056,0.013810,0.179529,0.000072,  35.645
   315.0,0.022075,0.013819,0.179661,0.000095,  35.643
   315.2,0.022082,0.013830,0.179828,0.000095,  35.641
   315.4,0.022099,0.013842,0.179946,0.000072,  35.640
   315.6,0.022124,0.013858,0.180034,0.000095,  35.641
   315.8,0.022136,0.013872,0.180133,0.000095,  35.642
   316.0,0.022168,0.013880,0.180210,0.000072,  35.643
   316.2,0.022187,0.013893,0.180273,0.000095,  35.639
   316.4,0.022197,0.013908,0.180346,0.000095,  35.642
   316.6,0.022215,0.013917,0.180481,0.000108,  35.642
   316.8,0.022228,0.013936,0.180619,0.000095,  35.643
   317.0,0.022236,0.013956,0.180804,0.000095,  35.640
   317.2,0.022250,0.013963,0.180893,0.000072,  35.634
   317.4,0.022267,0.013975,0.180926,0.000095,  35.642
   317.6,0.022274,0.013988,0.180918,0.000095,  35.645
   317.8,0.022294,0.013989,0.180930,0.000095,  35.640
   318.0,0.022314,0.014002,0.180936,0.000072,  35.641
   318.2,0.022327,0.014009,0.180926,0.000095,  35.645
   318.4,0.022352,0.014013,0.180885,0.000082,  35.633
   318.6,0.022369,0.014023,0.180881,0.000082,  35.640
   318.8,0.022376,0.014031,0.180848,0.000104,  35.634
   319.0,0.022397,0.014039,0.180809,0.000091,  35.636
   319.2,0.022416,0.014051,0.180937,0.000091,  35.636
   319.4,0.022426,0.014069,0.181126,0.000104,  35.633
   319.6,0.022449,0.014075,0.181382,0.000104,  35.633
   319.8,0.022465,0.014083,0.181489,0.000104,  35.638
   320.0,0.022479,0.014085,0.181577,0.000104,  35.633
   320.2,0.022494,0.014091,0.181608,0.000104,  35.635
   320.4,0.022510,0.014101,0.181705,0.000104,  35.635
   320.6,0.022524,0.014116,0.181813,0.000104,  35.635
   320.8,0.022535,0.014128,0.181957,0.000104,  35.633
   321.0,0.022549,0.014130,0.182010,0.000091,  35.634
   321.2,0.022563,0.014140,0.182006,0.000078,  35.631
   321.4,0.022574,0.014145,0.181945,0.000091,  35.633
   321.6,0.022585,0.014153,0.182027,0.000056,  35.630
   321.8,0.022599,0.014166,0.182166,0.000069,  35.635
   322.0,0.022610,0.014178,0.182321,0.000069,  35.629
   322.2,0.022618,0.014188,0.182389,0.000033,  35.633
   322.4,0.022635,0.014204,0.182426,0.000069,  35.635
   322.6,0.022651,0.014214,0.182424,0.000069,  35.638
   322.8,0.022670,0.014221,0.182467,0.000069,  35.634
   323.0,0.022687,0.014236,0.182472,0.000104,  35.638
   323.2,0.022697,0.014242,0.182484,0.000104,  35.634
   323.4,0.022711,0.014250,0.182572,0.000104,  35.634
   323.6,0.022728,0.014258,0.182685,0.000104,  35.638
   323.8,0.022738,0.014267,0.182830,0.000104,  35.638
   324.0,0.022755,0.014274,0.182912,0.000104,  35.637
   324.2,0.022763,0.014282,0.182979,0.000104,  35.642
   324.4,0.022776,0.014298,0.183042,0.000104,  35.638
   324.6,0.022785,0.014306,0.183098,0.000104,  35.641
   324.8,0.022789,0.014313,0.183136,0.000104,  35.641
   325.0,0.022807,0.014322,0.183147,0.000104,  35.640
   325.2,0.022818,0.014327,0.183188,0.000117,  35.637
   325.4,0.022828,0.014337,0.183251,0.000104,  35.648
   325.6,0.022854,0.014342,0.183319,0.000104,  35.644
   325.8,0.022873,0.014346,0.183376,0.000104,  35.640
   326.0,0.022883,0.014360,0.183433,0.000069,  35.646
   326.2,0.022903,0.014367,0.183511,0.000104,  35.643
   326.4,0.022909,0.014378,0.183584,0.000104,  35.645
   326.6,0.022920,0.014385,0.183651,0.000104,  35.641
   326.8,0.022925,0.014402,0.183708,0.000104,  35.641
   327.0,0.022937,0.014414,0.183780,0.000104,  35.645
   327.2,0.022948,0.014418,0.183839,0.000104,  35.645
   327.4,0.022957,0.014431,0.183846,0.000091,  35.646
   327.6,0.022978,0.014436,0.183838,0.000104,  35.644
   327.8,0.022989,0.014440,0.183885,0.000104,  35.653
   328.0,0.022993,0.014448,0.183916,0.000091,  35.646
   328.2,0.023008,0.014449,0.183952,0.000104,  35.643
   328.4,0.023022,0.014457,0.183983,0.000104,  35.646
   328.6,0.023029,0.014457,0.183973,0.000091,  35.648
   328.8,0.023040,0.014465,0.183969,0.000104,  35.646
   329.0,0.023054,0.014467,0.184016,0.000091,  35.650
   329.2,0.023065,0.014477,0.184048,0.000078,  35.648
   329.4,0.023071,0.014482,0.184101,0.000091,  35.647
   329.6,0.023082,0.014487,0.184163,0.000078,  35.642
   329.8,0.023090,0.014495,0.184205,0.000078,  35.647
   330.0,0.023098,0.014503,0.184230,0.000091,  35.645
   330.2,0.023104,0.014509,0.184319,0.000078,  35.644
   330.4,0.023115,0.014517,0.184391,0.000078,  35.643
   330.6,0.023121,0.014528,0.184480,0.000091,  35.647
   330.8,0.023126,0.014527,0.184537,0.000078,  35.646
   331.0,0.023134,0.014532,0.184578,0.000078,  35.647
   331.2,0.023140,0.014539,0.184588,0.000091,  35.646
   331.4,0.023139,0.014543,0.184609,0.000091,  35.647
   331.6,0.023144,0.014551,0.184621,0.000091,  35.645
   331.8,0.023152,0.014565,0.184591,0.000104,  35.642
   332.0,0.023157,0.014569,0.184617,0.000104,  35.644
   332.2,0.023165,0.014572,0.184674,0.000104,  35.640
   332.4,0.023185,0.014575,0.184709,0.000104,  35.640
   332.6,0.023196,0.014576,0.184715,0.000104,  35.641
   332.8,0.023201,0.014582,0.184717,0.000104,  35.636
   333.0,0.023215,0.014591,0.184693,0.000104,  35.640
   333.2,0.023218,0.014596,0.184709,0.000104,  35.636
   333.4,0.023217,0.014604,0.184724,0.000104,  35.638
   333.6,0.023232,0.014614,0.184771,0.000104,  35.642
   333.8,0.023238,0.014620,0.184813,0.000117,  35.638
   334.0,0.023242,0.014632,0.184876,0.000104,  35.638
   334.2,0.023260,0.014638,0.184929,0.000104,  35.637
   334.4,0.023271,0.014640,0.184939,0.000104,  35.638
   334.6,0.023276,0.014644,0.184954,0.000069,  35.638
   334.8,0.023282,0.014648,0.184929,0.000104,  35.639
   335.0,0.023283,0.014654,0.184954,0.000104,  35.636
   335.2,0.023291,0.014662,0.185011,0.000069,  35.635
   335.4,0.023298,0.014674,0.185094,0.000069,  35.636
   335.6,0.023321,0.014676,0.185183,0.000069,  35.638
   335.8,0.023330,0.014680,0.185173,0.000033,  35.634
   336.0,0.023332,0.014682,0.185147,0.000069,  35.627
   336.2,0.023343,0.014684,0.185080,0.000069,  35.633
   336.4,0.023352,0.014690,0.185131,0.000033,  35.632
   336.6,0.023355,0.014703,0.185224,0.000069,  35.632
   336.8,0.023358,0.014709,0.185368,0.000082,  35.633
   337.0,0.023364,0.014713,0.185425,0.000046,  35.629
   337.2,0.023369,0.014717,0.185472,0.000082,  35.630
   337.4,0.023369,0.014727,0.185521,0.000082,  35.632
   337.6,0.023372,0.014731,0.185553,0.000046,  35.632
   337.8,0.023375,0.014733,0.185558,0.000069,  35.632
   338.0,0.023378,0.014735,0.185543,0.000091,  35.632
   338.2,0.023383,0.014737,0.185367,0.000078,  35.631
   338.4,0.023386,0.014739,0.185126,0.000114,  35.629
   338.6,0.023391,0.014744,0.184756,0.000163,  35.632
   338.8,0.023400,0.014748,0.184756,0.000163,  35.633
   339.0,0.023399,0.014748,0.184911,0.000127,  35.632
   339.2,0.023402,0.014750,0.185179,0.000140,  35.630
   339.4,0.023404,0.014752,0.185221,0.000140,  35.632
   339.6,0.023407,0.014752,0.185217,0.000127,  35.635
   339.8,0.023404,0.014750,0.185140,0.000104,  35.633
   340.0,0.023405,0.014754,0.184980,0.000104,  35.636
   340.2,0.023408,0.014755,0.184749,0.000091,  35.632
   340.4,0.023408,0.014764,0.184421,0.000069,  35.632
   340.6,0.023408,0.014766,0.184466,0.000069,  35.634
   340.8,0.023408,0.014760,0.184645,0.000091,  35.634
   341.0,0.023413,0.014760,0.184963,0.000104,  35.637
   341.2,0.023413,0.014760,0.185059,0.000104,  35.638
   341.4,0.023416,0.014758,0.185131,0.000091,  35.634
   341.6,0.023419,0.014764,0.185156,0.000104,  35.638
   341.8,0.023419,0.014766,0.185217,0.000104,  35.634
   342.0,0.023427,0.014763,0.185269,0.000104,  35.635
   342.2,0.023436,0.014767,0.185310,0.000104,  35.641
   342.4,0.023447,0.014769,0.185336,0.000104,  35.635
   342.6,0.023452,0.014769,0.185351,0.000104,  35.633
   342.8,0.023449,0.014774,0.185310,0.000104,  35.632
   343.0,0.023444,0.014780,0.185377,0.000117,  35.634
   343.2,0.023444,0.014779,0.185501,0.000104,  35.633
   343.4,0.023435,0.014787,0.185636,0.000104,  35.631
   343.6,0.023429,0.014793,0.185677,0.000104,  35.633
   343.8,0.023429,0.014790,0.185677,0.000069,  35.631
   344.0,0.023423,0.014793,0.185620,0.000104,  35.628
   344.2,0.023429,0.014793,0.185537,0.000104,  35.635
   344.4,0.023429,0.014791,0.185480,0.000104,  35.633
   344.6,0.023429,0.014789,0.185407,0.000091,  35.633
   344.8,0.023436,0.014789,0.185308,0.000140,  35.630
   345.0,0.023436,0.014785,0.185220,0.000127,  35.630
   345.2,0.023438,0.014785,0.185153,0.000114,  35.630
   345.4,0.023438,0.014787,0.185082,0.000163,  35.626
   345.6,0.023441,0.014785,0.185050,0.000163,  35.629
   345.8,0.023437,0.014785,0.185056,0.000127,  35.633
   346.0,0.023437,0.014785,0.185056,0.000140,  35.626
   346.2,0.023435,0.014785,0.185070,0.000140,  35.629
   346.4,0.023423,0.014790,0.185121,0.000127,  35.630
   346.6,0.023418,0.014790,0.185161,0.000104,  35.628
   346.8,0.023412,0.014788,0.185145,0.000104,  35.630
   347.0,0.023409,0.014784,0.185094,0.000104,  35.628
   347.2,0.023409,0.014786,0.185017,0.000069,  35.628
   347.4,0.023409,0.014782,0.184954,0.000069,  35.626
   347.6,0.023406,0.014779,0.184907,0.000104,  35.626
   347.8,0.023407,0.014772,0.184854,0.000104,  35.625
   348.0,0.023404,0.014767,0.184786,0.000104,  35.624
   348.2,0.023404,0.014767,0.184717,0.000104,  35.624
   348.4,0.023401,0.014763,0.184676,0.000104,  35.619
   348.6,0.023410,0.014758,0.184695,0.000104,  35.624
   348.8,0.023410,0.014765,0.184719,0.000091,  35.623
   349.0,0.023401,0.014768,0.184790,0.000104,  35.620
   349.2,0.023398,0.014763,0.184739,0.000104,  35.617
   349.4,0.023389,0.014768,0.184637,0.000091,  35.617
   349.6,0.023390,0.014768,0.184473,0.000104,  35.618
   349.8,0.023384,0.014764,0.184442,0.000091,  35.611
   350.0,0.023375,0.014769,0.184452,0.000078,  35.609
   350.2,0.023376,0.014772,0.184471,0.000091,  35.612
   350.4,0.023373,0.014768,0.184434,0.000078,  35.603
   350.6,0.023370,0.014765,0.184381,0.000078,  35.614
   350.8,0.023365,0.014760,0.184324,0.000091,  35.612
   351.0,0.023366,0.014756,0.184277,0.000078,  35.609
   351.2,0.023360,0.014757,0.184224,0.000078,  35.606
   351.4,0.023345,0.014752,0.184177,0.000078,  35.608
   351.6,0.023343,0.014750,0.184130,0.000078,  35.609
   351.8,0.023327,0.014745,0.184099,0.000091,  35.617
   352.0,0.023296,0.014745,0.184058,0.000078,  35.614
   352.2,0.023269,0.014743,0.183954,0.000091,  35.609
   352.4,0.023263,0.014732,0.183840,0.000056,  35.607
   352.6,0.023257,0.014730,0.183669,0.000078,  35.605
   352.8,0.023269,0.014722,0.183622,0.000091,  35.608
   353.0,0.023277,0.014708,0.183626,0.000056,  35.609
   353.2,0.023273,0.014698,0.183630,0.000069,  35.608
   353.4,0.023285,0.014694,0.183701,0.000069,  35.609
   353.6,0.023288,0.014684,0.183642,0.000020,  35.604
   353.8,0.023288,0.014681,0.183553,0.000043,  35.602
   354.0,0.023289,0.014678,0.183425,0.000056,  35.604
   354.2,0.023286,0.014680,0.182902,0.000020,  35.603
   354.4,0.023281,0.014682,0.182141,0.000056,  35.606
   354.6,0.023272,0.014680,0.181153,0.000069,  35.602
   354.8,0.023272,0.014679,0.181071,0.000033,  35.602
   355.0,0.023261,0.014678,0.181340,0.000056,  35.601
   355.2,0.023261,0.014683,0.181951,0.000069,  35.604
   355.4,0.023261,0.014676,0.181920,0.000033,  35.602
   355.6,0.023249,0.014679,0.181725,0.000056,  35.603
   355.8,0.023250,0.014676,0.181397,0.000069,  35.600
   356.0,0.023246,0.014678,0.181452,0.000033,  35.603
   356.2,0.023254,0.014673,0.181592,0.000056,  35.600
   356.4,0.023265,0.014668,0.181835,0.000069,  35.601
   356.6,0.023256,0.014665,0.181991,0.000033,  35.601
   356.8,0.023257,0.014667,0.182128,0.000056,  35.602
   357.0,0.023249,0.014670,0.182277,0.000069,  35.602
   357.2,0.023240,0.014672,0.182322,0.000033,  35.599
   357.4,0.023227,0.014673,0.182316,0.000069,  35.601
   357.6,0.023218,0.014679,0.182250,0.000069,  35.597
   357.8,0.023208,0.014679,0.182326,0.000033,  35.587
   358.0,0.023197,0.014673,0.182449,0.000056,  35.585
   358.2,0.023186,0.014675,0.182604,0.000069,  35.583
   358.4,0.023172,0.014669,0.182576,0.000033,  35.584
   358.6,0.023161,0.014656,0.182483,0.000056,  35.579
   358.8,0.023146,0.014648,0.182301,0.000069,  35.580
   359.0,0.023147,0.014637,0.182192,0.000033,  35.578
   359.2,0.023139,0.014627,0.182082,0.000056,  35.581
   359.4,0.023119,0.014622,0.181957,0.000069,  35.576
   359.6,0.023111,0.014611,0.181874,0.000033,  35.574
   359.8,0.023106,0.014610,0.181790,0.000056,  35.575
   360.0,0.023088,0.014608,0.181743,0.000069,  35.569
   360.2,0.023087,0.014597,0.181624,0.000033,  35.567
   360.4,0.023075,0.014596,0.181464,0.000056,  35.570
   360.6,0.023064,0.014588,0.181275,0.000056,  35.568
   360.8,0.023055,0.014580,0.181121,0.000056,  35.562
   361.0,0.023041,0.014574,0.180961,0.000056,  35.562
   361.2,0.023036,0.014568,0.180807,0.000056,  35.564
   361.4,0.023022,0.014562,0.180719,0.000033,  35.559
   361.6,0.023010,0.014553,0.180642,0.000056,  35.560
   361.8,0.023014,0.014548,0.180595,0.000056,  35.560
   362.0,0.023011,0.014544,0.180574,0.000069,  35.558
   362.2,0.022996,0.014540,0.180496,0.000033,  35.555
   362.4,0.022992,0.014531,0.180403,0.000056,  35.557
   362.6,0.022978,0.014529,0.180294,0.000069,  35.556
   362.8,0.022960,0.014530,0.180261,0.000033,  35.555
   363.0,0.022953,0.014530,0.180274,0.000056,  35.555
   363.2,0.022934,0.014521,0.180313,0.000069,  35.552
   363.4,0.022916,0.014517,0.180160,0.000033,  35.553
   363.6,0.022912,0.014511,0.179890,0.000056,  35.556
   363.8,0.022901,0.014505,0.179544,0.000069,  35.553
   364.0,0.022883,0.014499,0.179461,0.000033,  35.554
   364.2,0.022876,0.014488,0.179453,0.000056,  35.557
   364.4,0.022862,0.014480,0.179515,0.000069,  35.555
   364.6,0.022847,0.014472,0.179467,0.000033,  35.555
   364.8,0.022843,0.014461,0.179399,0.000056,  35.551
   365.0,0.022834,0.014456,0.179290,0.000069,  35.550
   365.2,0.022820,0.014447,0.179222,0.000033,  35.551
   365.4,0.022818,0.014440,0.179155,0.000056,  35.550
   365.6,0.022804,0.014430,0.179073,0.000069,  35.546
   365.8,0.022793,0.014424,0.178970,0.000069,  35.552
   366.0,0.022778,0.014415,0.178821,0.000091,  35.547
   366.2,0.022776,0.014409,0.178662,0.000104,  35.545
   366.4,0.022765,0.014402,0.178569,0.000104,  35.540
   366.6,0.022754,0.014398,0.178482,0.000091,  35.546
   366.8,0.022738,0.014390,0.178405,0.000104,  35.545
   367.0,0.022715,0.014381,0.178347,0.000104,  35.545
   367.2,0.022695,0.014375,0.178252,0.000091,  35.542
   367.4,0.022684,0.014365,0.178179,0.000104,  35.541
   367.6,0.022667,0.014354,0.177923,0.000104,  35.542
   367.8,0.022649,0.014345,0.177552,0.000091,  35.542
   368.0,0.022645,0.014339,0.177103,0.000104,  35.536
   368.2,0.022634,0.014327,0.177014,0.000104,  35.525
   368.4,0.022619,0.014321,0.177047,0.000091,  35.524
   368.6,0.022617,0.014314,0.177205,0.000104,  35.525
   368.8,0.022615,0.014300,0.177197,0.000104,  35.523
   369.0,0.022595,0.014296,0.177160,0.000091,  35.522
   369.2,0.022588,0.014291,0.177083,0.000091,  35.522
   369.4,0.022575,0.014285,0.177056,0.000091,  35.523
   369.6,0.022555,0.014277,0.177023,0.000091,  35.525
   369.8,0.022547,0.014279,0.177006,0.000091,  35.525
   370.0,0.022534,0.014271,0.176954,0.000104,  35.527
   370.2,0.022521,0.014265,0.176886,0.000069,  35.529
   370.4,0.022509,0.014256,0.176825,0.000104,  35.530
   370.6,0.022503,0.014246,0.176732,0.000104,  35.530
   370.8,0.022489,0.014238,0.176599,0.000104,  35.532
   371.0,0.022475,0.014231,0.176426,0.000091,  35.533
   371.2,0.022461,0.014219,0.176206,0.000104,  35.527
   371.4,0.022432,0.014206,0.176043,0.000104,  35.539
   371.6,0.022405,0.014199,0.175900,0.000091,  35.557
   371.8,0.022372,0.014186,0.175743,0.000104,  35.553
   372.0,0.022346,0.014178,0.175585,0.000104,  35.544
   372.2,0.022335,0.014173,0.175412,0.000091,  35.540
   372.4,0.022333,0.014162,0.175230,0.000104,  35.539
   372.6,0.022330,0.014148,0.175153,0.000104,  35.539
   372.8,0.022321,0.014136,0.175080,0.000091,  35.545
   373.0,0.022312,0.014128,0.175032,0.000091,  35.543
   373.2,0.022306,0.014110,0.174841,0.000078,  35.542
   373.4,0.022292,0.014092,0.174586,0.000039,  35.541
   373.6,0.022281,0.014075,0.174239,0.000052,  35.542
   373.8,0.022264,0.014067,0.174151,0.000052,  35.543
   374.0,0.022241,0.014064,0.174145,0.000052,  35.543
   374.2,0.022228,0.014072,0.174210,0.000065,  35.538
   374.4,0.022215,0.014067,0.174153,0.000065,  35.530
   374.6,0.022197,0.014062,0.174055,0.000065,  35.525
   374.8,0.022198,0.014058,0.173932,0.000078,  35.533
   375.0,0.022187,0.014048,0.173779,0.000078,  35.534
   375.2,0.022176,0.014036,0.173607,0.000078,  35.527
   375.4,0.022161,0.014026,0.173410,0.000091,  35.527
   375.6,0.022154,0.014016,0.173297,0.000056,  35.526
   375.8,0.022148,0.014008,0.173215,0.000056,  35.529
   376.0,0.022140,0.014008,0.173142,0.000069,  35.529
   376.2,0.022135,0.013997,0.173100,0.000069,  35.528
   376.4,0.022126,0.013989,0.173058,0.000091,  35.524
   376.6,0.022109,0.013989,0.173015,0.000104,  35.523
   376.8,0.022099,0.013978,0.172927,0.000104,  35.529
   377.0,0.022073,0.013970,0.172824,0.000091,  35.526
   377.2,0.022045,0.013964,0.172702,0.000104,  35.519
   377.4,0.022018,0.013956,0.172646,0.000104,  35.519
   377.6,0.021989,0.013956,0.172618,0.000091,  35.514
   377.8,0.021971,0.013956,0.172595,0.000104,  35.507
   378.0,0.021949,0.013938,0.172443,0.000104,  35.512
   378.2,0.021933,0.013922,0.172250,0.000091,  35.507
   378.4,0.021919,0.013906,0.171991,0.000091,  35.507
   378.6,0.021914,0.013887,0.171826,0.000091,  35.508
   378.8,0.021898,0.013873,0.171672,0.000091,  35.506
   379.0,0.021873,0.013862,0.171553,0.000091,  35.503
   379.2,0.021852,0.013851,0.171287,0.000104,  35.506
   379.4,0.021832,0.013843,0.170962,0.000056,  35.506
   379.6,0.021810,0.013835,0.170591,0.000091,  35.502
   379.8,0.021791,0.013818,0.170395,0.000104,  35.499
   380.0,0.021775,0.013804,0.170244,0.000104,  35.498
   380.2,0.021758,0.013793,0.170171,0.000091,  35.494
   380.4,0.021742,0.013781,0.170154,0.000104,  35.495
   380.6,0.021722,0.013764,0.170021,0.000104,  35.492
   380.8,0.021697,0.013761,0.169878,0.000091,  35.498
   381.0,0.021675,0.013749,0.169736,0.000104,  35.498
   381.2,0.021658,0.013734,0.169560,0.000104,  35.496
   381.4,0.021635,0.013721,0.169380,0.000091,  35.498
   381.6,0.021628,0.013707,0.169161,0.000104,  35.496
   381.8,0.021614,0.013701,0.169024,0.000104,  35.495
   382.0,0.021588,0.013687,0.168882,0.000091,  35.494
   382.2,0.021575,0.013677,0.168755,0.000104,  35.496
   382.4,0.021559,0.013666,0.168647,0.000104,  35.494
   382.6,0.021533,0.013663,0.168535,0.000091,  35.496
   382.8,0.021515,0.013652,0.168448,0.000104,  35.497
   383.0,0.021496,0.013644,0.168355,0.000104,  35.492
   383.2,0.021473,0.013635,0.168258,0.000091,  35.497
   383.4,0.021460,0.013623,0.168177,0.000104,  35.491
   383.6,0.021434,0.013611,0.168075,0.000104,  35.493
   383.8,0.021418,0.013601,0.167936,0.000104,  35.491
   384.0,0.021401,0.013594,0.167798,0.000104,  35.493
   384.2,0.021387,0.013580,0.167628,0.000104,  35.491
   384.4,0.021376,0.013570,0.167419,0.000104,  35.489
   384.6,0.021363,0.013557,0.167156,0.000104,  35.492
   384.8,0.021358,0.013545,0.166965,0.000104,  35.492
   385.0,0.021342,0.013537,0.166826,0.000104,  35.491
   385.2,0.021325,0.013528,0.166666,0.000117,  35.491
   385.4,0.021309,0.013516,0.166510,0.000117,  35.495
   385.6,0.021289,0.013503,0.166380,0.000117,  35.491
   385.8,0.021268,0.013489,0.166245,0.000130,  35.494
   386.0,0.021251,0.013479,0.166143,0.000130,  35.497
   386.2,0.021234,0.013477,0.166065,0.000117,  35.499
   386.4,0.021206,0.013472,0.166018,0.000117,  35.495
   386.6,0.021189,0.013464,0.165861,0.000117,  35.498
   386.8,0.021170,0.013450,0.165681,0.000117,  35.499
   387.0,0.021142,0.013436,0.165473,0.000117,  35.498
   387.2,0.021120,0.013425,0.165323,0.000117,  35.504
   387.4,0.021100,0.013409,0.165142,0.000117,  35.504
   387.6,0.021075,0.013392,0.164968,0.000104,  35.504
   387.8,0.021055,0.013382,0.164824,0.000104,  35.504
   388.0,0.021039,0.013367,0.164674,0.000104,  35.507
   388.2,0.021013,0.013354,0.164515,0.000104,  35.512
   388.4,0.020995,0.013334,0.164335,0.000104,  35.513
   388.6,0.020967,0.013318,0.164151,0.000104,  35.514
   388.8,0.020945,0.013308,0.163948,0.000104,  35.518
   389.0,0.020917,0.013291,0.163822,0.000104,  35.518
   389.2,0.020886,0.013284,0.163741,0.000069,  35.516
   389.4,0.020868,0.013276,0.163670,0.000104,  35.522
   389.6,0.020843,0.013258,0.163664,0.000140,  35.522
   389.8,0.020824,0.013245,0.163301,0.000127,  35.523
   390.0,0.020807,0.013227,0.162842,0.000114,  35.526
   390.2,0.020800,0.013208,0.162260,0.000163,  35.530
   390.4,0.020781,0.013197,0.162076,0.000150,  35.532
   390.6,0.020755,0.013180,0.162026,0.000114,  35.528
   390.8,0.020742,0.013168,0.162106,0.000091,  35.534
   391.0,0.020723,0.013156,0.161978,0.000078,  35.533
   391.2,0.020700,0.013154,0.161829,0.000078,  35.538
   391.4,0.020693,0.013144,0.161641,0.000056,  35.537
   391.6,0.020670,0.013131,0.161492,0.000056,  35.539
   391.8,0.020648,0.013126,0.161358,0.000091,  35.539
   392.0,0.020626,0.013122,0.161245,0.000104,  35.544
   392.2,0.020600,0.013109,0.161135,0.000104,  35.544
   392.4,0.020585,0.013093,0.161014,0.000091,  35.548
   392.6,0.020563,0.013085,0.160880,0.000104,  35.548
   392.8,0.020541,0.013071,0.160795,0.000104,  35.545
   393.0,0.020516,0.013061,0.160694,0.000104,  35.553
   393.2,0.020498,0.013052,0.160605,0.000104,  35.564
   393.4,0.020478,0.013040,0.160498,0.000104,  35.562
   393.6,0.020457,0.013026,0.160347,0.000104,  35.559
   393.8,0.020436,0.013017,0.160207,0.000104,  35.567
   394.0,0.020424,0.013005,0.160005,0.000104,  35.563
   394.2,0.020404,0.012986,0.159771,0.000104,  35.566
   394.4,0.020380,0.012972,0.159479,0.000104,  35.567
   394.6,0.020358,0.012956,0.159292,0.000104,  35.567
   394.8,0.020336,0.012941,0.159147,0.000104,  35.563
   395.0,0.020307,0.012924,0.159032,0.000104,  35.565
   395.2,0.020292,0.012905,0.158846,0.000104,  35.559
   395.4,0.020263,0.012893,0.158650,0.000104,  35.561
   395.6,0.020239,0.012879,0.158431,0.000117,  35.566
   395.8,0.020214,0.012865,0.158253,0.000117,  35.563
   396.0,0.020188,0.012851,0.158097,0.000117,  35.560
   396.2,0.020173,0.012839,0.157914,0.000130,  35.564
   396.4,0.020148,0.012821,0.157778,0.000130,  35.563
   396.6,0.020120,0.012801,0.157678,0.000117,  35.565
   396.8,0.020107,0.012788,0.157581,0.000117,  35.567
   397.0,0.020080,0.012771,0.157431,0.000117,  35.569
   397.2,0.020055,0.012759,0.157283,0.000117,  35.568
   397.4,0.020033,0.012746,0.157092,0.000117,  35.563
   397.6,0.020012,0.012729,0.156885,0.000117,  35.568
   397.8,0.019993,0.012720,0.156676,0.000082,  35.562
   398.0,0.019970,0.012702,0.156428,0.000117,  35.564
   398.2,0.019957,0.012687,0.156266,0.000117,  35.566
   398.4,0.019935,0.012675,0.156137,0.000117,  35.566
   398.6,0.019907,0.012658,0.156058,0.000117,  35.567
   398.8,0.019883,0.012643,0.155982,0.000104,  35.567
   399.0,0.019856,0.012637,0.155787,0.000104,  35.567
   399.2,0.019825,0.012630,0.155552,0.000104,  35.562
   399.4,0.019804,0.012616,0.155278,0.000091,  35.563
   399.6,0.019780,0.012602,0.154999,0.000091,  35.561
   399.8,0.019759,0.012588,0.154702,0.000104,  35.571
   400.0,0.019741,0.012574,0.154362,0.000104,  35.569
   400.2,0.019720,0.012560,0.154143,0.000104,  35.568
   400.4,0.019691,0.012550,0.153970,0.000104,  35.566
   400.6,0.019663,0.012541,0.153844,0.000117,  35.567
   400.8,0.019635,0.012523,0.153695,0.000117,  35.566
   401.0,0.019603,0.012507,0.153552,0.000117,  35.567
   401.2,0.019585,0.012492,0.153424,0.000130,  35.568
   401.4,0.019563,0.012471,0.153310,0.000130,  35.567
   401.6,0.019532,0.012451,0.153176,0.000117,  35.568
   401.8,0.019505,0.012438,0.153041,0.000117,  35.565
   402.0,0.019483,0.012418,0.152890,0.000117,  35.566
   402.2,0.019467,0.012397,0.152694,0.000117,  35.564
   402.4,0.019438,0.012383,0.152499,0.000117,  35.568
   402.6,0.019428,0.012364,0.152064,0.000117,  35.566
   402.8,0.019404,0.012347,0.151499,0.000117,  35.567
   403.0,0.019367,0.012333,0.150824,0.000117,  35.566
   403.2,0.019334,0.012315,0.150638,0.000117,  35.566
   403.4,0.019303,0.012297,0.150650,0.000117,  35.570
   403.6,0.019288,0.012283,0.150853,0.000104,  35.572
   403.8,0.019260,0.012260,0.150743,0.000104,  35.570
   404.0,0.019236,0.012249,0.150563,0.000104,  35.568
   404.2,0.019222,0.012234,0.150319,0.000091,  35.571
   404.4,0.019199,0.012214,0.150148,0.000091,  35.567
   404.6,0.019177,0.012200,0.149983,0.000104,  35.571
   404.8,0.019157,0.012188,0.149817,0.000104,  35.571
   405.0,0.019131,0.012167,0.149638,0.000104,  35.571
   405.2,0.019102,0.012151,0.149435,0.000104,  35.570
   405.4,0.019078,0.012131,0.149229,0.000117,  35.573
   405.6,0.019051,0.012112,0.148888,0.000117,  35.569
   405.8,0.019027,0.012107,0.148472,0.000117,  35.573
   406.0,0.018998,0.012098,0.147984,0.000117,  35.570
   406.2,0.018974,0.012079,0.147820,0.000130,  35.569
   406.4,0.018949,0.012067,0.147779,0.000117,  35.568
   406.6,0.018918,0.012055,0.147874,0.000117,  35.570
   406.8,0.018897,0.012036,0.147799,0.000117,  35.572
   407.0,0.018872,0.012022,0.147680,0.000069,  35.570
   407.2,0.018841,0.012010,0.147565,0.000104,  35.569
   407.4,0.018821,0.011991,0.147406,0.000091,  35.568
   407.6,0.018799,0.011980,0.146992,0.000091,  35.565
   407.8,0.018770,0.011963,0.146472,0.000104,  35.570
   408.0,0.018758,0.011944,0.145811,0.000104,  35.567
   408.2,0.018736,0.011932,0.145633,0.000104,  35.572
   408.4,0.018702,0.011913,0.145616,0.000104,  35.572
   408.6,0.018684,0.011899,0.145776,0.000104,  35.568
   408.8,0.018656,0.011887,0.145710,0.000104,  35.572
   409.0,0.018620,0.011870,0.145592,0.000104,  35.570
   409.2,0.018596,0.011860,0.145477,0.000104,  35.573
   409.4,0.018569,0.011853,0.145365,0.000104,  35.574
   409.6,0.018535,0.011843,0.145216,0.000104,  35.579
   409.8,0.018514,0.011839,0.145072,0.000104,  35.577
   410.0,0.018490,0.011818,0.144932,0.000104,  35.579
   410.2,0.018456,0.011795,0.144742,0.000104,  35.578
   410.4,0.018430,0.011771,0.144553,0.000104,  35.574
   410.6,0.018405,0.011748,0.144370,0.000104,  35.580
   410.8,0.018379,0.011734,0.144178,0.000091,  35.582
   411.0,0.018361,0.011714,0.143963,0.000104,  35.582
   411.2,0.018339,0.011692,0.143803,0.000104,  35.579
   411.4,0.018320,0.011678,0.143677,0.000091,  35.580
   411.6,0.018295,0.011658,0.143574,0.000104,  35.581
   411.8,0.018282,0.011637,0.143360,0.000104,  35.581
   412.0,0.018257,0.011623,0.143120,0.000091,  35.580
   412.2,0.018227,0.011607,0.142835,0.000104,  35.579
   412.4,0.018195,0.011588,0.142672,0.000091,  35.574
   412.6,0.018158,0.011575,0.142510,0.000078,  35.575
   412.8,0.018128,0.011564,0.142378,0.000091,  35.575
   413.0,0.018098,0.011545,0.142150,0.000078,  35.579
   413.2,0.018062,0.011525,0.141877,0.000078,  35.579
   413.4,0.018041,0.011507,0.141573,0.000091,  35.576
   413.6,0.018011,0.011484,0.141295,0.000078,  35.577
   413.8,0.017980,0.011464,0.141036,0.000078,  35.579
   414.0,0.017964,0.011444,0.140764,0.000091,  35.578
   414.2,0.017937,0.011420,0.140537,0.000078,  35.571
   414.4,0.017909,0.011402,0.140324,0.000078,  35.578
   414.6,0.017896,0.011385,0.140112,0.000078,  35.577
   414.8,0.017877,0.011362,0.139899,0.000078,  35.581
   415.0,0.017846,0.011350,0.139695,0.000078,  35.577
   415.2,0.017825,0.011330,0.139477,0.000065,  35.579
   415.4,0.017795,0.011310,0.139301,0.000065,  35.579
   415.6,0.017767,0.011305,0.139154,0.000030,  35.583
   415.8,0.017749,0.011293,0.139015,0.000065,  35.582
   416.0,0.017721,0.011277,0.138837,0.000078,  35.583
   416.2,0.017693,0.011260,0.138625,0.000078,  35.584
   416.4,0.017675,0.011243,0.138431,0.000078,  35.583
   416.6,0.017648,0.011229,0.138194,0.000091,  35.586
   416.8,0.017617,0.011215,0.138056,0.000078,  35.584
   417.0,0.017599,0.011201,0.137919,0.000078,  35.582
   417.2,0.017569,0.011187,0.137814,0.000091,  35.589
   417.4,0.017524,0.011171,0.137670,0.000078,  35.593
   417.6,0.017487,0.011157,0.137501,0.000078,  35.596
   417.8,0.017435,0.011146,0.137338,0.000091,  35.593
   418.0,0.017399,0.011129,0.137118,0.000078,  35.592
   418.2,0.017383,0.011117,0.136876,0.000078,  35.588
   418.4,0.017370,0.011110,0.136598,0.000091,  35.585
   418.6,0.017347,0.011089,0.136351,0.000078,  35.590
   418.8,0.017337,0.011063,0.136110,0.000078,  35.588
   419.0,0.017318,0.011043,0.135883,0.000091,  35.585
   419.2,0.017292,0.011017,0.135652,0.000065,  35.584
   419.4,0.017280,0.010999,0.135430,0.000052,  35.586
   419.6,0.017255,0.010981,0.135209,0.000065,  35.583
   419.8,0.017233,0.010965,0.134525,0.000065,  35.580
   420.0,0.017208,0.010955,0.133644,0.000065,  35.583
   420.2,0.017195,0.010951,0.132539,0.000078,  35.586
   420.4,0.017179,0.010941,0.132331,0.000078,  35.582
   420.6,0.017160,0.010929,0.132459,0.000065,  35.582
   420.8,0.017142,0.010917,0.132901,0.000078,  35.578
   421.0,0.017117,0.010903,0.132924,0.000078,  35.578
   421.2,0.017092,0.010887,0.132889,0.000078,  35.573
   421.4,0.017067,0.010865,0.132796,0.000091,  35.573
   421.6,0.017045,0.010849,0.132731,0.000078,  35.571
   421.8,0.017023,0.010830,0.132638,0.000078,  35.573
   422.0,0.017013,0.010816,0.132523,0.000091,  35.575
   422.2,0.016996,0.010804,0.132392,0.000078,  35.572
   422.4,0.016968,0.010790,0.132253,0.000078,  35.571
   422.6,0.016953,0.010785,0.132078,0.000091,  35.572
   422.8,0.016925,0.010775,0.131919,0.000078,  35.569
   423.0,0.016892,0.010760,0.131766,0.000078,  35.575
   423.2,0.016862,0.010747,0.131566,0.000078,  35.574
   423.4,0.016829,0.010735,0.131507,0.000078,  35.570
   423.6,0.016793,0.010723,0.131498,0.000091,  35.573
   423.8,0.016763,0.010708,0.131518,0.000078,  35.571
   424.0,0.016742,0.010691,0.131418,0.000091,  35.571
   424.2,0.016708,0.010675,0.131247,0.000056,  35.575
   424.4,0.016688,0.010657,0.131027,0.000091,  35.574
   424.6,0.016667,0.010637,0.130819,0.000104,  35.572
   424.8,0.016636,0.010623,0.130609,0.000104,  35.574
   425.0,0.016612,0.010603,0.130383,0.000091,  35.576
   425.2,0.016580,0.010582,0.130132,0.000104,  35.577
   425.4,0.016546,0.010568,0.129664,0.000069,  35.580
   425.6,0.016525,0.010554,0.129101,0.000056,  35.579
   425.8,0.016495,0.010531,0.128421,0.000069,  35.581
   426.0,0.016464,0.010511,0.128216,0.000033,  35.578
   426.2,0.016440,0.010494,0.128203,0.000056,  35.579
   426.4,0.016418,0.010480,0.128351,0.000069,  35.577
   426.6,0.016388,0.010455,0.128277,0.000033,  35.582
   426.8,0.016359,0.010434,0.128207,0.000056,  35.583
   427.0,0.016338,0.010420,0.128081,0.000069,  35.581
   427.2,0.016313,0.010403,0.127932,0.000033,  35.583
   427.4,0.016288,0.010394,0.127753,0.000069,  35.580
   427.6,0.016269,0.010386,0.127536,0.000069,  35.582
   427.8,0.016247,0.010370,0.127329,0.000033,  35.585
   428.0,0.016213,0.010348,0.127115,0.000056,  35.587
   428.2,0.016184,0.010333,0.126865,0.000069,  35.584
   428.4,0.016162,0.010317,0.126681,0.000020,  35.584
   428.6,0.016128,0.010297,0.126483,0.000043,  35.589
   428.8,0.016107,0.010280,0.126306,0.000056,  35.590
   429.0,0.016083,0.010264,0.126122,0.000043,  35.592
   429.2,0.016049,0.010248,0.125936,0.000065,  35.592
   429.4,0.016026,0.010228,0.125744,0.000078,  35.593
   429.6,0.016004,0.010212,0.125516,0.000078,  35.592
   429.8,0.015985,0.010198,0.125268,0.000078,  35.593
   430.0,0.015962,0.010184,0.124998,0.000091,  35.594
   430.2,0.015955,0.010168,0.124481,0.000078,  35.592
   430.4,0.015934,0.010152,0.123823,0.000078,  35.590
   430.6,0.015903,0.010138,0.123011,0.000127,  35.592
   430.8,0.015875,0.010125,0.122772,0.000114,  35.595
   431.0,0.015847,0.010107,0.122749,0.000101,  35.592
   431.2,0.015826,0.010088,0.122930,0.000150,  35.594
   431.4,0.015807,0.010072,0.122882,0.000150,  35.593
   431.6,0.015776,0.010056,0.122812,0.000101,  35.598
   431.8,0.015746,0.010037,0.122742,0.000114,  35.596
   432.0,0.015722,0.010019,0.122694,0.000114,  35.594
   432.2,0.015692,0.010003,0.122640,0.000101,  35.596
   432.4,0.015664,0.009995,0.122591,0.000114,  35.596
   432.6,0.015644,0.009977,0.122436,0.000114,  35.591
   432.8,0.015610,0.009963,0.122232,0.000101,  35.597
   433.0,0.015586,0.009944,0.121964,0.000101,  35.600
   433.2,0.015565,0.009926,0.121787,0.000065,  35.604
   433.4,0.015534,0.009916,0.121626,0.000114,  35.593
   433.6,0.015511,0.009898,0.121492,0.000078,  35.595
   433.8,0.015490,0.009880,0.121350,0.000091,  35.600
   434.0,0.015463,0.009866,0.121209,0.000056,  35.597
   434.2,0.015439,0.009845,0.121081,0.000078,  35.598
   434.4,0.015420,0.009827,0.120945,0.000091,  35.599
   434.6,0.015395,0.009811,0.120756,0.000078,  35.605
   434.8,0.015364,0.009793,0.120539,0.000078,  35.606
   435.0,0.015340,0.009777,0.120295,0.000091,  35.613
   435.2,0.015312,0.009759,0.120113,0.000078,  35.618
   435.4,0.015282,0.009750,0.119929,0.000078,  35.621
   435.6,0.015246,0.009731,0.119746,0.000091,  35.625
   435.8,0.015215,0.009713,0.119236,0.000078,  35.627
   436.0,0.015190,0.009692,0.118573,0.000078,  35.624
   436.2,0.015163,0.009678,0.117737,0.000091,  35.626
   436.4,0.015132,0.009661,0.117487,0.000078,  35.629
   436.6,0.015108,0.009649,0.117460,0.000065,  35.627
   436.8,0.015087,0.009637,0.117627,0.000078,  35.628
   437.0,0.015059,0.009619,0.117578,0.000078,  35.632
   437.2,0.015038,0.009604,0.117522,0.000065,  35.632
   437.4,0.015022,0.009592,0.117453,0.000078,  35.632
   437.6,0.014991,0.009576,0.117384,0.000078,  35.635
   437.8,0.014973,0.009560,0.117301,0.000065,  35.635
   438.0,0.014950,0.009546,0.117205,0.000078,  35.630
   438.2,0.014919,0.009527,0.116900,0.000078,  35.630
   438.4,0.014904,0.009513,0.116503,0.000065,  35.630
   438.6,0.014877,0.009504,0.115982,0.000078,  35.636
   438.8,0.014855,0.009482,0.115795,0.000078,  35.632
   439.0,0.014833,0.009472,0.115704,0.000065,  35.631
   439.2,0.014814,0.009458,0.115750,0.000078,  35.632
   439.4,0.014799,0.009440,0.115423,0.000043,  35.635
   439.6,0.014775,0.009422,0.114933,0.000043,  35.633
   439.8,0.014744,0.009405,0.114306,0.000056,  35.634
   440.0,0.014717,0.009392,0.114126,0.000007,  35.631
   440.2,0.014689,0.009378,0.114112,0.000043,  35.630
   440.4,0.014668,0.009359,0.114230,0.000056,  35.629
   440.6,0.014638,0.009345,0.114140,0.000007,  35.628
   440.8,0.014608,0.009329,0.114016,0.000043,  35.630
   441.0,0.014590,0.009309,0.113856,0.000056,  35.626
   441.2,0.014560,0.009290,0.113724,0.000007,  35.629
   441.4,0.014526,0.009272,0.113571,0.000030,  35.627
   441.6,0.014503,0.009251,0.113400,0.000030,  35.625
   441.8,0.014468,0.009233,0.113187,0.000030,  35.628
   442.0,0.014434,0.009218,0.112959,0.000039,  35.624
   442.2,0.014414,0.009203,0.112702,0.000039,  35.627
   442.4,0.014384,0.009187,0.112539,0.000039,  35.625
   442.6,0.014358,0.009169,0.112430,0.000052,  35.623
   442.8,0.014338,0.009152,0.112382,0.000052,  35.622
   443.0,0.014310,0.009134,0.112230,0.000065,  35.623
   443.2,0.014283,0.009115,0.112044,0.000030,  35.623
   443.4,0.014252,0.009100,0.111835,0.000052,  35.622
   443.6,0.014224,0.009082,0.111593,0.000065,  35.625
   443.8,0.014196,0.009064,0.111373,0.000052,  35.617
   444.0,0.014159,0.009044,0.111154,0.000052,  35.618
   444.2,0.014141,0.009023,0.110928,0.000065,  35.614
   444.4,0.014114,0.009008,0.110710,0.000052,  35.620
   444.6,0.014093,0.008992,0.110525,0.000052,  35.621
   444.8,0.014074,0.008976,0.110321,0.000065,  35.620
   445.0,0.014049,0.008968,0.110116,0.000052,  35.620
   445.2,0.014016,0.008954,0.109924,0.000052,  35.620
   445.4,0.013980,0.008946,0.109718,0.000065,  35.613
   445.6,0.013953,0.008926,0.109555,0.000052,  35.617
   445.8,0.013926,0.008910,0.109419,0.000052,  35.614
   446.0,0.013899,0.008894,0.109290,0.000065,  35.619
   446.2,0.013872,0.008871,0.109081,0.000052,  35.614
   446.4,0.013845,0.008854,0.108862,0.000052,  35.613
   446.6,0.013818,0.008837,0.108591,0.000052,  35.616
   446.8,0.013793,0.008817,0.108219,0.000039,  35.612
   447.0,0.013769,0.008796,0.107797,0.000026,  35.612
   447.2,0.013742,0.008782,0.107296,0.000026,  35.616
   447.4,0.013720,0.008762,0.107045,0.000026,  35.614
   447.6,0.013701,0.008746,0.106889,0.000026,  35.612
   447.8,0.013682,0.008726,0.106819,0.000026,  35.614
   448.0,0.013664,0.008706,0.106689,0.000039,  35.609
   448.2,0.013639,0.008688,0.106548,0.000039,  35.609
   448.4,0.013609,0.008672,0.106439,0.000052,  35.608
   448.6,0.013576,0.008650,0.106262,0.000052,  35.610
   448.8,0.013543,0.008632,0.106047,0.000052,  35.607
   449.0,0.013516,0.008620,0.105823,0.000052,  35.607
   449.2,0.013489,0.008600,0.105634,0.000052,  35.603
   449.4,0.013462,0.008588,0.105452,0.000039,  35.600
   449.6,0.013434,0.008573,0.105270,0.000052,  35.605
   449.8,0.013411,0.008555,0.105102,0.000052,  35.603
   450.0,0.013384,0.008537,0.104913,0.000052,  35.595
   450.2,0.013353,0.008525,0.104731,0.000065,  35.589
   450.4,0.013338,0.008508,0.104570,0.000052,  35.587
   450.6,0.013314,0.008488,0.104408,0.000052,  35.591
   450.8,0.013283,0.008471,0.104258,0.000052,  35.594
   451.0,0.013263,0.008455,0.104103,0.000052,  35.592
   451.2,0.013238,0.008443,0.103916,0.000039,  35.591
   451.4,0.013205,0.008427,0.103735,0.000039,  35.589
   451.6,0.013179,0.008409,0.103567,0.000039,  35.586
   451.8,0.013155,0.008399,0.103385,0.000039,  35.590
   452.0,0.013124,0.008385,0.103189,0.000039,  35.585
   452.2,0.013101,0.008365,0.102987,0.000052,  35.586
   452.4,0.013076,0.008352,0.102803,0.000003,  35.586
   452.6,0.013046,0.008334,0.102594,0.000039,  35.588
   452.8,0.013025,0.008313,0.102383,0.000039,  35.586
   453.0,0.012998,0.008298,0.102216,0.000052,  35.584
   453.2,0.012974,0.008276,0.102074,0.000039,  35.587
   453.4,0.012953,0.008257,0.101921,0.000052,  35.583
   453.6,0.012929,0.008248,0.101546,0.000052,  35.581
   453.8,0.012898,0.008234,0.101066,0.000052,  35.581
   454.0,0.012874,0.008217,0.100441,0.000065,  35.582
   454.2,0.012852,0.008203,0.100194,0.000052,  35.579
   454.4,0.012819,0.008189,0.100053,0.000052,  35.580
   454.6,0.012798,0.008177,0.100037,0.000065,  35.579
   454.8,0.012777,0.008161,0.099956,0.000052,  35.581
   455.0,0.012741,0.008155,0.099881,0.000052,  35.583
   455.2,0.012720,0.008143,0.099821,0.000065,  35.581
   455.4,0.012696,0.008123,0.099707,0.000052,  35.579
   455.6,0.012663,0.008108,0.099548,0.000052,  35.582
   455.8,0.012639,0.008092,0.099374,0.000065,  35.577
   456.0,0.012615,0.008072,0.099188,0.000052,  35.579
   456.2,0.012587,0.008062,0.098975,0.000052,  35.579
   456.4,0.012569,0.008046,0.098755,0.000065,  35.578
   456.6,0.012548,0.008028,0.098549,0.000052,  35.578
   456.8,0.012531,0.008014,0.098336,0.000052,  35.577
   457.0,0.012509,0.007997,0.098128,0.000065,  35.578
   457.2,0.012499,0.007980,0.097928,0.000052,  35.577
   457.4,0.012478,0.007968,0.097728,0.000052,  35.577
   457.6,0.012453,0.007951,0.097516,0.000065,  35.579
   457.8,0.012426,0.007935,0.097303,0.000052,  35.578
   458.0,0.012402,0.007923,0.097071,0.000052,  35.581
   458.2,0.012374,0.007911,0.096833,0.000065,  35.577
   458.4,0.012354,0.007894,0.096673,0.000052,  35.578
   458.6,0.012333,0.007879,0.096533,0.000052,  35.575
   458.8,0.012310,0.007872,0.096400,0.000065,  35.579
   459.0,0.012290,0.007858,0.096234,0.000052,  35.580
   459.2,0.012266,0.007839,0.096042,0.000052,  35.584
   459.4,0.012233,0.007821,0.095817,0.000065,  35.581
   459.6,0.012205,0.007805,0.095619,0.000052,  35.579
   459.8,0.012179,0.007795,0.095440,0.000052,  35.582
   460.0,0.012151,0.007777,0.095261,0.000065,  35.580
   460.2,0.012145,0.007759,0.095069,0.000052,  35.577
   460.4,0.012124,0.007747,0.094896,0.000052,  35.581
   460.6,0.012087,0.007731,0.094711,0.000052,  35.583
   460.8,0.012057,0.007713,0.094526,0.000065,  35.580
   461.0,0.012030,0.007699,0.094360,0.000065,  35.583
   461.2,0.011997,0.007685,0.094182,0.000065,  35.582
   461.4,0.011974,0.007665,0.094029,0.000065,  35.583
   461.6,0.011947,0.007653,0.093883,0.000030,  35.579
   461.8,0.011917,0.007642,0.093736,0.000065,  35.585
   462.0,0.011894,0.007621,0.093596,0.000078,  35.583
   462.2,0.011870,0.007606,0.093288,0.000078,  35.582
   462.4,0.011848,0.007589,0.092921,0.000065,  35.585
   462.6,0.011824,0.007568,0.092472,0.000078,  35.585
   462.8,0.011800,0.007550,0.092290,0.000078,  35.582
   463.0,0.011769,0.007536,0.092216,0.000065,  35.581
   463.2,0.011742,0.007519,0.092227,0.000078,  35.587
   463.4,0.011718,0.007507,0.092108,0.000078,  35.584
   463.6,0.011690,0.007497,0.091956,0.000065,  35.588
   463.8,0.011672,0.007481,0.091759,0.000078,  35.586
   464.0,0.011645,0.007474,0.091588,0.000078,  35.587
   464.2,0.011612,0.007452,0.091404,0.000065,  35.590
   464.4,0.011592,0.007439,0.091188,0.000078,  35.583
   464.6,0.011565,0.007420,0.091025,0.000078,  35.590
   464.8,0.011531,0.007410,0.090880,0.000065,  35.588
   465.0,0.011511,0.007393,0.090742,0.000078,  35.588
   465.2,0.011489,0.007376,0.090571,0.000078,  35.589
   465.4,0.011459,0.007360,0.090401,0.000065,  35.588
   465.6,0.011438,0.007347,0.090217,0.000078,  35.589
   465.8,0.011417,0.007332,0.090041,0.000065,  35.588
   466.0,0.011398,0.007315,0.089838,0.000052,  35.588
   466.2,0.011375,0.007300,0.089617,0.000065,  35.585
   466.4,0.011363,0.007284,0.089415,0.000052,  35.585
   466.6,0.011341,0.007266,0.089226,0.000052,  35.587
   466.8,0.011317,0.007251,0.089037,0.000052,  35.584
   467.0,0.011293,0.007233,0.088823,0.000052,  35.587
   467.2,0.011272,0.007219,0.088621,0.000039,  35.590
   467.4,0.011244,0.007204,0.088407,0.000039,  35.589
   467.6,0.011226,0.007187,0.088231,0.000052,  35.592
   467.8,0.011204,0.007173,0.088043,0.000039,  35.589
   468.0,0.011174,0.007155,0.087860,0.000039,  35.586
   468.2,0.011156,0.007145,0.087665,0.000052,  35.587
   468.4,0.011132,0.007131,0.087457,0.000039,  35.589
   468.6,0.011101,0.007117,0.087255,0.000039,  35.587
   468.8,0.011083,0.007103,0.087086,0.000052,  35.590
   469.0,0.011059,0.007085,0.086930,0.000039,  35.587
   469.2,0.011029,0.007070,0.086793,0.000039,  35.588
   469.4,0.011008,0.007049,0.086605,0.000052,  35.593
   469.6,0.010987,0.007038,0.086398,0.000052,  35.592
   469.8,0.010953,0.007031,0.086170,0.000052,  35.590
   470.0,0.010930,0.007009,0.085983,0.000065,  35.598
   470.2,0.010906,0.006991,0.085814,0.000030,  35.605
   470.4,0.010870,0.006978,0.085671,0.000052,  35.597
   470.6,0.010844,0.006957,0.085502,0.000052,  35.598
   470.8,0.010823,0.006946,0.085320,0.000052,  35.597
   471.0,0.010798,0.006933,0.085150,0.000039,  35.597
   471.2,0.010785,0.006910,0.084943,0.000039,  35.597
   471.4,0.010764,0.006897,0.084749,0.000039,  35.599
   471.6,0.010736,0.006873,0.084562,0.000026,  35.602
   471.8,0.010718,0.006854,0.084362,0.000026,  35.597
   472.0,0.010699,0.006842,0.084213,0.000026,  35.598
   472.2,0.010671,0.006833,0.084065,0.000026,  35.597
   472.4,0.010656,0.006823,0.083959,0.000026,  35.597
   472.6,0.010635,0.006808,0.083823,0.000026,  35.597
   472.8,0.010604,0.006798,0.083656,0.000026,  35.598
   473.0,0.010581,0.006793,0.083494,0.000026,  35.596
   473.2,0.010560,0.006778,0.083314,0.000026,  35.596
   473.4,0.010532,0.006764,0.083133,0.000026,  35.590
   473.6,0.010517,0.006754,0.082922,0.000026,  35.593
   473.8,0.010495,0.006737,0.082755,0.000039,  35.591
   474.0,0.010471,0.006721,0.082620,0.000039,  35.585
   474.2,0.010454,0.006710,0.082490,0.000039,  35.590
   474.4,0.010435,0.006694,0.082292,0.000039,  35.589
   474.6,0.010421,0.006678,0.082055,0.000026,  35.589
   474.8,0.010408,0.006666,0.081812,0.000026,  35.587
   475.0,0.010397,0.006646,0.081387,0.000026,  35.585
   475.2,0.010378,0.006635,0.080856,0.000026,  35.587
   475.4,0.010352,0.006619,0.080226,0.000026,  35.586
   475.6,0.010322,0.006601,0.080053,0.000026,  35.586
   475.8,0.010298,0.006595,0.080061,0.000026,  35.586
   476.0,0.010270,0.006584,0.080256,0.000026,  35.589
   476.2,0.010243,0.006565,0.080215,0.000039,  35.582
   476.4,0.010219,0.006558,0.080149,0.000039,  35.585
   476.6,0.010191,0.006544,0.080064,0.000039,  35.582
   476.8,0.010171,0.006521,0.079967,0.000052,  35.597
   477.0,0.010144,0.006508,0.079856,0.000039,  35.592
   477.2,0.010114,0.006495,0.079721,0.000039,  35.587
   477.4,0.010090,0.006476,0.079562,0.000052,  35.586
   477.6,0.010069,0.006458,0.079383,0.000026,  35.587
   477.8,0.010044,0.006446,0.079185,0.000026,  35.585
   478.0,0.010031,0.006424,0.079019,0.000026,  35.580
   478.2,0.010015,0.006399,0.078834,-0.000036,  35.579
   478.4,0.009990,0.006380,0.078656,-0.000026,  35.580
   478.6,0.009975,0.006364,0.078521,-0.000026,  35.579
   478.8,0.009954,0.006345,0.078398,-0.000026,  35.580
   479.0,0.009923,0.006343,0.078299,-0.000013,  35.579
   479.2,0.009903,0.006332,0.078207,0.000000,  35.581
   479.4,0.009879,0.006317,0.078103,0.000000,  35.579
   479.6,0.009851,0.006309,0.077987,0.000000,  35.580
   479.8,0.009836,0.006296,0.077871,0.000013,  35.577
   480.0,0.009814,0.006281,0.077470,0.000026,  35.578
   480.2,0.009789,0.006269,0.076902,0.000026,  35.576
   480.4,0.009780,0.006259,0.076192,0.000026,  35.576
   480.6,0.009758,0.006244,0.075978,0.000026,  35.576
   480.8,0.009730,0.006235,0.075924,0.000026,  35.576
   481.0,0.009715,0.006221,0.076055,0.000026,  35.575
   481.2,0.009697,0.006204,0.075977,0.000026,  35.571
   481.4,0.009671,0.006189,0.075874,0.000026,  35.569
   481.6,0.009656,0.006184,0.075770,0.000026,  35.576
   481.8,0.009638,0.006167,0.075686,0.000026,  35.575
   482.0,0.009610,0.006153,0.075608,0.000026,  35.571
   482.2,0.009592,0.006142,0.075530,0.000026,  35.573
   482.4,0.009576,0.006126,0.075396,0.000026,  35.569
   482.6,0.009554,0.006114,0.075225,0.000026,  35.572
   482.8,0.009540,0.006110,0.075016,0.000026,  35.570
   483.0,0.009524,0.006091,0.074907,0.000026,  35.572
   483.2,0.009500,0.006081,0.074798,0.000013,  35.579
   483.4,0.009471,0.006069,0.074719,0.000013,  35.575
   483.6,0.009441,0.006057,0.074462,0.000026,  35.567
   483.8,0.009413,0.006046,0.074101,0.000026,  35.566
   484.0,0.009404,0.006037,0.073660,0.000062,  35.564
   484.2,0.009385,0.006021,0.073483,0.000062,  35.565
   484.4,0.009360,0.006004,0.073386,0.000049,  35.562
   484.6,0.009347,0.005982,0.073370,0.000084,  35.567
   484.8,0.009326,0.005963,0.073279,0.000097,  35.566
   485.0,0.009301,0.005951,0.073177,0.000049,  35.562
   485.2,0.009289,0.005940,0.073068,0.000049,  35.558
   485.4,0.009267,0.005923,0.072929,0.000062,  35.559
   485.6,0.009239,0.005916,0.072759,0.000049,  35.562
   485.8,0.009222,0.005904,0.072576,0.000049,  35.559
   486.0,0.009198,0.005886,0.072468,0.000062,  35.562
   486.2,0.009172,0.005879,0.072366,0.000049,  35.553
   486.4,0.009160,0.005869,0.072318,0.000049,  35.559
   486.6,0.009141,0.005853,0.072191,0.000049,  35.560
   486.8,0.009116,0.005838,0.072004,0.000049,  35.560
   487.0,0.009099,0.005824,0.071809,0.000049,  35.561
   487.2,0.009077,0.005809,0.071676,0.000049,  35.560
   487.4,0.009052,0.005801,0.071561,0.000036,  35.563
   487.6,0.009033,0.005788,0.071471,0.000036,  35.562
   487.8,0.009012,0.005771,0.071386,0.000036,  35.565
   488.0,0.008987,0.005759,0.071247,0.000049,  35.564
   488.2,0.008965,0.005750,0.071090,0.000049,  35.565
   488.4,0.008950,0.005738,0.070902,0.000049,  35.559
   488.6,0.008925,0.005724,0.070758,0.000062,  35.561
   488.8,0.008907,0.005710,0.070619,0.000049,  35.561
   489.0,0.008892,0.005700,0.070480,0.000049,  35.562
   489.2,0.008868,0.005688,0.069934,0.000062,  35.567
   489.4,0.008847,0.005675,0.069176,0.000049,  35.564
   489.6,0.008828,0.005665,0.068203,0.000049,  35.571
   489.8,0.008804,0.005651,0.068004,0.000062,  35.567
   490.0,0.008776,0.005642,0.068066,0.000049,  35.571
   490.2,0.008752,0.005634,0.068411,0.000049,  35.567
   490.4,0.008724,0.005620,0.068443,0.000062,  35.563
   490.6,0.008706,0.005607,0.068432,0.000049,  35.562
   490.8,0.008690,0.005593,0.068397,0.000049,  35.563
   491.0,0.008664,0.005581,0.068380,0.000049,  35.563
   491.2,0.008649,0.005562,0.068339,0.000036,  35.563
   491.4,0.008631,0.005546,0.068268,0.000036,  35.567
   491.6,0.008615,0.005530,0.068166,0.000036,  35.567
   491.8,0.008595,0.005520,0.068046,0.000036,  35.568
   492.0,0.008582,0.005505,0.067872,0.000036,  35.565
   492.2,0.008571,0.005489,0.067740,0.000036,  35.568
   492.4,0.008552,0.005481,0.067597,0.000036,  35.569
   492.6,0.008534,0.005470,0.067459,0.000000,  35.570
   492.8,0.008516,0.005455,0.067291,0.000000,  35.573
   493.0,0.008491,0.005443,0.067117,0.000000,  35.564
   493.2,0.008476,0.005430,0.066919,-0.000036,  35.571
   493.4,0.008457,0.005417,0.066709,-0.000036,  35.572
   493.6,0.008438,0.005408,0.066469,0.000000,  35.574
   493.8,0.008417,0.005396,0.066217,0.000000,  35.577
   494.0,0.008399,0.005381,0.065911,0.000000,  35.572
   494.2,0.008374,0.005369,0.065569,0.000000,  35.575
   494.4,0.008358,0.005353,0.065163,0.000000,  35.574
   494.6,0.008340,0.005335,0.065014,0.000000,  35.574
   494.8,0.008315,0.005323,0.064949,0.000000,  35.574
   495.0,0.008300,0.005316,0.064974,0.000000,  35.577
   495.2,0.008273,0.005307,0.064951,0.000000,  35.580
   495.4,0.008245,0.005293,0.064928,0.000000,  35.575
   495.6,0.008230,0.005279,0.064917,0.000013,  35.575
   495.8,0.008206,0.005269,0.064798,0.000000,  35.577
   496.0,0.008181,0.005254,0.064625,0.000026,  35.574
   496.2,0.008169,0.005233,0.064404,0.000013,  35.574
   496.4,0.008147,0.005217,0.064249,0.000013,  35.577
   496.6,0.008122,0.005199,0.064130,-0.000023,  35.575
   496.8,0.008107,0.005188,0.063988,0.000013,  35.579
   497.0,0.008081,0.005179,0.063881,0.000013,  35.579
   497.2,0.008053,0.005163,0.063786,0.000013,  35.581
   497.4,0.008038,0.005152,0.063685,0.000000,  35.573
   497.6,0.008014,0.005140,0.063602,0.000000,  35.581
   497.8,0.007989,0.005122,0.063454,0.000000,  35.577
   498.0,0.007974,0.005107,0.063288,0.000000,  35.579
   498.2,0.007953,0.005089,0.063086,-0.000013,  35.580
   498.4,0.007928,0.005071,0.062949,-0.000013,  35.581
   498.6,0.007913,0.005060,0.062843,-0.000013,  35.579
   498.8,0.007891,0.005046,0.062730,0.000010,  35.583
   499.0,0.007866,0.005035,0.062552,0.000010,  35.587
   499.2,0.007849,0.005029,0.062363,0.000023,  35.584
   499.4,0.007827,0.005024,0.062113,0.000036,  35.584
   499.6,0.007802,0.005007,0.061924,0.000036,  35.585
   499.8,0.007793,0.004997,0.061770,0.000000,  35.587
   500.0,0.007777,0.004984,0.061610,-0.000036,  35.587
   500.2,0.007752,0.004971,0.061427,-0.000036,  35.588
   500.4,0.007742,0.004957,0.061232,-0.000013,  35.587
   500.6,0.007726,0.004951,0.061019,-0.000026,  35.585
   500.8,0.007713,0.004939,0.060883,-0.000026,  35.584
   501.0,0.007693,0.004932,0.060759,-0.000013,  35.590
   501.2,0.007686,0.004920,0.060659,-0.000013,  35.591
   501.4,0.007673,0.004903,0.060500,-0.000013,  35.588
   501.6,0.007657,0.004893,0.060334,-0.000013,  35.592
   501.8,0.007644,0.004880,0.060139,-0.000013,  35.588
   502.0,0.007623,0.004868,0.059998,-0.000013,  35.595
   502.2,0.007607,0.004853,0.059862,-0.000013,  35.594
   502.4,0.007582,0.004848,0.059739,-0.000013,  35.597
   502.6,0.007570,0.004837,0.059592,-0.000013,  35.598
   502.8,0.007545,0.004826,0.059409,-0.000026,  35.593
   503.0,0.007529,0.004816,0.059220,-0.000013,  35.596
   503.2,0.007510,0.004804,0.059115,-0.000013,  35.595
   503.4,0.007488,0.004794,0.059021,-0.000013,  35.598
   503.6,0.007469,0.004780,0.058956,0.000000,  35.596
   503.8,0.007450,0.004767,0.058586,0.000000,  35.597
   504.0,0.007428,0.004755,0.058068,0.000000,  35.595
   504.2,0.007418,0.004748,0.057410,0.000013,  35.595
   504.4,0.007403,0.004736,0.057287,0.000013,  35.596
   504.6,0.007381,0.004723,0.057346,0.000000,  35.598
   504.8,0.007374,0.004715,0.057593,0.000000,  35.596
   505.0,0.007355,0.004700,0.057552,0.000000,  35.596
   505.2,0.007330,0.004690,0.057435,0.000013,  35.599
   505.4,0.007318,0.004684,0.057259,0.000000,  35.598
   505.6,0.007297,0.004672,0.057154,0.000000,  35.599
   505.8,0.007278,0.004653,0.057066,-0.000036,  35.603
   506.0,0.007262,0.004644,0.056978,0.000000,  35.601
   506.2,0.007253,0.004637,0.056897,0.000000,  35.600
   506.4,0.007239,0.004621,0.056791,0.000000,  35.601
   506.6,0.007217,0.004614,0.056698,0.000000,  35.602
   506.8,0.007205,0.004602,0.056604,0.000000,  35.601
   507.0,0.007191,0.004593,0.056517,0.000000,  35.601
   507.2,0.007164,0.004581,0.056429,0.000000,  35.601
   507.4,0.007149,0.004562,0.056353,0.000000,  35.602
   507.6,0.007134,0.004556,0.055856,0.000000,  35.604
   507.8,0.007114,0.004550,0.055144,0.000000,  35.605
   508.0,0.007104,0.004544,0.054219,0.000000,  35.600
   508.2,0.007081,0.004533,0.053916,0.000000,  35.607
   508.4,0.007059,0.004529,0.053812,0.000000,  35.609
   508.6,0.007042,0.004523,0.053905,0.000000,  35.606
   508.8,0.007022,0.004514,0.053957,0.000000,  35.604
   509.0,0.007000,0.004502,0.054091,0.000000,  35.604
   509.2,0.006993,0.004494,0.054289,0.000000,  35.610
   509.4,0.006977,0.004482,0.054335,0.000000,  35.609
   509.6,0.006956,0.004470,0.054324,0.000000,  35.607
   509.8,0.006932,0.004453,0.054254,0.000000,  35.607
   510.0,0.006916,0.004444,0.054196,0.000000,  35.606
   510.2,0.006902,0.004434,0.054103,0.000000,  35.603
   510.4,0.006884,0.004424,0.053993,0.000000,  35.604
   510.6,0.006870,0.004412,0.053911,0.000013,  35.604
   510.8,0.006860,0.004396,0.053830,0.000013,  35.605
   511.0,0.006849,0.004378,0.053754,0.000013,  35.604
   511.2,0.006838,0.004368,0.053557,0.000013,  35.604
   511.4,0.006825,0.004361,0.053302,0.000000,  35.604
   511.6,0.006807,0.004355,0.052988,0.000000,  35.604
   511.8,0.006782,0.004344,0.052867,0.000000,  35.608
   512.0,0.006763,0.004334,0.052820,0.000000,  35.606
   512.2,0.006738,0.004328,0.052849,0.000000,  35.608
   512.4,0.006723,0.004318,0.052815,0.000013,  35.606
   512.6,0.006707,0.004305,0.052786,0.000013,  35.606
   512.8,0.006682,0.004291,0.052768,0.000013,  35.608
   513.0,0.006675,0.004281,0.052693,0.000013,  35.608
   513.2,0.006659,0.004274,0.052594,0.000000,  35.611
   513.4,0.006634,0.004261,0.052473,0.000000,  35.611
   513.6,0.006619,0.004251,0.052160,0.000000,  35.607
   513.8,0.006603,0.004239,0.051738,0.000000,  35.607
   514.0,0.006581,0.004232,0.051230,0.000013,  35.606
   514.2,0.006569,0.004224,0.051108,0.000000,  35.608
   514.4,0.006550,0.004212,0.051137,0.000026,  35.608
   514.6,0.006525,0.004196,0.051304,0.000013,  35.611
   514.8,0.006510,0.004184,0.051264,0.000013,  35.613
   515.0,0.006492,0.004175,0.051195,-0.000023,  35.604
   515.2,0.006467,0.004168,0.051085,0.000013,  35.607
   515.4,0.006452,0.004156,0.050947,0.000013,  35.607
   515.6,0.006436,0.004144,0.050647,0.000026,  35.607
   515.8,0.006411,0.004132,0.050255,0.000013,  35.609
   516.0,0.006396,0.004114,0.049778,0.000013,  35.609
   516.2,0.006376,0.004102,0.049651,0.000026,  35.615
   516.4,0.006359,0.004094,0.049680,0.000013,  35.611
   516.6,0.006344,0.004084,0.049834,0.000013,  35.610
   516.8,0.006319,0.004071,0.049805,0.000013,  35.604
   517.0,0.006308,0.004063,0.049777,0.000000,  35.606
   517.2,0.006290,0.004053,0.049713,-0.000013,  35.610
   517.4,0.006273,0.004040,0.049638,-0.000013,  35.608
   517.6,0.006254,0.004022,0.049535,-0.000026,  35.610
   517.8,0.006238,0.004008,0.049385,-0.000026,  35.608
   518.0,0.006224,0.003998,0.049282,-0.000026,  35.607
   518.2,0.006211,0.003984,0.049190,-0.000026,  35.608
   518.4,0.006190,0.003982,0.049103,-0.000013,  35.608
   518.6,0.006174,0.003969,0.048839,-0.000013,  35.604
   518.8,0.006154,0.003959,0.048478,-0.000026,  35.608
   519.0,0.006138,0.003944,0.048049,-0.000013,  35.607
   519.2,0.006125,0.003927,0.047922,-0.000013,  35.602
   519.4,0.006114,0.003918,0.047899,-0.000013,  35.602
   519.6,0.006095,0.003907,0.047979,-0.000013,  35.609
   519.8,0.006090,0.003900,0.047956,-0.000013,  35.605
   520.0,0.006077,0.003886,0.047932,-0.000013,  35.605
   520.2,0.006061,0.003875,0.047926,-0.000013,  35.605
   520.4,0.006043,0.003871,0.047863,-0.000013,  35.604
   520.6,0.006027,0.003861,0.047766,-0.000013,  35.601
   520.8,0.006004,0.003849,0.047645,-0.000013,  35.602
   521.0,0.005995,0.003839,0.047536,-0.000013,  35.602
   521.2,0.005979,0.003827,0.047422,-0.000013,  35.606
   521.4,0.005956,0.003811,0.047273,-0.000013,  35.606
   521.6,0.005947,0.003801,0.047130,-0.000013,  35.603
   521.8,0.005931,0.003796,0.046981,-0.000013,  35.604
   522.0,0.005909,0.003790,0.046816,-0.000013,  35.603
   522.2,0.005899,0.003778,0.046696,-0.000013,  35.600
   522.4,0.005883,0.003766,0.046570,-0.000013,  35.601
   522.6,0.005858,0.003757,0.046439,-0.000013,  35.604
   522.8,0.005846,0.003744,0.046336,-0.000013,  35.613
   523.0,0.005821,0.003734,0.046244,-0.000013,  35.608
   523.2,0.005800,0.003729,0.046141,-0.000013,  35.610
   523.4,0.005779,0.003715,0.046044,-0.000013,  35.607
   523.6,0.005756,0.003705,0.045958,-0.000049,  35.606
   523.8,0.005747,0.003695,0.045879,-0.000013,  35.608
   524.0,0.005736,0.003676,0.045799,-0.000013,  35.602
   524.2,0.005719,0.003662,0.045707,-0.000026,  35.606
   524.4,0.005712,0.003652,0.045616,-0.000052,  35.601
   524.6,0.005702,0.003638,0.045536,-0.000039,  35.604
   524.8,0.005686,0.003626,0.045411,-0.000039,  35.604
   525.0,0.005674,0.003625,0.045268,-0.000052,  35.604
   525.2,0.005665,0.003617,0.045103,-0.000039,  35.602
   525.4,0.005649,0.003602,0.044938,-0.000039,  35.609
   525.6,0.005630,0.003594,0.044779,-0.000039,  35.608
   525.8,0.005619,0.003588,0.044603,-0.000026,  35.603
   526.0,0.005608,0.003577,0.044455,-0.000039,  35.605
   526.2,0.005591,0.003576,0.044330,-0.000039,  35.608
   526.4,0.005578,0.003568,0.044199,-0.000026,  35.616
   526.6,0.005561,0.003558,0.044074,-0.000026,  35.608
   526.8,0.005548,0.003549,0.043949,-0.000026,  35.611
   527.0,0.005534,0.003540,0.043825,-0.000013,  35.609
   527.2,0.005517,0.003530,0.043728,-0.000013,  35.604
   527.4,0.005511,0.003525,0.043631,-0.000026,  35.607
   527.6,0.005495,0.003519,0.043540,-0.000013,  35.610
   527.8,0.005475,0.003509,0.043421,-0.000013,  35.606
   528.0,0.005459,0.003499,0.043285,-0.000026,  35.608
   528.2,0.005443,0.003489,0.043104,-0.000013,  35.607
   528.4,0.005430,0.003483,0.042968,-0.000013,  35.607
   528.6,0.005413,0.003475,0.042833,-0.000013,  35.608
   528.8,0.005400,0.003467,0.042691,-0.000013,  35.607
   529.0,0.005395,0.003462,0.042629,-0.000013,  35.604
   529.2,0.005374,0.003457,0.042611,-0.000013,  35.615
   529.4,0.005348,0.003448,0.042610,-0.000013,  35.622
   529.6,0.005322,0.003438,0.042148,-0.000013,  35.622
   529.8,0.005297,0.003430,0.041490,-0.000013,  35.610
   530.0,0.005290,0.003417,0.040603,-0.000013,  35.610
   530.2,0.005275,0.003400,0.040015,-0.000013,  35.613
   530.4,0.005265,0.003386,0.039473,-0.000013,  35.610
   530.6,0.005262,0.003376,0.038970,-0.000013,  35.611
   530.8,0.005260,0.003359,0.038980,-0.000026,  35.611
   531.0,0.005243,0.003346,0.039275,-0.000052,  35.612
   531.2,0.005238,0.003335,0.039827,-0.000039,  35.608
   531.4,0.005226,0.003327,0.040000,-0.000039,  35.614
   531.6,0.005209,0.003317,0.040128,-0.000052,  35.617
   531.8,0.005192,0.003315,0.040200,-0.000039,  35.612
   532.0,0.005179,0.003311,0.040250,-0.000026,  35.619
   532.2,0.005171,0.003300,0.040255,-0.000026,  35.622
   532.4,0.005151,0.003299,0.040232,-0.000026,  35.615
   532.6,0.005140,0.003296,0.040187,-0.000013,  35.622
   532.8,0.005123,0.003281,0.040119,-0.000013,  35.620
   533.0,0.005110,0.003276,0.040023,-0.000026,  35.619
   533.2,0.005097,0.003268,0.039966,-0.000013,  35.623
   533.4,0.005080,0.003260,0.039932,-0.000062,  35.622
   533.6,0.005073,0.003254,0.039898,-0.000026,  35.621
   533.8,0.005062,0.003245,0.039881,-0.000013,  35.624
   534.0,0.005048,0.003239,0.039808,-0.000013,  35.626
   534.2,0.005041,0.003235,0.039718,-0.000013,  35.623
   534.4,0.005028,0.003223,0.039617,-0.000013,  35.623
   534.6,0.005008,0.003215,0.039543,-0.000013,  35.621
   534.8,0.005002,0.003206,0.039487,-0.000013,  35.622
   535.0,0.004986,0.003196,0.039435,-0.000013,  35.625
   535.2,0.004963,0.003194,0.039401,-0.000013,  35.627
   535.4,0.004957,0.003187,0.039378,-0.000013,  35.627
   535.6,0.004941,0.003189,0.039350,0.000000,  35.625
   535.8,0.004918,0.003179,0.039298,0.000000,  35.629
   536.0,0.004900,0.003175,0.039242,0.000000,  35.635
   536.2,0.004879,0.003164,0.039169,0.000036,  35.640
   536.4,0.004856,0.003148,0.039040,0.000036,  35.633
   536.6,0.004852,0.003145,0.038883,0.000023,  35.635
   536.8,0.004845,0.003132,0.038693,0.000010,  35.635
   537.0,0.004832,0.003120,0.038559,0.000010,  35.635
   537.2,0.004821,0.003104,0.038436,-0.000013,  35.632
   537.4,0.004817,0.003089,0.038313,-0.000049,  35.634
   537.6,0.004807,0.003079,0.037817,-0.000049,  35.634
   537.8,0.004799,0.003072,0.037155,-0.000026,  35.636
   538.0,0.004782,0.003063,0.036301,-0.000013,  35.632
   538.2,0.004783,0.003053,0.036040,-0.000013,  35.632
   538.4,0.004772,0.003044,0.035984,-0.000026,  35.632
   538.6,0.004762,0.003043,0.036127,-0.000013,  35.632
   538.8,0.004748,0.003037,0.036054,-0.000013,  35.632
   539.0,0.004738,0.003028,0.035976,-0.000026,  35.627
   539.2,0.004721,0.003020,0.035876,0.000023,  35.618
   539.4,0.004714,0.003017,0.035925,0.000010,  35.618
   539.6,0.004701,0.003012,0.036057,-0.000003,  35.615
   539.8,0.004685,0.003003,0.036261,0.000045,  35.620
   540.0,0.004675,0.002997,0.036332,0.000045,  35.619
   540.2,0.004667,0.002986,0.036364,0.000010,  35.614
   540.4,0.004648,0.002976,0.036369,0.000023,  35.620
   540.6,0.004640,0.002967,0.036351,0.000023,  35.614
   540.8,0.004632,0.002957,0.036295,0.000010,  35.616
   541.0,0.004612,0.002955,0.036223,0.000023,  35.616
   541.2,0.004605,0.002949,0.036028,0.000010,  35.616
   541.4,0.004588,0.002940,0.035773,-0.000003,  35.619
   541.6,0.004575,0.002930,0.035447,-0.000003,  35.622
   541.8,0.004562,0.002923,0.035352,0.000010,  35.617
   542.0,0.004549,0.002919,0.035334,-0.000003,  35.618
   542.2,0.004533,0.002909,0.035417,-0.000003,  35.615
   542.4,0.004523,0.002897,0.035394,0.000010,  35.619
   542.6,0.004507,0.002898,0.035371,-0.000003,  35.626
   542.8,0.004480,0.002887,0.035332,0.000010,  35.623
   543.0,0.004462,0.002875,0.035287,0.000023,  35.615
   543.2,0.004449,0.002868,0.035298,0.000023,  35.618
   543.4,0.004435,0.002863,0.035307,0.000010,  35.616
   543.6,0.004433,0.002852,0.035351,0.000023,  35.618
   543.8,0.004425,0.002835,0.035339,0.000010,  35.620
   544.0,0.004408,0.002828,0.035310,-0.000017,  35.616
   544.2,0.004407,0.002823,0.035271,-0.000003,  35.618
   544.4,0.004393,0.002811,0.035176,-0.000003,  35.619
   544.6,0.004379,0.002806,0.035026,-0.000017,  35.619
   544.8,0.004366,0.002802,0.034849,-0.000003,  35.623
   545.0,0.004349,0.002796,0.034711,-0.000003,  35.619
   545.2,0.004342,0.002795,0.034556,-0.000003,  35.619
   545.4,0.004329,0.002794,0.034390,-0.000026,  35.620
   545.6,0.004315,0.002783,0.034251,-0.000039,  35.613
   545.8,0.004311,0.002773,0.034146,-0.000039,  35.614
   546.0,0.004303,0.002766,0.034041,-0.000062,  35.613
   546.2,0.004288,0.002751,0.033957,-0.000075,  35.612
   546.4,0.004284,0.002748,0.033890,-0.000039,  35.610
   546.6,0.004268,0.002743,0.033840,-0.000026,  35.614
   546.8,0.004260,0.002735,0.033773,-0.000026,  35.608
   547.0,0.004252,0.002731,0.033695,-0.000026,  35.611
   547.2,0.004244,0.002726,0.033611,-0.000013,  35.608
   547.4,0.004243,0.002720,0.033539,-0.000013,  35.608
   547.6,0.004235,0.002712,0.033456,-0.000026,  35.610
   547.8,0.004222,0.002704,0.033367,-0.000013,  35.609
   548.0,0.004206,0.002691,0.033284,-0.000013,  35.608
   548.2,0.004195,0.002687,0.033179,-0.000026,  35.604
   548.4,0.004178,0.002683,0.033069,-0.000013,  35.603
   548.6,0.004171,0.002674,0.032985,-0.000013,  35.603
   548.8,0.004156,0.002664,0.032913,-0.000026,  35.605
   549.0,0.004131,0.002661,0.032852,-0.000013,  35.607
   549.2,0.004113,0.002655,0.032752,-0.000013,  35.611
   549.4,0.004100,0.002642,0.032642,-0.000026,  35.607
   549.6,0.004083,0.002635,0.032520,-0.000013,  35.603
   549.8,0.004079,0.002627,0.032399,-0.000013,  35.602
   550.0,0.004065,0.002615,0.032278,-0.000026,  35.601
   550.2,0.004059,0.002605,0.032141,-0.000026,  35.599
   550.4,0.004054,0.002595,0.032080,-0.000026,  35.601
   550.6,0.004042,0.002585,0.032040,-0.000039,  35.597
   550.8,0.004041,0.002575,0.032040,-0.000065,  35.601
   551.0,0.004028,0.002569,0.031995,-0.000065,  35.603
   551.2,0.004011,0.002563,0.031956,-0.000101,  35.599
   551.4,0.004009,0.002556,0.031889,-0.000065,  35.602
   551.6,0.003999,0.002550,0.031845,-0.000052,  35.598
   551.8,0.003984,0.002550,0.031779,-0.000052,  35.603
   552.0,0.003980,0.002543,0.031696,-0.000052,  35.602
   552.2,0.003969,0.002537,0.031613,-0.000039,  35.603
   552.4,0.003955,0.002535,0.031541,-0.000039,  35.600
   552.6,0.003945,0.002526,0.031458,-0.000039,  35.603
   552.8,0.003929,0.002519,0.031392,-0.000026,  35.602
   553.0,0.003912,0.002511,0.031031,-0.000039,  35.599
   553.2,0.003901,0.002509,0.030517,-0.000039,  35.601
   553.4,0.003892,0.002505,0.029842,-0.000026,  35.601
   553.6,0.003875,0.002499,0.029770,-0.000026,  35.603
   553.8,0.003864,0.002491,0.029921,-0.000026,  35.600
   554.0,0.003857,0.002486,0.030284,0.000023,  35.603
   554.2,0.003840,0.002473,0.030049,0.000010,  35.593
   554.4,0.003836,0.002468,0.029629,-0.000003,  35.597
   554.6,0.003829,0.002462,0.029021,0.000045,  35.601
   554.8,0.003812,0.002456,0.028982,0.000032,  35.597
   555.0,0.003808,0.002443,0.029133,-0.000003,  35.597
   555.2,0.003798,0.002438,0.029458,0.000010,  35.592
   555.4,0.003778,0.002430,0.029523,-0.000003,  35.596
   555.6,0.003771,0.002418,0.029549,-0.000003,  35.602
   555.8,0.003750,0.002414,0.029516,0.000010,  35.604
   556.0,0.003740,0.002409,0.029124,-0.000003,  35.599
   556.2,0.003725,0.002399,0.028537,-0.000003,  35.594
   556.4,0.003726,0.002392,0.027752,-0.000026,  35.594
   556.6,0.003721,0.002387,0.027723,-0.000039,  35.590
   556.8,0.003713,0.002377,0.027976,-0.000039,  35.593
   557.0,0.003705,0.002357,0.028517,-0.000062,  35.597
   557.2,0.003691,0.002347,0.028705,-0.000075,  35.598
   557.4,0.003677,0.002346,0.028855,-0.000052,  35.595
   557.6,0.003671,0.002344,0.028962,-0.000003,  35.595
   557.8,0.003670,0.002334,0.028972,-0.000017,  35.594
   558.0,0.003653,0.002332,0.028912,-0.000030,  35.597
   558.2,0.003649,0.002333,0.028781,0.000019,  35.598
   558.4,0.003644,0.002327,0.028764,0.000019,  35.597
   558.6,0.003627,0.002320,0.028757,-0.000017,  35.594
   558.8,0.003626,0.002316,0.028773,-0.000003,  35.594
   559.0,0.003621,0.002305,0.028728,-0.000003,  35.593
   559.2,0.003606,0.002303,0.028668,-0.000017,  35.596
   559.4,0.003600,0.002299,0.028570,-0.000003,  35.600
   559.6,0.003586,0.002292,0.028304,-0.000003,  35.598
   559.8,0.003572,0.002288,0.027952,-0.000003,  35.599
   560.0,0.003570,0.002284,0.027497,-0.000003,  35.598
   560.2,0.003560,0.002282,0.027420,0.000010,  35.603
   560.4,0.003546,0.002273,0.027501,0.000010,  35.599
   560.6,0.003541,0.002268,0.027710,0.000010,  35.605
   560.8,0.003528,0.002262,0.027775,0.000023,  35.605
   561.0,0.003511,0.002254,0.027816,0.000010,  35.600
   561.2,0.003503,0.002247,0.027876,0.000010,  35.608
   561.4,0.003493,0.002241,0.027907,0.000023,  35.605
   561.6,0.003476,0.002234,0.027852,0.000010,  35.604
   561.8,0.003465,0.002229,0.027744,-0.000003,  35.602
   562.0,0.003458,0.002226,0.027592,-0.000026,  35.604
   562.2,0.003444,0.002216,0.027531,-0.000039,  35.603
   562.4,0.003436,0.002203,0.027482,-0.000039,  35.602
   562.6,0.003429,0.002197,0.027442,-0.000062,  35.599
   562.8,0.003412,0.002195,0.027139,-0.000075,  35.602
   563.0,0.003404,0.002185,0.026707,-0.000039,  35.604
   563.2,0.003398,0.002183,0.026130,-0.000026,  35.602
   563.4,0.003383,0.002174,0.026049,-0.000039,  35.602
   563.6,0.003370,0.002170,0.026134,-0.000039,  35.606
   563.8,0.003366,0.002163,0.026374,-0.000026,  35.604
   564.0,0.003352,0.002159,0.026449,-0.000039,  35.602
   564.2,0.003344,0.002146,0.026507,-0.000052,  35.599
   564.4,0.003340,0.002145,0.026544,-0.000039,  35.599
   564.6,0.003332,0.002140,0.026499,-0.000039,  35.601
   564.8,0.003321,0.002129,0.026429,-0.000052,  35.604
   565.0,0.003321,0.002120,0.026299,-0.000039,  35.598
   565.2,0.003310,0.002114,0.026228,-0.000039,  35.600
   565.4,0.003299,0.002109,0.026178,-0.000039,  35.596
   565.6,0.003291,0.002102,0.026129,-0.000026,  35.605
   565.8,0.003285,0.002096,0.026112,-0.000039,  35.603
   566.0,0.003277,0.002089,0.026111,-0.000039,  35.600
   566.2,0.003267,0.002085,0.026120,0.000010,  35.601
   566.4,0.003247,0.002080,0.026157,-0.000017,  35.603
   566.6,0.003233,0.002073,0.026193,-0.000030,  35.603
   566.8,0.003222,0.002064,0.026252,0.000019,  35.600
   567.0,0.003218,0.002056,0.026191,0.000019,  35.602
   567.2,0.003201,0.002049,0.026077,-0.000017,  35.608
   567.4,0.003188,0.002040,0.025926,-0.000003,  35.604
   567.6,0.003181,0.002032,0.025812,-0.000003,  35.608
   567.8,0.003167,0.002028,0.025714,-0.000017,  35.605
   568.0,0.003154,0.002026,0.025600,-0.000003,  35.608
   568.2,0.003152,0.002018,0.025218,-0.000003,  35.604
   568.4,0.003138,0.002013,0.024686,-0.000017,  35.603
   568.6,0.003130,0.002008,0.023999,-0.000017,  35.608
   568.8,0.003126,0.002005,0.023699,-0.000003,  35.607
   569.0,0.003112,0.001997,0.023527,-0.000017,  35.606
   569.2,0.003104,0.001989,0.023462,-0.000017,  35.609
   569.4,0.003100,0.001985,0.023450,-0.000017,  35.603
   569.6,0.003083,0.001981,0.023541,-0.000017,  35.606
   569.8,0.003072,0.001971,0.023683,-0.000017,  35.606
   570.0,0.003068,0.001962,0.023923,-0.000039,  35.609
   570.2,0.003051,0.001954,0.024019,-0.000039,  35.603
   570.4,0.003043,0.001952,0.024092,-0.000052,  35.602
   570.6,0.003041,0.001950,0.024155,-0.000075,  35.602
   570.8,0.003030,0.001940,0.024133,-0.000075,  35.605
   571.0,0.003019,0.001934,0.024068,-0.000052,  35.606
   571.2,0.003015,0.001930,0.023950,-0.000039,  35.604
   571.4,0.003003,0.001922,0.023901,-0.000039,  35.606
   571.6,0.002993,0.001918,0.023867,-0.000052,  35.605
   571.8,0.002991,0.001917,0.023829,-0.000039,  35.607
   572.0,0.002980,0.001912,0.023758,-0.000039,  35.602
   572.2,0.002969,0.001903,0.023688,-0.000039,  35.606
   572.4,0.002968,0.001904,0.023591,-0.000026,  35.606
   572.6,0.002956,0.001904,0.023547,-0.000039,  35.603
   572.8,0.002945,0.001895,0.023525,-0.000039,  35.606
   573.0,0.002944,0.001890,0.023513,-0.000026,  35.603
   573.2,0.002936,0.001888,0.023357,-0.000039,  35.602
   573.4,0.002922,0.001882,0.023121,-0.000039,  35.604
   573.6,0.002920,0.001877,0.022811,0.000010,  35.604
   573.8,0.002919,0.001873,0.022730,-0.000003,  35.602
   574.0,0.002911,0.001867,0.022724,-0.000003,  35.603
   574.2,0.002900,0.001859,0.022787,0.000045,  35.601
   574.4,0.002887,0.001853,0.022727,0.000019,  35.601
   574.6,0.002870,0.001850,0.022663,-0.000030,  35.605
   574.8,0.002866,0.001843,0.022556,-0.000030,  35.606
   575.0,0.002855,0.001840,0.022507,-0.000030,  35.601
   575.2,0.002849,0.001831,0.022479,-0.000043,  35.603
   575.4,0.002843,0.001825,0.022457,-0.000065,  35.600
   575.6,0.002840,0.001817,0.022419,-0.000065,  35.603
   575.8,0.002835,0.001809,0.022370,-0.000065,  35.608
   576.0,0.002817,0.001799,0.022305,-0.000088,  35.606
   576.2,0.002804,0.001790,0.022229,-0.000101,  35.602
   576.4,0.002795,0.001785,0.022132,-0.000065,  35.599
   576.6,0.002780,0.001776,0.022009,-0.000052,  35.601
   576.8,0.002785,0.001771,0.021635,-0.000065,  35.602
   577.0,0.002774,0.001765,0.021124,-0.000065,  35.603
   577.2,0.002768,0.001763,0.020471,-0.000065,  35.600
   577.4,0.002763,0.001764,0.020374,-0.000052,  35.601
   577.6,0.002751,0.001760,0.020490,-0.000065,  35.605
   577.8,0.002750,0.001755,0.020819,-0.000052,  35.602
   578.0,0.002742,0.001753,0.020882,-0.000052,  35.594
   578.2,0.002730,0.001746,0.020924,-0.000088,  35.600
   578.4,0.002722,0.001739,0.020928,-0.000052,  35.598
   578.6,0.002715,0.001726,0.020906,-0.000039,  35.596
   578.8,0.002703,0.001722,0.020953,-0.000039,  35.596
   579.0,0.002695,0.001718,0.021015,-0.000052,  35.598
   579.2,0.002684,0.001710,0.021099,-0.000039,  35.599
   579.4,0.002670,0.001710,0.020997,-0.000039,  35.599
   579.6,0.002665,0.001707,0.020800,-0.000052,  35.597
   579.8,0.002657,0.001701,0.020512,-0.000039,  35.598
   580.0,0.002643,0.001693,0.020527,-0.000039,  35.595
   580.2,0.002644,0.001688,0.020627,-0.000052,  35.592
   580.4,0.002640,0.001684,0.020832,-0.000039,  35.595
   580.6,0.002625,0.001674,0.020889,-0.000039,  35.594
   580.8,0.002626,0.001677,0.020904,-0.000052,  35.593
   581.0,0.002616,0.001671,0.020898,-0.000039,  35.594
   581.2,0.002602,0.001662,0.020887,-0.000039,  35.591
   581.4,0.002600,0.001657,0.020838,-0.000052,  35.590
   581.6,0.002590,0.001655,0.020778,-0.000039,  35.589
   581.8,0.002570,0.001651,0.020713,-0.000039,  35.586
   582.0,0.002557,0.001641,0.020617,-0.000052,  35.597
   582.2,0.002538,0.001636,0.020511,-0.000039,  35.596
   582.4,0.002530,0.001631,0.020462,-0.000052,  35.583
   582.6,0.002521,0.001622,0.020419,-0.000065,  35.590
   582.8,0.002525,0.001625,0.020402,-0.000052,  35.586
   583.0,0.002525,0.001615,0.020322,-0.000065,  35.586
   583.2,0.002513,0.001595,0.020205,-0.000065,  35.585
   583.4,0.002517,0.001579,0.020067,-0.000052,  35.585
   583.6,0.002521,0.001574,0.020034,-0.000065,  35.579
   583.8,0.002512,0.001570,0.020049,-0.000065,  35.582
   584.0,0.002516,0.001572,0.020095,-0.000052,  35.584
   584.2,0.002510,0.001572,0.020073,-0.000065,  35.587
   584.4,0.002501,0.001568,0.020030,-0.000065,  35.587
   584.6,0.002503,0.001568,0.019966,-0.000052,  35.585
   584.8,0.002500,0.001568,0.019875,-0.000065,  35.586
   585.0,0.002491,0.001570,0.019785,-0.000065,  35.582
   585.2,0.002495,0.001574,0.019664,-0.000052,  35.585
   585.4,0.002489,0.001573,0.019610,-0.000052,  35.582
   585.6,0.002480,0.001576,0.019583,-0.000052,  35.586
   585.8,0.002479,0.001573,0.019571,-0.000052,  35.588
   586.0,0.002471,0.001570,0.019560,-0.000039,  35.588
   586.2,0.002462,0.001577,0.019543,-0.000052,  35.582
   586.4,0.002466,0.001573,0.019531,-0.000052,  35.589
   586.6,0.002463,0.001568,0.019377,-0.000052,  35.586
   586.8,0.002451,0.001570,0.019155,-0.000075,  35.588
   587.0,0.002447,0.001564,0.018865,-0.000039,  35.585
   587.2,0.002439,0.001558,0.018796,-0.000026,  35.584
   587.4,0.002428,0.001561,0.018800,-0.000039,  35.589
   587.6,0.002420,0.001559,0.018879,-0.000039,  35.584
   587.8,0.002412,0.001555,0.019026,0.000010,  35.584
   588.0,0.002403,0.001555,0.018983,-0.000003,  35.587
   588.2,0.002401,0.001558,0.018914,-0.000017,  35.588
   588.4,0.002400,0.001558,0.018815,0.000032,  35.585
   588.6,0.002388,0.001547,0.018777,0.000032,  35.585
   588.8,0.002387,0.001540,0.018771,-0.000017,  35.589
   589.0,0.002376,0.001534,0.018770,-0.000003,  35.589
   589.2,0.002362,0.001529,0.018732,-0.000003,  35.588
   589.4,0.002360,0.001529,0.018689,-0.000017,  35.587
   589.6,0.002352,0.001523,0.018631,-0.000003,  35.585
   589.8,0.002338,0.001523,0.018640,-0.000003,  35.586
   590.0,0.002333,0.001521,0.018671,-0.000017,  35.591
   590.2,0.002328,0.001520,0.018706,-0.000003,  35.589
   590.4,0.002316,0.001514,0.018663,-0.000003,  35.594
   590.6,0.002308,0.001509,0.018574,-0.000017,  35.597
   590.8,0.002309,0.001504,0.018436,-0.000039,  35.593
   591.0,0.002297,0.001498,0.018398,-0.000039,  35.599
   591.2,0.002292,0.001490,0.018382,-0.000039,  35.596
   591.4,0.002293,0.001484,0.018375,-0.000062,  35.596
   591.6,0.002284,0.001482,0.018337,-0.000075,  35.598
   591.8,0.002288,0.001480,0.018288,-0.000039,  35.599
   592.0,0.002289,0.001476,0.018235,-0.000026,  35.602
   592.2,0.002284,0.001474,0.018155,-0.000039,  35.601
   592.4,0.002281,0.001468,0.018070,-0.000039,  35.601
   592.6,0.002276,0.001464,0.017981,-0.000026,  35.605
   592.8,0.002271,0.001460,0.017822,-0.000039,  35.605
   593.0,0.002259,0.001454,0.017622,-0.000039,  35.602
   593.2,0.002258,0.001454,0.017374,-0.000026,  35.603
   593.4,0.002247,0.001452,0.017320,-0.000039,  35.605
   593.6,0.002235,0.001451,0.017346,-0.000039,  35.606
   593.8,0.002234,0.001449,0.017425,-0.000026,  35.601
   594.0,0.002230,0.001447,0.017477,-0.000039,  35.606
   594.2,0.002221,0.001442,0.017544,-0.000039,  35.604
   594.4,0.002216,0.001435,0.017611,-0.000026,  35.602
   594.6,0.002217,0.001432,0.017584,-0.000039,  35.600
   594.8,0.002202,0.001428,0.017526,-0.000039,  35.599
   595.0,0.002194,0.001426,0.017415,-0.000026,  35.601
   595.2,0.002188,0.001419,0.017377,-0.000039,  35.605
   595.4,0.002176,0.001420,0.017365,-0.000039,  35.601
   595.6,0.002171,0.001418,0.017381,-0.000039,  35.601
   595.8,0.002172,0.001409,0.017385,-0.000026,  35.598
   596.0,0.002163,0.001407,0.017395,-0.000039,  35.600
   596.2,0.002160,0.001401,0.017394,-0.000039,  35.600
   596.4,0.002155,0.001397,0.017356,-0.000039,  35.598
   596.6,0.002146,0.001388,0.017303,-0.000075,  35.600
   596.8,0.002147,0.001389,0.017213,-0.000039,  35.596
   597.0,0.002142,0.001387,0.017181,-0.000026,  35.596
   597.2,0.002130,0.001379,0.017160,-0.000039,  35.594
   597.4,0.002131,0.001376,0.017148,-0.000039,  35.593
   597.6,0.002118,0.001374,0.017153,-0.000026,  35.596
   597.8,0.002104,0.001370,0.017068,-0.000039,  35.601
   598.0,0.002105,0.001368,0.016948,-0.000039,  35.594
   598.2,0.002097,0.001365,0.016801,-0.000026,  35.595
   598.4,0.002083,0.001360,0.016717,-0.000039,  35.595
   598.6,0.002084,0.001353,0.016632,-0.000039,  35.593
   598.8,0.002076,0.001347,0.016553,-0.000026,  35.596
   599.0,0.002064,0.001341,0.016520,-0.000039,  35.594
   599.2,0.002065,0.001336,0.016519,-0.000039,  35.595
   599.4,0.002058,0.001333,0.016539,-0.000026,  35.600
   599.6,0.002046,0.001329,0.016495,-0.000039,  35.599
   599.8,0.002044,0.001329,0.016442,-0.000039,  35.598
   600.0,0.002037,0.001324,0.016379,0.000010,  35.599
   600.2,0.002025,0.001320,0.016330,-0.000003,  35.601
   600.4,0.002023,0.001311,0.016288,-0.000017,  35.598
   600.6,0.002018,0.001303,0.016251,-0.000003,  35.601
   600.8,0.002006,0.001300,0.016218,-0.000003,  35.598
   601.0,0.002005,0.001297,0.016206,-0.000039,  35.602
   601.2,0.002003,0.001296,0.016216,-0.000062,  35.602
   601.4,0.001998,0.001290,0.016152,-0.000075,  35.606
   601.6,0.001993,0.001288,0.016068,-0.000039,  35.611
   601.8,0.001987,0.001286,0.015963,-0.000026,  35.607
   602.0,0.001981,0.001274,0.015706,-0.000039,  35.611
   602.2,0.001972,0.001272,0.015359,-0.000039,  35.606
   602.4,0.001976,0.001263,0.014914,-0.000026,  35.612
   602.6,0.001971,0.001254,0.014861,-0.000039,  35.609
   602.8,0.001959,0.001258,0.014949,-0.000039,  35.614
   603.0,0.001963,0.001259,0.015173,-0.000026,  35.616
   603.2,0.001964,0.001257,0.015235,-0.000039,  35.617
   603.4,0.001955,0.001255,0.015270,-0.000039,  35.619
   603.6,0.001952,0.001254,0.015306,-0.000026,  35.621
   603.8,0.001953,0.001254,0.015311,-0.000039,  35.622
   604.0,0.001942,0.001249,0.015258,-0.000039,  35.626
   604.2,0.001939,0.001254,0.015189,0.000010,  35.626
   604.4,0.001940,0.001254,0.015168,-0.000003,  35.625
   604.6,0.001931,0.001247,0.015147,-0.000003,  35.627
   604.8,0.001929,0.001246,0.015136,-0.000003,  35.625
   605.0,0.001930,0.001246,0.015146,0.000045,  35.630
   605.2,0.001921,0.001245,0.015171,-0.000003,  35.629
   605.4,0.001915,0.001242,0.015201,-0.000003,  35.636
   605.6,0.001919,0.001245,0.015184,-0.000003,  35.633
   605.8,0.001910,0.001245,0.015153,-0.000003,  35.636
   606.0,0.001905,0.001240,0.015105,-0.000003,  35.634
   606.2,0.001906,0.001234,0.015027,0.000010,  35.638
   606.4,0.001897,0.001232,0.014756,-0.000003,  35.646
   606.6,0.001892,0.001228,0.014364,-0.000003,  35.647
   606.8,0.001896,0.001223,0.013890,0.000010,  35.645
   607.0,0.001887,0.001221,0.013884,-0.000003,  35.643
   607.2,0.001879,0.001223,0.014033,-0.000003,  35.652
   607.4,0.001877,0.001225,0.014387,0.000010,  35.649
   607.6,0.001868,0.001218,0.014475,-0.000003,  35.649
   607.8,0.001863,0.001216,0.014506,-0.000003,  35.652
   608.0,0.001858,0.001212,0.014489,0.000010,  35.651
   608.2,0.001846,0.001210,0.014488,-0.000003,  35.654
   608.4,0.001838,0.001204,0.014483,-0.000003,  35.660
   608.6,0.001825,0.001201,0.014447,-0.000026,  35.658
   608.8,0.001813,0.001192,0.014461,-0.000039,  35.659
   609.0,0.001811,0.001193,0.014507,-0.000039,  35.660
   609.2,0.001814,0.001192,0.014559,-0.000062,  35.658
   609.4,0.001803,0.001192,0.014542,-0.000075,  35.664
   609.6,0.001797,0.001179,0.014506,-0.000039,  35.664
   609.8,0.001799,0.001177,0.014433,-0.000026,  35.665
   610.0,0.001793,0.001175,0.014427,-0.000039,  35.666
   610.2,0.001791,0.001166,0.014437,-0.000039,  35.668
   610.4,0.001785,0.001167,0.014457,-0.000026,  35.666
   610.6,0.001789,0.001161,0.014462,-0.000039,  35.671
   610.8,0.001778,0.001156,0.014440,-0.000039,  35.672
   611.0,0.001781,0.001155,0.014402,-0.000026,  35.670
   611.2,0.001779,0.001153,0.014354,-0.000026,  35.672
   611.4,0.001770,0.001149,0.014296,-0.000026,  35.671
   611.6,0.001773,0.001144,0.014229,-0.000013,  35.673
   611.8,0.001768,0.001140,0.014181,-0.000013,  35.674
   612.0,0.001759,0.001141,0.014150,-0.000026,  35.675
   612.2,0.001757,0.001136,0.014118,-0.000013,  35.680
   612.4,0.001749,0.001136,0.014112,-0.000026,  35.680
   612.6,0.001740,0.001129,0.014100,-0.000039,  35.679
   612.8,0.001734,0.001126,0.014104,-0.000026,  35.689
   613.0,0.001733,0.001123,0.014067,-0.000039,  35.686
   613.2,0.001721,0.001117,0.014009,-0.000039,  35.686
   613.4,0.001716,0.001115,0.013931,-0.000039,  35.686
   613.6,0.001712,0.001113,0.013878,-0.000026,  35.689
   613.8,0.001698,0.001112,0.013835,-0.000026,  35.687
   614.0,0.001696,0.001113,0.013809,-0.000026,  35.686
   614.2,0.001695,0.001109,0.013752,-0.000013,  35.694
   614.4,0.001680,0.001106,0.013662,-0.000062,  35.693
   614.6,0.001681,0.001102,0.013584,-0.000026,  35.690
   614.8,0.001673,0.001100,0.013511,-0.000013,  35.692
   615.0,0.001662,0.001094,0.013427,-0.000013,  35.693
   615.2,0.001663,0.001087,0.013370,-0.000026,  35.693
   615.4,0.001655,0.001083,0.013276,-0.000013,  35.687
   615.6,0.001646,0.001081,0.013265,-0.000026,  35.690
   615.8,0.001650,0.001074,0.013290,-0.000052,  35.686
   616.0,0.001647,0.001065,0.013341,-0.000039,  35.686
   616.2,0.001638,0.001059,0.013314,-0.000052,  35.689
   616.4,0.001639,0.001052,0.013250,-0.000065,  35.688
   616.6,0.001631,0.001045,0.013183,-0.000017,  35.688
   616.8,0.001622,0.001048,0.013192,-0.000030,  35.689
   617.0,0.001626,0.001046,0.013211,-0.000030,  35.692
   617.2,0.001624,0.001047,0.013279,0.000019,  35.691
   617.4,0.001615,0.001047,0.013293,0.000006,  35.692
   617.6,0.001616,0.001045,0.013292,-0.000030,  35.692
   617.8,0.001610,0.001043,0.013276,-0.000017,  35.695
   618.0,0.001601,0.001036,0.013264,-0.000017,  35.693
   618.2,0.001603,0.001041,0.013248,-0.000017,  35.693
   618.4,0.001600,0.001039,0.013210,-0.000003,  35.695
   618.6,0.001597,0.001035,0.013152,-0.000003,  35.697
   618.8,0.001595,0.001033,0.013085,-0.000017,  35.708
   619.0,0.001595,0.001034,0.012976,-0.000003,  35.711
   619.2,0.001592,0.001029,0.012918,-0.000003,  35.712
   619.4,0.001580,0.001029,0.012860,-0.000003,  35.713
   619.6,0.001581,0.001025,0.012824,0.000010,  35.716
   619.8,0.001571,0.001021,0.012740,-0.000003,  35.716
   620.0,0.001562,0.001024,0.012636,-0.000003,  35.718
   620.2,0.001559,0.001021,0.012538,0.000010,  35.721
   620.4,0.001554,0.001015,0.012521,-0.000017,  35.715
   620.6,0.001542,0.001015,0.012536,-0.000030,  35.721
   620.8,0.001537,0.001008,0.012603,-0.000017,  35.726
   621.0,0.001536,0.001002,0.012571,-0.000017,  35.727
   621.2,0.001519,0.000997,0.012503,-0.000017,  35.722
   621.4,0.001503,0.000992,0.012394,-0.000003,  35.720
   621.6,0.001488,0.000983,0.012336,-0.000017,  35.730
   621.8,0.001477,0.000978,0.012284,-0.000030,  35.729
   622.0,0.001471,0.000976,0.012227,-0.000030,  35.731
   622.2,0.001475,0.000970,0.012195,-0.000030,  35.731
   622.4,0.001466,0.000962,0.012163,-0.000043,  35.737
   622.6,0.001464,0.000955,0.012132,-0.000043,  35.730
   622.8,0.001467,0.000947,0.012126,-0.000043,  35.737
   623.0,0.001458,0.000942,0.012120,-0.000043,  35.740
   623.2,0.001456,0.000945,0.012114,-0.000043,  35.741
   623.4,0.001459,0.000945,0.012088,-0.000043,  35.738
   623.6,0.001453,0.000938,0.012036,-0.000043,  35.742
   623.8,0.001450,0.000941,0.011973,-0.000043,  35.746
   624.0,0.001449,0.000941,0.011901,-0.000030,  35.744
   624.2,0.001440,0.000934,0.011910,-0.000030,  35.744
   624.4,0.001444,0.000935,0.011940,-0.000030,  35.746
   624.6,0.001445,0.000935,0.011990,-0.000017,  35.746
   624.8,0.001436,0.000928,0.012000,-0.000030,  35.752
   625.0,0.001440,0.000928,0.011988,-0.000030,  35.755
   625.2,0.001437,0.000926,0.011972,-0.000017,  35.763
   625.4,0.001428,0.000919,0.011893,-0.000030,  35.766
   625.6,0.001432,0.000920,0.011785,-0.000030,  35.770
   625.8,0.001424,0.000918,0.011624,-0.000017,  35.771
   626.0,0.001415,0.000916,0.011587,-0.000030,  35.774
   626.2,0.001416,0.000916,0.011581,-0.000030,  35.775
   626.4,0.001411,0.000914,0.011606,-0.000017,  35.779
   626.6,0.001402,0.000906,0.011574,-0.000017,  35.781
   626.8,0.001405,0.000904,0.011500,-0.000017,  35.781
   627.0,0.001400,0.000903,0.011428,-0.000003,  35.783
   627.2,0.001391,0.000903,0.011375,-0.000003,  35.781
   627.4,0.001386,0.000896,0.011328,-0.000017,  35.788
   627.6,0.001381,0.000896,0.011292,-0.000003,  35.792
   627.8,0.001375,0.000892,0.011239,-0.000003,  35.795
   628.0,0.001364,0.000892,0.011176,-0.000017,  35.794
   628.2,0.001362,0.000888,0.011124,-0.000003,  35.794
   628.4,0.001354,0.000881,0.011123,-0.000003,  35.797
   628.6,0.001345,0.000884,0.011148,-0.000017,  35.797
   628.8,0.001343,0.000878,0.011194,-0.000003,  35.796
   629.0,0.001344,0.000868,0.011110,-0.000003,  35.796
   629.2,0.001337,0.000864,0.010987,-0.000017,  35.801
   629.4,0.001332,0.000853,0.010802,-0.000003,  35.797
   629.6,0.001339,0.000846,0.010786,-0.000017,  35.800
   629.8,0.001332,0.000851,0.010836,-0.000030,  35.798
   630.0,0.001330,0.000849,0.010933,-0.000017,  35.800
   630.2,0.001331,0.000847,0.010931,-0.000030,  35.800
   630.4,0.001322,0.000845,0.010906,-0.000030,  35.800
   630.6,0.001319,0.000845,0.010865,-0.000017,  35.799
   630.8,0.001320,0.000843,0.010559,-0.000030,  35.800
   631.0,0.001311,0.000835,0.010116,-0.000030,  35.800
   631.2,0.001306,0.000836,0.009528,-0.000030,  35.795
   631.4,0.001310,0.000833,0.009487,-0.000017,  35.797
   631.6,0.001301,0.000832,0.009641,-0.000030,  35.798
   631.8,0.001295,0.000830,0.009990,-0.000017,  35.798
   632.0,0.001294,0.000828,0.010056,-0.000017,  35.798
   632.2,0.001285,0.000826,0.010082,-0.000017,  35.793
   632.4,0.001282,0.000828,0.010067,-0.000017,  35.791
   632.6,0.001283,0.000825,0.009994,-0.000039,  35.796
   632.8,0.001274,0.000821,0.010081,-0.000039,  35.794
   633.0,0.001272,0.000820,0.010183,-0.000052,  35.795
   633.2,0.001273,0.000815,0.010326,-0.000075,  35.795
   633.4,0.001264,0.000820,0.010367,-0.000075,  35.796
   633.6,0.001259,0.000818,0.010350,-0.000052,  35.793
   633.8,0.001260,0.000812,0.010294,-0.000039,  35.796
   634.0,0.001251,0.000815,0.010268,-0.000039,  35.795
   634.2,0.001245,0.000817,0.010226,-0.000052,  35.795
   634.4,0.001244,0.000813,0.010164,-0.000039,  35.797
   634.6,0.001230,0.000810,0.010163,-0.000039,  35.801
   634.8,0.001219,0.000806,0.010183,-0.000052,  35.799
   635.0,0.001215,0.000807,0.010213,-0.000039,  35.800
   635.2,0.001206,0.000804,0.010227,-0.000039,  35.793
   635.4,0.001206,0.000800,0.010247,-0.000052,  35.792
   635.6,0.001212,0.000803,0.010251,-0.000052,  35.790
   635.8,0.001206,0.000796,0.010256,-0.000065,  35.792
   636.0,0.001209,0.000789,0.010261,-0.000091,  35.791
   636.2,0.001212,0.000781,0.010251,-0.000091,  35.793
   636.4,0.001212,0.000775,0.009818,-0.000078,  35.786
   636.6,0.001206,0.000773,0.009179,-0.000078,  35.788
   636.8,0.001210,0.000772,0.008327,-0.000065,  35.786
   637.0,0.001207,0.000768,0.008270,-0.000065,  35.785
   637.2,0.001198,0.000766,0.008500,-0.000065,  35.792
   637.4,0.001196,0.000769,0.009033,-0.000052,  35.784
   637.6,0.001197,0.000768,0.009063,-0.000052,  35.784
   637.8,0.001190,0.000766,0.008975,-0.000052,  35.782
   638.0,0.001185,0.000765,0.008779,-0.000003,  35.782
   638.2,0.001186,0.000759,0.008803,-0.000017,  35.779
   638.4,0.001177,0.000762,0.008895,-0.000030,  35.783
   638.6,0.001175,0.000757,0.009055,0.000019,  35.778
   638.8,0.001178,0.000752,0.009126,0.000006,  35.781
   639.0,0.001172,0.000754,0.009181,-0.000030,  35.776
   639.2,0.001169,0.000751,0.009253,-0.000017,  35.778
   639.4,0.001176,0.000747,0.009294,-0.000030,  35.777
   639.6,0.001169,0.000751,0.009304,-0.000030,  35.778
   639.8,0.001167,0.000747,0.009293,-0.000017,  35.778
   640.0,0.001165,0.000739,0.009185,-0.000017,  35.778
   640.2,0.001156,0.000741,0.009010,-0.000017,  35.777
   640.4,0.001156,0.000742,0.008758,-0.000017,  35.773
   640.6,0.001157,0.000740,0.008783,-0.000003,  35.777
   640.8,0.001148,0.000739,0.008905,-0.000017,  35.772
   641.0,0.001146,0.000743,0.009125,-0.000017,  35.773
   641.2,0.001147,0.000738,0.009166,-0.000017,  35.771
   641.4,0.001140,0.000738,0.009160,-0.000017,  35.773
   641.6,0.001138,0.000741,0.009109,-0.000017,  35.764
   641.8,0.001139,0.000734,0.009023,-0.000003,  35.767
   642.0,0.001130,0.000733,0.009006,-0.000003,  35.763
   642.2,0.001130,0.000730,0.009001,-0.000017,  35.762
   642.4,0.001134,0.000725,0.009005,-0.000003,  35.758
   642.6,0.001127,0.000725,0.009081,-0.000003,  35.753
   642.8,0.001125,0.000727,0.009204,-0.000017,  35.757
   643.0,0.001128,0.000723,0.009367,-0.000003,  35.752
   643.2,0.001123,0.000725,0.009340,-0.000003,  35.752
   643.4,0.001125,0.000724,0.009248,-0.000017,  35.754
   643.6,0.001133,0.000722,0.009079,-0.000003,  35.754
   643.8,0.001130,0.000720,0.008739,-0.000003,  35.751
   644.0,0.001120,0.000718,0.008287,-0.000017,  35.750
   644.2,0.001123,0.000716,0.007703,-0.000003,  35.749
   644.4,0.001116,0.000715,0.007666,-0.000003,  35.745
   644.6,0.001113,0.000711,0.007845,-0.000017,  35.749
   644.8,0.001111,0.000713,0.008223,-0.000003,  35.747
   645.0,0.001102,0.000709,0.008166,-0.000017,  35.745
   645.2,0.001099,0.000704,0.007997,-0.000030,  35.744
   645.4,0.001094,0.000706,0.007720,-0.000017,  35.742
   645.6,0.001091,0.000706,0.007751,-0.000030,  35.745
   645.8,0.001085,0.000703,0.007878,-0.000030,  35.748
   646.0,0.001082,0.000705,0.008108,-0.000017,  35.742
   646.2,0.001086,0.000700,0.008170,-0.000030,  35.741
   646.4,0.001080,0.000696,0.008175,-0.000030,  35.741
   646.6,0.001080,0.000695,0.008139,-0.000017,  35.738
   646.8,0.001080,0.000691,0.008154,-0.000030,  35.740
   647.0,0.001073,0.000687,0.008164,-0.000030,  35.740
   647.2,0.001071,0.000691,0.008169,-0.000030,  35.738
   647.4,0.001068,0.000685,0.008199,-0.000030,  35.731
   647.6,0.001059,0.000683,0.008223,-0.000043,  35.733
   647.8,0.001059,0.000680,0.008269,-0.000030,  35.730
   648.0,0.001063,0.000678,0.008319,-0.000030,  35.729
   648.2,0.001056,0.000681,0.008374,-0.000030,  35.732
   648.4,0.001054,0.000686,0.008445,-0.000017,  35.730
   648.6,0.001057,0.000683,0.008459,-0.000017,  35.732
   648.8,0.001051,0.000683,0.008469,-0.000017,  35.733
   649.0,0.001048,0.000682,0.008454,-0.000003,  35.733
   649.2,0.001050,0.000681,0.008156,-0.000003,  35.739
   649.4,0.001041,0.000681,0.007710,-0.000017,  35.741
   649.6,0.001038,0.000683,0.007107,-0.000017,  35.747
   649.8,0.001042,0.000679,0.007065,-0.000003,  35.751
   650.0,0.001033,0.000679,0.007244,-0.000017,  35.753
   650.2,0.001027,0.000679,0.007643,-0.000017,  35.751
   650.4,0.001031,0.000675,0.007745,-0.000017,  35.754
   650.6,0.001025,0.000673,0.007806,-0.000017,  35.755
   650.8,0.001022,0.000675,0.007827,-0.000017,  35.759
   651.0,0.001023,0.000674,0.007802,-0.000003,  35.759
   651.2,0.001014,0.000672,0.007602,-0.000003,  35.761
   651.4,0.001021,0.000672,0.007284,-0.000017,  35.761
   651.6,0.001022,0.000667,0.006881,-0.000003,  35.762
   651.8,0.001015,0.000662,0.006901,-0.000003,  35.769
   652.0,0.001013,0.000660,0.007079,-0.000017,  35.768
   652.2,0.001010,0.000657,0.007406,-0.000003,  35.765
   652.4,0.001004,0.000653,0.007553,-0.000003,  35.762
   652.6,0.001001,0.000656,0.007701,-0.000017,  35.769
   652.8,0.001002,0.000657,0.007838,-0.000003,  35.768
   653.0,0.000993,0.000655,0.007873,-0.000003,  35.769
   653.2,0.000988,0.000655,0.007868,-0.000017,  35.774
   653.4,0.000989,0.000649,0.007812,-0.000003,  35.777
   653.6,0.000980,0.000649,0.007822,-0.000003,  35.780
   653.8,0.000975,0.000652,0.007847,-0.000003,  35.778
   654.0,0.000979,0.000647,0.007856,0.000010,  35.777
   654.2,0.000972,0.000645,0.007861,-0.000003,  35.775
   654.4,0.000972,0.000640,0.007845,-0.000003,  35.783
   654.6,0.000979,0.000640,0.007819,0.000010,  35.778
   654.8,0.000979,0.000638,0.007788,-0.000003,  35.780
   655.0,0.000976,0.000637,0.007752,-0.000017,  35.776
   655.2,0.000973,0.000636,0.007711,-0.000003,  35.781
   655.4,0.000977,0.000636,0.007721,-0.000003,  35.782
   655.6,0.000971,0.000634,0.007745,-0.000017,  35.780
   655.8,0.000975,0.000638,0.007795,-0.000003,  35.783
   656.0,0.000972,0.000635,0.007754,-0.000003,  35.783
   656.2,0.000968,0.000632,0.007678,-0.000017,  35.781
   656.4,0.000969,0.000632,0.007540,-0.000003,  35.785
   656.6,0.000967,0.000627,0.007161,-0.000003,  35.782
   656.8,0.000960,0.000628,0.006619,-0.000017,  35.784
   657.0,0.000962,0.000624,0.005920,-0.000003,  35.784
   657.2,0.000963,0.000622,0.005863,-0.000003,  35.782
   657.4,0.000954,0.000617,0.006068,-0.000003,  35.782
   657.6,0.000951,0.000618,0.006486,0.000010,  35.784
   657.8,0.000952,0.000617,0.006654,-0.000003,  35.786
   658.0,0.000943,0.000615,0.006828,-0.000003,  35.784
   658.2,0.000944,0.000617,0.006981,-0.000003,  35.783
   658.4,0.000945,0.000614,0.007047,0.000010,  35.783
   658.6,0.000936,0.000609,0.007062,-0.000017,  35.784
   658.8,0.000940,0.000606,0.007021,-0.000017,  35.781
   659.0,0.000935,0.000598,0.007047,-0.000017,  35.784
   659.2,0.000929,0.000597,0.007056,-0.000017,  35.784
   659.4,0.000929,0.000598,0.007092,-0.000017,  35.786
   659.6,0.000929,0.000591,0.007101,-0.000003,  35.785
   659.8,0.000922,0.000591,0.007074,-0.000003,  35.786
   660.0,0.000919,0.000594,0.007049,-0.000003,  35.785
   660.2,0.000921,0.000596,0.006998,0.000010,  35.790
   660.4,0.000912,0.000596,0.006986,-0.000003,  35.786
   660.6,0.000906,0.000599,0.007007,-0.000003,  35.785
   660.8,0.000901,0.000596,0.007022,0.000010,  35.789
   661.0,0.000889,0.000598,0.006690,-0.000003,  35.795
   661.2,0.000885,0.000596,0.006174,-0.000003,  35.798
   661.4,0.000875,0.000596,0.005492,0.000010,  35.805
   661.6,0.000866,0.000594,0.005456,-0.000003,  35.807
   661.8,0.000870,0.000588,0.005633,-0.000003,  35.803
   662.0,0.000867,0.000591,0.006046,-0.000039,  35.804
   662.2,0.000861,0.000585,0.006213,-0.000065,  35.807
   662.4,0.000867,0.000578,0.006366,-0.000091,  35.801
   662.6,0.000871,0.000570,0.006524,-0.000127,  35.809
   662.8,0.000864,0.000563,0.006650,-0.000114,  35.807
   663.0,0.000867,0.000563,0.006751,-0.000078,  35.805
   663.2,0.000871,0.000562,0.006847,-0.000065,  35.803
   663.4,0.000864,0.000560,0.006872,-0.000065,  35.805
   663.6,0.000864,0.000564,0.006861,-0.000065,  35.802
   663.8,0.000868,0.000564,0.006806,-0.000052,  35.809
   664.0,0.000866,0.000564,0.006800,-0.000065,  35.806
   664.2,0.000862,0.000562,0.006800,-0.000065,  35.807
   664.4,0.000862,0.000563,0.006800,-0.000052,  35.808
   664.6,0.000868,0.000563,0.006845,-0.000052,  35.805
   664.8,0.000868,0.000555,0.006901,-0.000052,  35.809
   665.0,0.000868,0.000559,0.006961,-0.000039,  35.810
   665.2,0.000866,0.000559,0.006960,-0.000039,  35.807
   665.4,0.000857,0.000560,0.006939,-0.000039,  35.810
   665.6,0.000858,0.000565,0.006877,-0.000026,  35.811
   665.8,0.000861,0.000567,0.006861,-0.000039,  35.812
   666.0,0.000855,0.000564,0.006872,-0.000039,  35.810
   666.2,0.000852,0.000564,0.006882,-0.000026,  35.809
   666.4,0.000850,0.000566,0.006887,-0.000039,  35.810
   666.6,0.000841,0.000559,0.006891,-0.000039,  35.809
   666.8,0.000838,0.000559,0.006896,0.000010,  35.813
   667.0,0.000839,0.000560,0.006854,-0.000003,  35.813
   667.2,0.000833,0.000557,0.006782,-0.000017,  35.813
   667.4,0.000828,0.000554,0.006691,-0.000017,  35.811
   667.6,0.000831,0.000555,0.006695,0.000032,  35.816
   667.8,0.000825,0.000555,0.006730,-0.000017,  35.814
   668.0,0.000820,0.000550,0.006786,-0.000017,  35.817
   668.2,0.000821,0.000546,0.006765,-0.000017,  35.819
   668.4,0.000812,0.000540,0.006719,-0.000017,  35.818
   668.6,0.000809,0.000540,0.006653,-0.000017,  35.819
   668.8,0.000813,0.000537,0.006551,-0.000003,  35.822
   669.0,0.000807,0.000532,0.006509,-0.000003,  35.821
   669.2,0.000804,0.000536,0.006488,-0.000017,  35.818
   669.4,0.000813,0.000534,0.006473,-0.000003,  35.825
   669.6,0.000809,0.000527,0.006427,-0.000003,  35.827
   669.8,0.000804,0.000528,0.006355,-0.000017,  35.823
   670.0,0.000801,0.000523,0.006274,-0.000003,  35.827
   670.2,0.000795,0.000521,0.006213,-0.000003,  35.825
   670.4,0.000799,0.000523,0.006147,-0.000017,  35.827
   670.6,0.000800,0.000523,0.006071,-0.000003,  35.823
   670.8,0.000791,0.000519,0.006054,-0.000003,  35.824
   671.0,0.000791,0.000522,0.006080,-0.000017,  35.826
   671.2,0.000795,0.000525,0.006125,-0.000039,  35.831
   671.4,0.000786,0.000523,0.006149,-0.000039,  35.831
   671.6,0.000786,0.000522,0.006184,-0.000039,  35.834
   671.8,0.000792,0.000514,0.006208,-0.000062,  35.831
   672.0,0.000788,0.000511,0.006217,-0.000075,  35.828
   672.2,0.000786,0.000516,0.006217,-0.000039,  35.830
   672.4,0.000787,0.000516,0.006207,-0.000026,  35.828
   672.6,0.000787,0.000513,0.006186,-0.000039,  35.831
   672.8,0.000778,0.000511,0.006146,-0.000039,  35.835
   673.0,0.000778,0.000510,0.006095,-0.000026,  35.833
   673.2,0.000782,0.000503,0.006069,-0.000039,  35.835
   673.4,0.000782,0.000502,0.006023,-0.000039,  35.837
   673.6,0.000776,0.000500,0.005983,-0.000026,  35.835
   673.8,0.000776,0.000494,0.005987,-0.000039,  35.835
   674.0,0.000767,0.000496,0.006011,-0.000039,  35.832
   674.2,0.000767,0.000495,0.006046,-0.000026,  35.832
   674.4,0.000771,0.000492,0.006045,-0.000039,  35.832
   674.6,0.000762,0.000494,0.006060,-0.000052,  35.830
   674.8,0.000757,0.000489,0.006055,-0.000039,  35.834
   675.0,0.000761,0.000491,0.006065,-0.000039,  35.832
   675.2,0.000752,0.000491,0.006074,-0.000052,  35.834
   675.4,0.000746,0.000489,0.006089,-0.000039,  35.834
   675.6,0.000741,0.000487,0.005884,-0.000039,  35.834
   675.8,0.000732,0.000486,0.005589,-0.000052,  35.836
   676.0,0.000736,0.000487,0.005183,-0.000052,  35.843
   676.2,0.000736,0.000479,0.005162,-0.000039,  35.836
   676.4,0.000732,0.000475,0.005278,-0.000052,  35.841
   676.6,0.000733,0.000474,0.005532,-0.000052,  35.838
   676.8,0.000737,0.000471,0.005547,-0.000052,  35.842
   677.0,0.000733,0.000468,0.005522,-0.000088,  35.837
   677.2,0.000731,0.000470,0.005451,-0.000052,  35.839
   677.4,0.000737,0.000466,0.005436,-0.000039,  35.841
   677.6,0.000731,0.000466,0.005421,-0.000039,  35.841
   677.8,0.000728,0.000468,0.005417,-0.000052,  35.850
   678.0,0.000725,0.000462,0.005402,-0.000039,  35.849
   678.2,0.000719,0.000467,0.005457,-0.000039,  35.850
   678.4,0.000728,0.000470,0.005538,-0.000052,  35.849
   678.6,0.000728,0.000466,0.005643,-0.000039,  35.851
   678.8,0.000724,0.000470,0.005703,-0.000039,  35.853
   679.0,0.000733,0.000472,0.005758,-0.000052,  35.860
   679.2,0.000733,0.000475,0.005803,-0.000039,  35.863
   679.4,0.000729,0.000477,0.005777,-0.000039,  35.864
   679.6,0.000733,0.000480,0.005726,-0.000052,  35.867
   679.8,0.000731,0.000487,0.005635,-0.000039,  35.868
   680.0,0.000727,0.000493,0.005645,-0.000039,  35.865
   680.2,0.000731,0.000489,0.005670,-0.000052,  35.866
   680.4,0.000731,0.000488,0.005705,-0.000039,  35.868
   680.6,0.000727,0.000490,0.005705,-0.000039,  35.872
   680.8,0.000731,0.000491,0.005665,-0.000039,  35.877
   681.0,0.000731,0.000492,0.005603,0.000010,  35.871
   681.2,0.000731,0.000489,0.005618,-0.000003,  35.870
   681.4,0.000731,0.000489,0.005633,-0.000017,  35.872
   681.6,0.000728,0.000488,0.005680,0.000032,  35.877
   681.8,0.000723,0.000485,0.005669,0.000032,  35.875
   682.0,0.000714,0.000488,0.005644,-0.000017,  35.874
   682.2,0.000715,0.000488,0.005599,-0.000003,  35.878
   682.4,0.000710,0.000485,0.005614,-0.000003,  35.873
   682.6,0.000701,0.000483,0.005644,-0.000003,  35.873
   682.8,0.000702,0.000481,0.005684,0.000010,  35.874
   683.0,0.000703,0.000477,0.005313,-0.000003,  35.874
   683.2,0.000694,0.000475,0.004728,-0.000003,  35.879
   683.4,0.000691,0.000476,0.003937,0.000010,  35.883
   683.6,0.000692,0.000469,0.003891,-0.000003,  35.880
   683.8,0.000683,0.000467,0.004124,-0.000003,  35.880
   684.0,0.000683,0.000468,0.004617,0.000010,  35.883
   684.2,0.000681,0.000462,0.004758,-0.000003,  35.886
   684.4,0.000674,0.000457,0.004865,-0.000003,  35.884
   684.6,0.000681,0.000459,0.004931,-0.000003,  35.885
   684.8,0.000675,0.000454,0.004839,0.000010,  35.888
   685.0,0.000669,0.000447,0.004656,-0.000003,  35.889
   685.2,0.000675,0.000448,0.004371,-0.000003,  35.889
   685.4,0.000673,0.000446,0.004432,-0.000003,  35.894
   685.6,0.000664,0.000445,0.004599,-0.000003,  35.897
   685.8,0.000668,0.000448,0.004873,-0.000003,  35.898
   686.0,0.000662,0.000446,0.005005,0.000010,  35.895
   686.2,0.000653,0.000442,0.005111,-0.000003,  35.895
   686.4,0.000657,0.000444,0.005212,-0.000003,  35.898
   686.6,0.000652,0.000444,0.005282,0.000010,  35.900
   686.8,0.000640,0.000437,0.005292,-0.000003,  35.899
   687.0,0.000641,0.000438,0.005277,-0.000003,  35.903
   687.2,0.000628,0.000435,0.005221,0.000010,  35.899
   687.4,0.000617,0.000429,0.005206,-0.000003,  35.903
   687.6,0.000623,0.000427,0.005196,-0.000003,  35.906
   687.8,0.000629,0.000420,0.005160,0.000010,  35.906
   688.0,0.000620,0.000421,0.005165,-0.000003,  35.905
   688.2,0.000620,0.000417,0.005190,-0.000017,  35.905
   688.4,0.000629,0.000416,0.005210,-0.000003,  35.905
   688.6,0.000623,0.000407,0.005229,-0.000003,  35.908
   688.8,0.000620,0.000405,0.005270,-0.000017,  35.912
   689.0,0.000622,0.000403,0.005289,-0.000039,  35.908
   689.2,0.000615,0.000400,0.005268,-0.000039,  35.910
   689.4,0.000612,0.000402,0.005218,-0.000052,  35.908
   689.6,0.000611,0.000409,0.005136,-0.000075,  35.907
   689.8,0.000605,0.000402,0.005084,-0.000088,  35.914
   690.0,0.000605,0.000399,0.005033,-0.000065,  35.916
   690.2,0.000608,0.000399,0.004982,-0.000052,  35.918
   690.4,0.000608,0.000395,0.004972,-0.000065,  35.918
   690.6,0.000602,0.000389,0.004971,-0.000065,  35.914
   690.8,0.000599,0.000393,0.004996,-0.000052,  35.918
   691.0,0.000603,0.000388,0.004838,-0.000065,  35.920
   691.2,0.000603,0.000385,0.004594,-0.000065,  35.917
   691.4,0.000601,0.000387,0.004264,-0.000052,  35.917
   691.6,0.000598,0.000385,0.004258,-0.000065,  35.918
   691.8,0.000592,0.000384,0.004359,-0.000065,  35.916
   692.0,0.000592,0.000387,0.004566,-0.000052,  35.917
   692.2,0.000593,0.000383,0.004626,-0.000065,  35.919
   692.4,0.000586,0.000378,0.004666,-0.000065,  35.917
   692.6,0.000586,0.000378,0.004681,-0.000052,  35.919
   692.8,0.000587,0.000375,0.004732,-0.000065,  35.916
   693.0,0.000578,0.000371,0.004777,-0.000065,  35.920
   693.2,0.000576,0.000374,0.004817,-0.000065,  35.917
   693.4,0.000571,0.000372,0.004852,-0.000065,  35.915
   693.6,0.000559,0.000368,0.004892,-0.000065,  35.914
   693.8,0.000552,0.000371,0.004922,-0.000065,  35.917
   694.0,0.000542,0.000364,0.004921,-0.000065,  35.919
   694.2,0.000533,0.000366,0.004895,-0.000101,  35.912
   694.4,0.000536,0.000367,0.004855,-0.000065,  35.907
   694.6,0.000534,0.000356,0.004819,-0.000052,  35.902
   694.8,0.000525,0.000346,0.004784,-0.000065,  35.895
   695.0,0.000531,0.000331,0.004748,-0.000065,  35.897
   695.2,0.000529,0.000329,0.004697,-0.000065,  35.896
   695.4,0.000520,0.000327,0.004641,-0.000078,  35.894
   695.6,0.000523,0.000328,0.004584,-0.000091,  35.891
   695.8,0.000523,0.000328,0.004539,-0.000091,  35.891
   696.0,0.000520,0.000325,0.004473,-0.000091,  35.890
   696.2,0.000521,0.000328,0.004401,-0.000091,  35.895
   696.4,0.000518,0.000328,0.004336,-0.000091,  35.893
   696.6,0.000514,0.000328,0.004284,-0.000091,  35.894
   696.8,0.000518,0.000331,0.004248,-0.000091,  35.893
   697.0,0.000518,0.000326,0.004222,-0.000091,  35.890
   697.2,0.000512,0.000328,0.004210,-0.000091,  35.889
   697.4,0.000515,0.000323,0.004215,-0.000091,  35.892
   697.6,0.000519,0.000325,0.004240,-0.000091,  35.890
   697.8,0.000513,0.000321,0.004245,-0.000078,  35.892
   698.0,0.000513,0.000321,0.004212,-0.000078,  35.885
   698.2,0.000517,0.000325,0.004208,-0.000078,  35.884
   698.4,0.000508,0.000323,0.004182,-0.000065,  35.885
   698.6,0.000505,0.000321,0.004126,-0.000078,  35.885
   698.8,0.000500,0.000321,0.004065,-0.000078,  35.884
   699.0,0.000493,0.000318,0.004084,-0.000078,  35.878
   699.2,0.000494,0.000316,0.004129,-0.000091,  35.881
   699.4,0.000501,0.000321,0.004214,-0.000091,  35.873
   699.6,0.000505,0.000315,0.004026,-0.000091,  35.874
   699.8,0.000498,0.000314,0.003731,-0.000091,  35.877
   700.0,0.000505,0.000314,0.003311,-0.000091,  35.877
   700.2,0.000502,0.000310,0.003306,-0.000091,  35.873
   700.4,0.000502,0.000309,0.003442,-0.000091,  35.878
   700.6,0.000499,0.000306,0.003704,-0.000091,  35.873
   700.8,0.000490,0.000303,0.003759,-0.000091,  35.871
   701.0,0.000484,0.000305,0.003769,-0.000091,  35.869
   701.2,0.000484,0.000301,0.003739,-0.000091,  35.872
   701.4,0.000490,0.000299,0.003748,-0.000091,  35.865
   701.6,0.000484,0.000302,0.003763,-0.000091,  35.868
   701.8,0.000484,0.000307,0.003774,-0.000091,  35.866
   702.0,0.000490,0.000305,0.003798,-0.000091,  35.863
   702.2,0.000484,0.000305,0.003832,-0.000091,  35.862
   702.4,0.000484,0.000305,0.003883,-0.000091,  35.860
   702.6,0.000490,0.000312,0.003645,-0.000091,  35.857
   702.8,0.000484,0.000312,0.003255,-0.000091,  35.857
   703.0,0.000484,0.000313,0.002720,-0.000091,  35.853
   703.2,0.000490,0.000315,0.002705,-0.000091,  35.851
   703.4,0.000481,0.000312,0.002850,-0.000091,  35.848
   703.6,0.000481,0.000307,0.003194,-0.000091,  35.849
   703.8,0.000488,0.000300,0.003280,-0.000091,  35.845
   704.0,0.000479,0.000302,0.003335,-0.000127,  35.842
   704.2,0.000479,0.000304,0.003351,-0.000091,  35.842
   704.4,0.000485,0.000306,0.003310,-0.000091,  35.838
   704.6,0.000481,0.000304,0.003314,-0.000078,  35.833
   704.8,0.000479,0.000305,0.003304,-0.000078,  35.832
   705.0,0.000480,0.000303,0.003295,-0.000078,  35.828
   705.2,0.000476,0.000301,0.003334,-0.000065,  35.831
   705.4,0.000480,0.000306,0.003399,-0.000078,  35.830
   705.6,0.000484,0.000306,0.003490,-0.000078,  35.832
   705.8,0.000477,0.000303,0.003519,-0.000065,  35.828
   706.0,0.000478,0.000305,0.003524,-0.000078,  35.827
   706.2,0.000473,0.000303,0.003499,-0.000078,  35.822
   706.4,0.000464,0.000301,0.003505,-0.000065,  35.817
   706.6,0.000471,0.000301,0.003479,-0.000078,  35.817
   706.8,0.000468,0.000304,0.003444,-0.000078,  35.815
   707.0,0.000462,0.000299,0.003479,-0.000065,  35.818
   707.2,0.000468,0.000301,0.003540,-0.000078,  35.812
   707.4,0.000468,0.000299,0.003600,-0.000078,  35.812
   707.6,0.000464,0.000301,0.003594,-0.000065,  35.814
   707.8,0.000462,0.000294,0.003569,-0.000078,  35.814
   708.0,0.000459,0.000297,0.003514,-0.000078,  35.812
   708.2,0.000459,0.000295,0.003447,-0.000065,  35.808
   708.4,0.000453,0.000291,0.003382,-0.000078,  35.810
   708.6,0.000459,0.000294,0.003301,-0.000078,  35.811
   708.8,0.000463,0.000292,0.003270,-0.000065,  35.806
   709.0,0.000463,0.000286,0.003260,-0.000078,  35.809
   709.2,0.000460,0.000288,0.003275,-0.000078,  35.804
   709.4,0.000460,0.000290,0.003284,-0.000078,  35.805
   709.6,0.000454,0.000286,0.003303,-0.000091,  35.804
   709.8,0.000460,0.000286,0.003339,-0.000056,  35.804
   710.0,0.000457,0.000288,0.003318,-0.000056,  35.803
   710.2,0.000459,0.000288,0.003287,-0.000056,  35.797
   710.4,0.000464,0.000288,0.003243,-0.000020,  35.798
   710.6,0.000461,0.000287,0.003247,-0.000020,  35.800
   710.8,0.000458,0.000289,0.003246,-0.000056,  35.801
   711.0,0.000454,0.000284,0.003276,-0.000056,  35.797
   711.2,0.000444,0.000284,0.003260,-0.000043,  35.797
   711.4,0.000438,0.000287,0.003234,-0.000043,  35.797
   711.6,0.000431,0.000286,0.003190,-0.000043,  35.798
   711.8,0.000438,0.000284,0.003219,-0.000030,  35.796
   712.0,0.000434,0.000282,0.003279,-0.000043,  35.796
   712.2,0.000434,0.000280,0.003359,-0.000043,  35.794
   712.4,0.000436,0.000278,0.003374,-0.000043,  35.797
   712.6,0.000430,0.000276,0.003348,-0.000043,  35.792
   712.8,0.000434,0.000276,0.003308,-0.000043,  35.792
   713.0,0.000431,0.000276,0.003282,-0.000056,  35.795
   713.2,0.000414,0.000269,0.003241,-0.000056,  35.792
   713.4,0.000405,0.000271,0.003217,-0.000056,  35.791
   713.6,0.000384,0.000271,0.003177,-0.000056,  35.798
   713.8,0.000372,0.000265,0.003161,-0.000056,  35.806
   714.0,0.000372,0.000263,0.003161,-0.000056,  35.795
   714.2,0.000378,0.000259,0.003171,-0.000056,  35.792
   714.4,0.000374,0.000252,0.003190,-0.000056,  35.793
   714.6,0.000376,0.000250,0.003214,-0.000056,  35.786
   714.8,0.000379,0.000248,0.003265,-0.000069,  35.788
   715.0,0.000379,0.000240,0.002865,-0.000082,  35.785
   715.2,0.000389,0.000238,0.002264,-0.000095,  35.784
   715.4,0.000394,0.000236,0.001454,-0.000095,  35.782
   715.6,0.000390,0.000238,0.001429,-0.000095,  35.781
   715.8,0.000396,0.000238,0.001670,-0.000082,  35.778
   716.0,0.000392,0.000238,0.002188,-0.000069,  35.771
   716.2,0.000388,0.000238,0.002320,-0.000056,  35.764
   716.4,0.000397,0.000243,0.002380,-0.000069,  35.769
   716.6,0.000397,0.000248,0.002380,-0.000069,  35.765
   716.8,0.000393,0.000248,0.002491,-0.000056,  35.760
   717.0,0.000400,0.000245,0.002612,-0.000069,  35.756
   717.2,0.000400,0.000245,0.002757,-0.000104,  35.760
   717.4,0.000400,0.000245,0.002801,-0.000091,  35.760
   717.6,0.000393,0.000245,0.002812,-0.000091,  35.757
   717.8,0.000400,0.000248,0.002782,-0.000127,  35.758
   718.0,0.000397,0.000250,0.002772,-0.000114,  35.759
   718.2,0.000400,0.000247,0.002767,-0.000078,  35.758
   718.4,0.000397,0.000246,0.002742,-0.000078,  35.756
   718.6,0.000397,0.000248,0.002747,-0.000065,  35.758
   718.8,0.000393,0.000246,0.002747,-0.000078,  35.756
   719.0,0.000397,0.000248,0.002747,-0.000078,  35.759
   719.2,0.000395,0.000250,0.002751,-0.000065,  35.762
   719.4,0.000391,0.000245,0.002747,-0.000078,  35.758
   719.6,0.000392,0.000248,0.002752,-0.000043,  35.758
   719.8,0.000389,0.000248,0.002766,-0.000043,  35.754
   720.0,0.000383,0.000239,0.002801,-0.000069,  35.755
   720.2,0.000389,0.000238,0.002846,-0.000033,  35.751
   720.4,0.000387,0.000238,0.002885,-0.000020,  35.750
   720.6,0.000380,0.000233,0.002935,-0.000069,  35.750
   720.8,0.000389,0.000238,0.002990,-0.000069,  35.752
   721.0,0.000387,0.000237,0.002970,-0.000056,  35.754
   721.2,0.000380,0.000239,0.002909,-0.000033,  35.753
   721.4,0.000384,0.000242,0.002808,0.000003,  35.750
   721.6,0.000379,0.000237,0.002756,-0.000056,  35.753
   721.8,0.000370,0.000240,0.002716,-0.000020,  35.751
   722.0,0.000376,0.000236,0.002691,-0.000020,  35.753
   722.2,0.000374,0.000227,0.002545,-0.000056,  35.754
   722.4,0.000367,0.000233,0.002342,-0.000056,  35.755
   722.6,0.000371,0.000233,0.002085,-0.000056,  35.757
   722.8,0.000371,0.000229,0.001773,-0.000056,  35.753
   723.0,0.000367,0.000231,0.001788,-0.000056,  35.751
   723.2,0.000374,0.000230,0.001888,-0.000056,  35.754
   723.4,0.000374,0.000228,0.002085,-0.000056,  35.754
   723.6,0.000370,0.000230,0.002190,-0.000056,  35.751
   723.8,0.000374,0.000232,0.002285,-0.000056,  35.751
   724.0,0.000368,0.000232,0.002395,-0.000056,  35.751
   724.2,0.000365,0.000234,0.002450,-0.000056,  35.747
   724.4,0.000371,0.000232,0.002476,-0.000056,  35.749
   724.6,0.000368,0.000230,0.002486,-0.000056,  35.744
   724.8,0.000365,0.000230,0.002490,-0.000056,  35.743
   725.0,0.000368,0.000228,0.002470,-0.000056,  35.744
   725.2,0.000366,0.000229,0.002450,-0.000056,  35.748
   725.4,0.000359,0.000227,0.002461,-0.000056,  35.744
   725.6,0.000359,0.000230,0.002455,-0.000056,  35.747
