Run Name,Group 1 01 28 2014
Run Date,02:50:50 PM   01-28-14
Method Name,40%B-Isocratic
Export Format Version, 1.00
Method ID, 1512
Points/Second, 5.00
Number of Records,   3016
Offset from Run Start Time,00:00:00
Run End Time,00:10:06
Time,Second
QuadTec 1, (280.0 nm), AU
QuadTec 2, (260.0 nm), AU
Gradient Pump,<Not Selected>
QuadTec 3, (214.0 nm), AU
QuadTec 4, (405.0 nm), AU
Conductivity,mS/cm
Trace 6,<Not Available>
GP Pressure,<Not Selected>
Volume,<Not Selected>
Fraction,<Not Available>
Time,QuadTec 1,QuadTec 2,QuadTec 3,QuadTec 4,Conductivity
     0.0,0.000008,0.000000,0.004358,0.000001,  39.512
     0.2,-0.000002,0.000000,0.004358,0.000001,  39.508
     0.4,-0.000003,0.000000,0.004358,0.000059,  39.504
     0.6,-0.000009,0.000000,0.004358,0.000117,  39.503
     0.8,0.000000,0.000000,0.004358,0.000095,  39.502
     1.0,0.000000,0.000000,0.000000,0.000095,  39.497
     1.2,0.000000,0.000000,0.000000,0.000000,  39.492
     1.4,0.000000,0.000000,0.000000,0.000000,  39.492
     1.6,0.000000,0.000000,0.000000,0.000000,  39.488
     1.8,0.000000,0.000000,0.000000,0.000000,  39.494
     2.0,0.000000,0.000000,0.000000,0.000000,  39.492
     2.2,0.000000,0.000000,0.000000,0.000000,  39.486
     2.4,0.000000,0.000000,0.000000,0.000000,  39.485
     2.6,0.000000,0.000000,0.000000,0.000000,  39.488
     2.8,0.000000,0.000000,0.000000,0.000000,  39.486
     3.0,0.000000,0.000000,0.000000,0.000000,  39.483
     3.2,0.000000,0.000000,0.000000,0.000000,  39.487
     3.4,0.000000,0.000000,0.000000,0.000000,  39.482
     3.6,0.000000,0.000000,0.000000,0.000000,  39.483
     3.8,0.000000,0.000000,0.000000,0.000000,  39.486
     4.0,0.000000,0.000000,0.000000,0.000000,  39.483
     4.2,0.000000,0.000000,0.000000,0.000000,  39.484
     4.4,0.000000,0.000000,0.000000,0.000000,  39.481
     4.6,-0.000010,0.000000,-0.000065,0.000000,  39.488
     4.8,-0.000017,-0.000005,-0.000065,0.000000,  39.485
     5.0,-0.000010,-0.000006,-0.000084,0.000000,  39.485
     5.2,-0.000017,-0.000010,-0.000119,0.000000,  39.486
     5.4,-0.000014,-0.000008,-0.000158,0.000000,  39.487
     5.6,-0.000017,-0.000012,-0.000212,-0.000049,  39.488
     5.8,-0.000017,-0.000014,-0.000290,-0.000071,  39.486
     6.0,-0.000019,-0.000014,-0.000305,-0.000071,  39.485
     6.2,-0.000018,-0.000017,-0.000311,-0.000049,  39.486
     6.4,-0.000024,-0.000020,-0.000282,-0.000071,  39.488
     6.6,-0.000022,-0.000011,-0.000311,-0.000084,  39.486
     6.8,-0.000015,-0.000012,-0.000370,-0.000062,  39.485
     7.0,-0.000019,-0.000010,-0.000438,-0.000084,  39.482
     7.2,-0.000010,-0.000011,-0.000453,-0.000084,  39.485
     7.4,-0.000001,-0.000007,-0.000473,-0.000071,  39.486
     7.6,-0.000005,-0.000004,-0.000473,-0.000058,  39.486
     7.8,0.000004,-0.000001,-0.000477,-0.000094,  39.486
     8.0,0.000007,-0.000000,-0.000488,-0.000058,  39.485
     8.2,0.000006,0.000006,-0.000488,-0.000071,  39.486
     8.4,0.000015,0.000009,-0.000492,-0.000094,  39.487
     8.6,0.000017,0.000010,-0.000467,-0.000058,  39.483
     8.8,0.000013,0.000016,-0.000448,-0.000058,  39.488
     9.0,0.000026,0.000018,-0.000403,-0.000081,  39.487
     9.2,0.000030,0.000015,-0.000373,-0.000081,  39.483
     9.4,0.000026,0.000018,-0.000353,-0.000081,  39.488
     9.6,0.000029,0.000017,-0.000347,-0.000116,  39.485
     9.8,0.000028,0.000019,-0.000445,-0.000116,  39.484
    10.0,0.000024,0.000014,-0.000619,-0.000081,  39.484
    10.2,0.000024,0.000018,-0.000841,-0.000116,  39.476
    10.4,0.000024,0.000015,-0.000851,-0.000116,  39.483
    10.6,0.000020,0.000019,-0.000777,-0.000081,  39.479
    10.8,0.000020,0.000024,-0.000638,-0.000103,  39.478
    11.0,0.000020,0.000024,-0.000564,-0.000103,  39.480
    11.2,0.000020,0.000019,-0.000496,-0.000068,  39.479
    11.4,0.000017,0.000020,-0.000422,-0.000090,  39.478
    11.6,0.000015,0.000019,-0.000363,-0.000090,  39.480
    11.8,0.000017,0.000014,-0.000338,-0.000068,  39.473
    12.0,0.000019,0.000018,-0.000334,-0.000103,  39.475
    12.2,0.000022,0.000018,-0.000334,-0.000103,  39.472
    12.4,0.000016,0.000014,-0.000348,-0.000068,  39.473
    12.6,0.000013,0.000012,-0.000387,-0.000103,  39.471
    12.8,0.000011,0.000012,-0.000373,-0.000103,  39.473
    13.0,0.000004,0.000006,-0.000354,-0.000068,  39.475
    13.2,0.000007,0.000008,-0.000305,-0.000103,  39.468
    13.4,0.000013,0.000011,-0.000305,-0.000103,  39.463
    13.6,0.000011,0.000006,-0.000334,-0.000068,  39.462
    13.8,0.000013,0.000006,-0.000373,-0.000103,  39.465
    14.0,0.000008,0.000004,-0.000611,-0.000103,  39.459
    14.2,0.000008,0.000001,-0.000967,-0.000068,  39.457
    14.4,0.000002,0.000006,-0.001415,-0.000103,  39.452
    14.6,0.000002,0.000006,-0.001411,-0.000103,  39.449
    14.8,0.000004,0.000001,-0.001243,-0.000068,  39.448
    15.0,0.000004,0.000006,-0.000887,-0.000103,  39.451
    15.2,0.000007,0.000006,-0.000773,-0.000103,  39.444
    15.4,0.000007,0.000003,-0.000708,-0.000068,  39.440
    15.6,0.000010,0.000005,-0.000687,-0.000103,  39.442
    15.8,0.000010,0.000007,-0.000727,-0.000103,  39.441
    16.0,0.000010,0.000004,-0.000815,-0.000068,  39.438
    16.2,0.000010,0.000007,-0.000989,-0.000103,  39.436
    16.4,0.000010,0.000008,-0.000951,-0.000103,  39.430
    16.6,0.000007,0.000004,-0.000812,-0.000068,  39.427
    16.8,0.000007,0.000006,-0.000625,-0.000068,  39.415
    17.0,0.000010,0.000010,-0.000551,-0.000090,  39.418
    17.2,0.000007,0.000003,-0.000498,-0.000103,  39.412
    17.4,0.000007,0.000005,-0.000467,-0.000068,  39.410
    17.6,0.000007,0.000005,-0.000457,-0.000090,  39.407
    17.8,0.000004,0.000001,-0.000443,-0.000068,  39.403
    18.0,0.000004,0.000003,-0.000443,-0.000068,  39.399
    18.2,0.000002,-0.000001,-0.000447,-0.000103,  39.399
    18.4,-0.000001,-0.000003,-0.000437,-0.000103,  39.396
    18.6,-0.000004,-0.000001,-0.000459,-0.000068,  39.390
    18.8,-0.000004,0.000002,-0.000459,-0.000116,  39.393
    19.0,-0.000004,0.000002,-0.000444,-0.000116,  39.397
    19.2,-0.000006,0.000002,-0.000435,-0.000081,  39.389
    19.4,-0.000006,-0.000001,-0.000421,-0.000129,  39.390
    19.6,-0.000004,0.000001,-0.000367,-0.000129,  39.390
    19.8,-0.000004,-0.000000,-0.000283,-0.000081,  39.388
    20.0,-0.000004,-0.000003,-0.000205,-0.000103,  39.387
    20.2,-0.000004,-0.000007,-0.000190,-0.000103,  39.382
    20.4,-0.000004,-0.000010,-0.000200,-0.000068,  39.384
    20.6,-0.000006,-0.000009,-0.000250,-0.000090,  39.383
    20.8,-0.000009,-0.000011,-0.000290,-0.000090,  39.383
    21.0,-0.000006,-0.000016,-0.000334,-0.000068,  39.381
    21.2,-0.000009,-0.000009,-0.000392,-0.000103,  39.375
    21.4,-0.000009,-0.000005,-0.000373,-0.000103,  39.372
    21.6,-0.000013,-0.000005,-0.000335,-0.000068,  39.365
    21.8,-0.000015,-0.000002,-0.000257,-0.000103,  39.367
    22.0,-0.000015,-0.000003,-0.000232,-0.000103,  39.368
    22.2,-0.000013,-0.000004,-0.000238,-0.000068,  39.366
    22.4,-0.000013,0.000002,-0.000253,-0.000103,  39.365
    22.6,-0.000006,0.000001,-0.000237,-0.000103,  39.361
    22.8,-0.000006,0.000003,-0.000251,-0.000068,  39.361
    23.0,-0.000001,0.000005,-0.000266,-0.000103,  39.356
    23.2,-0.000001,0.000006,-0.000225,-0.000103,  39.348
    23.4,0.000002,0.000005,-0.000186,-0.000068,  39.343
    23.6,0.000007,0.000015,-0.000126,-0.000103,  39.338
    23.8,0.000010,0.000023,-0.000190,-0.000103,  39.336
    24.0,0.000015,0.000022,-0.000308,-0.000068,  39.338
    24.2,0.000017,0.000026,-0.000473,-0.000103,  39.335
    24.4,0.000017,0.000028,-0.000467,-0.000103,  39.339
    24.6,0.000017,0.000028,-0.000408,-0.000068,  39.335
    24.8,0.000023,0.000024,-0.000289,-0.000103,  39.337
    25.0,0.000025,0.000029,-0.000240,-0.000090,  39.335
    25.2,0.000025,0.000027,-0.000200,-0.000042,  39.333
    25.4,0.000028,0.000029,-0.000166,-0.000077,  39.329
    25.6,0.000031,0.000032,-0.000151,-0.000077,  39.330
    25.8,0.000032,0.000030,-0.000141,-0.000055,  39.329
    26.0,0.000028,0.000034,-0.000155,-0.000055,  39.328
    26.2,0.000031,0.000036,-0.000174,-0.000077,  39.329
    26.4,0.000033,0.000033,-0.000160,-0.000077,  39.326
    26.6,0.000036,0.000033,-0.000125,-0.000055,  39.327
    26.8,0.000036,0.000034,-0.000080,-0.000077,  39.323
    27.0,0.000038,0.000031,-0.000045,-0.000042,  39.324
    27.2,0.000041,0.000035,-0.000000,-0.000055,  39.319
    27.4,0.000038,0.000041,0.000039,-0.000090,  39.317
    27.6,0.000038,0.000036,0.000045,-0.000077,  39.321
    27.8,0.000041,0.000039,-0.000000,-0.000055,  39.321
    28.0,0.000038,0.000040,-0.000054,-0.000090,  39.323
    28.2,0.000036,0.000038,-0.000103,-0.000077,  39.317
    28.4,0.000038,0.000038,-0.000167,-0.000055,  39.315
    28.6,0.000038,0.000036,-0.000229,-0.000090,  39.310
    28.8,0.000038,0.000036,-0.000254,-0.000077,  39.308
    29.0,0.000035,0.000038,-0.000254,-0.000055,  39.315
    29.2,0.000032,0.000036,-0.000224,-0.000103,  39.306
    29.4,0.000032,0.000036,-0.000228,-0.000068,  39.308
    29.6,0.000028,0.000030,-0.000248,-0.000045,  39.302
    29.8,0.000023,0.000034,-0.000273,-0.000094,  39.302
    30.0,0.000027,0.000031,-0.000248,-0.000058,  39.308
    30.2,0.000027,0.000029,-0.000219,-0.000045,  39.305
    30.4,0.000022,0.000031,-0.000192,-0.000081,  39.307
    30.6,0.000016,0.000032,-0.000168,-0.000045,  39.297
    30.8,0.000014,0.000031,-0.000150,-0.000045,  39.296
    31.0,0.000014,0.000032,-0.000125,-0.000081,  39.297
    31.2,0.000011,0.000027,-0.000116,-0.000045,  39.298
    31.4,0.000008,0.000023,-0.000126,-0.000045,  39.294
    31.6,0.000008,0.000030,-0.000131,-0.000081,  39.293
    31.8,0.000012,0.000027,-0.000141,-0.000045,  39.292
    32.0,0.000012,0.000025,-0.000160,-0.000045,  39.293
    32.2,0.000010,0.000023,-0.000189,-0.000081,  39.285
    32.4,0.000007,0.000023,-0.000271,-0.000045,  39.283
    32.6,0.000004,0.000019,-0.000409,-0.000045,  39.285
    32.8,0.000004,0.000018,-0.000590,-0.000068,  39.283
    33.0,0.000004,0.000018,-0.000561,-0.000032,  39.280
    33.2,0.000002,0.000014,-0.000454,-0.000032,  39.281
    33.4,0.000002,0.000015,-0.000284,-0.000055,  39.276
    33.6,0.000007,0.000018,-0.000270,-0.000006,  39.278
    33.8,0.000007,0.000016,-0.000305,-0.000019,  39.279
    34.0,0.000007,0.000012,-0.000377,-0.000019,  39.280
    34.2,0.000007,0.000016,-0.000416,-0.000055,  39.274
    34.4,0.000004,0.000014,-0.000456,-0.000019,  39.276
    34.6,0.000002,0.000012,-0.000505,-0.000045,  39.277
    34.8,-0.000001,0.000014,-0.000564,-0.000068,  39.275
    35.0,0.000003,0.000016,-0.000511,-0.000032,  39.278
    35.2,-0.000004,0.000014,-0.000412,-0.000045,  39.279
    35.4,-0.000001,0.000014,-0.000280,-0.000081,  39.278
    35.6,0.000011,0.000016,-0.000255,-0.000045,  39.274
    35.8,0.000010,0.000014,-0.000290,-0.000045,  39.271
    36.0,0.000012,0.000016,-0.000369,-0.000081,  39.273
    36.2,0.000019,0.000020,-0.000329,-0.000045,  39.275
    36.4,0.000015,0.000019,-0.000266,-0.000045,  39.273
    36.6,0.000019,0.000025,-0.000183,-0.000081,  39.274
    36.8,0.000022,0.000022,-0.000183,-0.000045,  39.281
    37.0,0.000019,0.000019,-0.000216,-0.000045,  39.276
    37.2,0.000025,0.000019,-0.000284,-0.000068,  39.276
    37.4,0.000025,0.000022,-0.000264,-0.000032,  39.278
    37.6,0.000021,0.000020,-0.000245,-0.000032,  39.273
    37.8,0.000028,0.000021,-0.000186,-0.000055,  39.278
    38.0,0.000025,0.000024,-0.000419,-0.000055,  39.277
    38.2,0.000021,0.000022,-0.000796,-0.000068,  39.273
    38.4,0.000030,0.000022,-0.001294,-0.000103,  39.281
    38.6,0.000030,0.000024,-0.001699,-0.000103,  39.287
    38.8,0.000026,0.000026,-0.002127,-0.000068,  39.281
    39.0,0.000030,0.000028,-0.002564,-0.000103,  39.284
    39.2,0.000028,0.000030,-0.002446,-0.000103,  39.281
    39.4,0.000024,0.000035,-0.002082,-0.000068,  39.277
    39.6,0.000028,0.000033,-0.001447,-0.000103,  39.280
    39.8,0.000028,0.000035,-0.001185,-0.000103,  39.279
    40.0,0.000028,0.000037,-0.000993,-0.000068,  39.278
    40.2,0.000030,0.000034,-0.000854,-0.000103,  39.281
    40.4,0.000033,0.000034,-0.000770,-0.000103,  39.281
    40.6,0.000039,0.000038,-0.000730,-0.000068,  39.283
    40.8,0.000039,0.000038,-0.000753,-0.000103,  39.287
    41.0,0.000039,0.000036,-0.000660,-0.000103,  39.285
    41.2,0.000037,0.000040,-0.000522,-0.000068,  39.280
    41.4,0.000033,0.000040,-0.000350,-0.000103,  39.289
    41.6,0.000033,0.000040,-0.000464,-0.000103,  39.285
    41.8,0.000033,0.000037,-0.000706,-0.000068,  39.283
    42.0,0.000029,0.000039,-0.001061,-0.000103,  39.284
    42.2,0.000038,0.000039,-0.001065,-0.000103,  39.287
    42.4,0.000038,0.000036,-0.000971,-0.000068,  39.285
    42.6,0.000037,0.000036,-0.000779,-0.000103,  39.289
    42.8,0.000046,0.000042,-0.000670,-0.000090,  39.289
    43.0,0.000046,0.000044,-0.000547,-0.000055,  39.285
    43.2,0.000042,0.000041,-0.000428,-0.000090,  39.291
    43.4,0.000042,0.000041,-0.000358,-0.000077,  39.290
    43.6,0.000042,0.000040,-0.000305,-0.000055,  39.293
    43.8,0.000038,0.000044,-0.000284,-0.000055,  39.288
    44.0,0.000038,0.000046,-0.000274,-0.000077,  39.296
    44.2,0.000042,0.000044,-0.000274,-0.000077,  39.295
    44.4,0.000038,0.000042,-0.000279,-0.000055,  39.296
    44.6,0.000036,0.000042,-0.000292,-0.000077,  39.300
    44.8,0.000040,0.000039,-0.000242,-0.000042,  39.297
    45.0,0.000036,0.000039,-0.000168,-0.000055,  39.305
    45.2,0.000038,0.000044,-0.000084,-0.000090,  39.304
    45.4,0.000050,0.000044,-0.000070,-0.000077,  39.302
    45.6,0.000044,0.000042,-0.000074,-0.000055,  39.304
    45.8,0.000044,0.000045,-0.000118,-0.000090,  39.305
    46.0,0.000047,0.000049,-0.000350,-0.000077,  39.302
    46.2,0.000044,0.000048,-0.000696,-0.000055,  39.301
    46.4,0.000045,0.000049,-0.001161,-0.000090,  39.302
    46.6,0.000046,0.000048,-0.001540,-0.000090,  39.302
    46.8,0.000040,0.000050,-0.001968,-0.000068,  39.303
    47.0,0.000037,0.000048,-0.002427,-0.000103,  39.303
    47.2,0.000034,0.000040,-0.002304,-0.000090,  39.307
    47.4,0.000028,0.000042,-0.001921,-0.000055,  39.322
    47.6,0.000025,0.000037,-0.001271,-0.000090,  39.316
    47.8,0.000029,0.000039,-0.001025,-0.000077,  39.321
    48.0,0.000023,0.000039,-0.000847,-0.000055,  39.318
    48.2,0.000023,0.000032,-0.000722,-0.000090,  39.317
    48.4,0.000029,0.000033,-0.000595,-0.000077,  39.322
    48.6,0.000023,0.000031,-0.000496,-0.000055,  39.321
    48.8,0.000023,0.000032,-0.000416,-0.000090,  39.320
    49.0,0.000029,0.000038,-0.000367,-0.000077,  39.324
    49.2,0.000029,0.000038,-0.000363,-0.000055,  39.326
    49.4,0.000032,0.000037,-0.000376,-0.000090,  39.323
    49.6,0.000029,0.000034,-0.000327,-0.000077,  39.320
    49.8,0.000032,0.000034,-0.000273,-0.000055,  39.319
    50.0,0.000028,0.000036,-0.000209,-0.000090,  39.323
    50.2,0.000032,0.000040,-0.000199,-0.000090,  39.329
    50.4,0.000029,0.000042,-0.000219,-0.000068,  39.357
    50.6,0.000023,0.000040,-0.000258,-0.000103,  39.400
    50.8,0.000032,0.000042,-0.000199,-0.000103,  39.409
    51.0,0.000041,0.000042,-0.000109,-0.000068,  39.394
    51.2,0.000037,0.000041,0.000020,-0.000103,  39.375
    51.4,0.000046,0.000040,0.000035,-0.000103,  39.346
    51.6,0.000055,0.000038,-0.000000,-0.000068,  39.333
    51.8,0.000051,0.000042,-0.000074,-0.000103,  39.329
    52.0,0.000049,0.000038,-0.000094,-0.000103,  39.318
    52.2,0.000046,0.000034,-0.000105,-0.000068,  39.320
    52.4,0.000026,0.000040,-0.000094,-0.000068,  39.318
    52.6,0.000009,0.000040,-0.000074,-0.000090,  39.318
    52.8,-0.000022,0.000028,0.000009,-0.000103,  39.314
    53.0,-0.000057,0.000019,0.000106,-0.000068,  39.317
    53.2,-0.000085,-0.000001,0.000245,-0.000090,  39.316
    53.4,-0.000124,-0.000029,0.000311,-0.000068,  39.314
    53.6,-0.000146,-0.000054,0.000372,-0.000068,  39.317
    53.8,-0.000148,-0.000089,0.000390,-0.000116,  39.315
    54.0,-0.000150,-0.000099,0.000350,-0.000129,  39.318
    54.2,-0.000149,-0.000091,0.000274,-0.000120,  39.317
    54.4,-0.000131,-0.000078,0.000144,-0.000195,  39.312
    54.6,-0.000110,-0.000073,0.000097,-0.000247,  39.318
    54.8,-0.000100,-0.000069,0.000077,-0.000276,  39.319
    55.0,-0.000082,-0.000059,0.000065,-0.000312,  39.315
    55.2,-0.000063,-0.000055,-0.000501,-0.000299,  39.318
    55.4,-0.000058,-0.000046,-0.001331,-0.000237,  39.318
    55.6,-0.000045,-0.000036,-0.002425,-0.000247,  39.319
    55.8,-0.000040,-0.000025,-0.002490,-0.000221,  39.318
    56.0,-0.000035,-0.000024,-0.002164,-0.000172,  39.318
    56.2,-0.000030,-0.000016,-0.001460,-0.000182,  39.319
    56.4,-0.000021,-0.000016,-0.001239,-0.000169,  39.321
    56.6,-0.000024,-0.000017,-0.001081,-0.000133,  39.318
    56.8,-0.000019,-0.000012,-0.000983,-0.000156,  39.315
    57.0,-0.000017,-0.000013,-0.000841,-0.000156,  39.318
    57.2,-0.000011,-0.000010,-0.000693,-0.000107,  39.313
    57.4,-0.000009,-0.000005,-0.000570,-0.000129,  39.316
    57.6,-0.000005,-0.000005,-0.000482,-0.000129,  39.319
    57.8,0.000007,0.000000,-0.000416,-0.000094,  39.320
    58.0,0.000006,0.000014,-0.000380,-0.000116,  39.319
    58.2,0.000022,0.000027,-0.000315,-0.000116,  39.319
    58.4,0.000021,0.000040,-0.000256,-0.000081,  39.318
    58.6,0.000031,0.000062,-0.000205,-0.000103,  39.319
    58.8,0.000058,0.000081,-0.000155,-0.000103,  39.316
    59.0,0.000081,0.000099,-0.000102,-0.000068,  39.317
    59.2,0.000093,0.000117,-0.000058,-0.000090,  39.314
    59.4,0.000106,0.000134,-0.000078,-0.000077,  39.314
    59.6,0.000123,0.000133,-0.000128,-0.000055,  39.316
    59.8,0.000120,0.000124,-0.000222,-0.000090,  39.319
    60.0,0.000120,0.000104,-0.000238,-0.000077,  39.317
    60.2,0.000118,0.000095,-0.000224,-0.000042,  39.323
    60.4,0.000106,0.000094,-0.000200,-0.000077,  39.319
    60.6,0.000096,0.000090,-0.000221,-0.000064,  39.317
    60.8,0.000086,0.000083,-0.000276,-0.000029,  39.318
    61.0,0.000080,0.000077,-0.000340,-0.000016,  39.281
    61.2,0.000070,0.000069,-0.000364,-0.000051,  39.272
    61.4,0.000059,0.000063,-0.000380,-0.000051,  39.297
    61.6,0.000054,0.000066,-0.000390,-0.000029,  39.308
    61.8,0.000049,0.000066,-0.000386,-0.000064,  39.309
    62.0,0.000044,0.000055,-0.000406,-0.000029,  39.310
    62.2,0.000041,0.000054,-0.000441,-0.000029,  39.310
    62.4,0.000045,0.000050,-0.000485,-0.000064,  39.310
    62.6,0.000051,0.000046,-0.000505,-0.000064,  39.307
    62.8,0.000047,0.000042,-0.000515,-0.000042,  39.307
    63.0,0.000054,0.000041,-0.000519,-0.000077,  39.311
    63.2,0.000054,0.000037,-0.000748,-0.000077,  39.308
    63.4,0.000053,0.000033,-0.001091,-0.000042,  39.309
    63.6,0.000064,0.000027,-0.001543,-0.000077,  39.306
    63.8,0.000067,0.000019,-0.001710,-0.000077,  39.311
    64.0,0.000066,0.000030,-0.001813,-0.000042,  39.311
    64.2,0.000077,0.000038,-0.001840,-0.000077,  39.309
    64.4,0.000077,0.000056,-0.001697,-0.000077,  39.311
    64.6,0.000074,0.000064,-0.001456,-0.000042,  39.309
    64.8,0.000080,0.000063,-0.001102,-0.000064,  39.312
    65.0,0.000077,0.000068,-0.001112,-0.000064,  39.308
    65.2,0.000074,0.000070,-0.001259,-0.000016,  39.312
    65.4,0.000080,0.000067,-0.001540,-0.000038,  39.313
    65.6,0.000077,0.000070,-0.001476,-0.000051,  39.313
    65.8,0.000074,0.000070,-0.001308,-0.000016,  39.317
    66.0,0.000075,0.000063,-0.001047,-0.000051,  39.322
    66.2,0.000070,0.000066,-0.000944,-0.000051,  39.335
    66.4,0.000063,0.000066,-0.000844,-0.000029,  39.329
    66.6,0.000067,0.000057,-0.000799,-0.000064,  39.336
    66.8,0.000062,0.000057,-0.000770,-0.000064,  39.331
    67.0,0.000062,0.000057,-0.000754,-0.000042,  39.333
    67.2,0.000062,0.000054,-0.000773,-0.000077,  39.333
    67.4,0.000055,0.000061,-0.000730,-0.000077,  39.331
    67.6,0.000062,0.000061,-0.000666,-0.000042,  39.332
    67.8,0.000053,0.000058,-0.000582,-0.000077,  39.336
    68.0,0.000050,0.000062,-0.000528,-0.000077,  39.330
    68.2,0.000054,0.000064,-0.000489,-0.000042,  39.330
    68.4,0.000053,0.000070,-0.000448,-0.000077,  39.337
    68.6,0.000064,0.000077,-0.000434,-0.000077,  39.336
    68.8,0.000072,0.000073,-0.000440,-0.000042,  39.339
    69.0,0.000068,0.000074,-0.000448,-0.000077,  39.333
    69.2,0.000075,0.000068,-0.000463,-0.000064,  39.337
    69.4,0.000067,0.000061,-0.000487,-0.000029,  39.330
    69.6,0.000058,0.000057,-0.000516,-0.000064,  39.331
    69.8,0.000059,0.000055,-0.000516,-0.000051,  39.330
    70.0,0.000058,0.000053,-0.000496,-0.000029,  39.331
    70.2,0.000051,0.000050,-0.000467,-0.000042,  39.328
    70.4,0.000049,0.000054,-0.000443,-0.000077,  39.328
    70.6,0.000058,0.000054,-0.000424,-0.000077,  39.321
    70.8,0.000056,0.000055,-0.000395,-0.000042,  39.322
    71.0,0.000059,0.000064,-0.000360,-0.000090,  39.321
    71.2,0.000068,0.000066,-0.000380,-0.000055,  39.323
    71.4,0.000064,0.000060,-0.000409,-0.000042,  39.315
    71.6,0.000063,0.000064,-0.000447,-0.000077,  39.301
    71.8,0.000060,0.000066,-0.000447,-0.000077,  39.297
    72.0,0.000054,0.000062,-0.000422,-0.000042,  39.300
    72.2,0.000057,0.000066,-0.000373,-0.000077,  39.301
    72.4,0.000060,0.000066,-0.000527,-0.000077,  39.298
    72.6,0.000054,0.000068,-0.000764,-0.000042,  39.297
    72.8,0.000054,0.000066,-0.001094,-0.000077,  39.297
    73.0,0.000058,0.000066,-0.001123,-0.000077,  39.298
    73.2,0.000051,0.000064,-0.001054,-0.000042,  39.295
    73.4,0.000049,0.000062,-0.000890,-0.000077,  39.291
    73.6,0.000053,0.000061,-0.000816,-0.000077,  39.293
    73.8,0.000046,0.000061,-0.000743,-0.000042,  39.291
    74.0,0.000046,0.000054,-0.000664,-0.000077,  39.289
    74.2,0.000053,0.000057,-0.000625,-0.000077,  39.290
    74.4,0.000049,0.000053,-0.000595,-0.000042,  39.289
    74.6,0.000054,0.000051,-0.000593,-0.000077,  39.287
    74.8,0.000066,0.000054,-0.000944,-0.000077,  39.286
    75.0,0.000059,0.000050,-0.001492,-0.000042,  39.285
    75.2,0.000054,0.000044,-0.002221,-0.000077,  39.280
    75.4,0.000053,0.000044,-0.002206,-0.000064,  39.283
    75.6,0.000041,0.000046,-0.001927,-0.000029,  39.285
    75.8,0.000045,0.000037,-0.001371,-0.000064,  39.278
    76.0,0.000043,0.000039,-0.001199,-0.000064,  39.282
    76.2,0.000041,0.000038,-0.001090,-0.000042,  39.284
    76.4,0.000041,0.000042,-0.001025,-0.000077,  39.282
    76.6,0.000034,0.000044,-0.000887,-0.000077,  39.278
    76.8,0.000041,0.000044,-0.000745,-0.000042,  39.278
    77.0,0.000032,0.000040,-0.000603,-0.000077,  39.279
    77.2,0.000029,0.000039,-0.000585,-0.000077,  39.284
    77.4,0.000030,0.000037,-0.000608,-0.000042,  39.276
    77.6,0.000024,0.000035,-0.000695,-0.000077,  39.273
    77.8,0.000030,0.000042,-0.000670,-0.000077,  39.276
    78.0,0.000030,0.000045,-0.000621,-0.000042,  39.276
    78.2,0.000029,0.000041,-0.000537,-0.000077,  39.271
    78.4,0.000035,0.000048,-0.000463,-0.000077,  39.273
    78.6,0.000035,0.000044,-0.000399,-0.000042,  39.268
    78.8,0.000032,0.000044,-0.000347,-0.000077,  39.270
    79.0,0.000037,0.000037,-0.000322,-0.000077,  39.274
    79.2,0.000037,0.000036,-0.000322,-0.000055,  39.276
    79.4,0.000031,0.000031,-0.000361,-0.000090,  39.272
    79.6,0.000031,0.000035,-0.000361,-0.000077,  39.272
    79.8,0.000032,0.000037,-0.000357,-0.000055,  39.273
    80.0,0.000023,0.000034,-0.000347,-0.000055,  39.275
    80.2,0.000023,0.000032,-0.000337,-0.000077,  39.272
    80.4,0.000026,0.000038,-0.000361,-0.000077,  39.272
    80.6,0.000020,0.000040,-0.000380,-0.000055,  39.273
    80.8,0.000026,0.000040,-0.000419,-0.000077,  39.273
    81.0,0.000035,0.000042,-0.000440,-0.000042,  39.279
    81.2,0.000029,0.000044,-0.000464,-0.000055,  39.276
    81.4,0.000035,0.000042,-0.000473,-0.000090,  39.274
    81.6,0.000033,0.000036,-0.000463,-0.000077,  39.272
    81.8,0.000024,0.000040,-0.000469,-0.000055,  39.273
    82.0,0.000030,0.000038,-0.000454,-0.000090,  39.273
    82.2,0.000033,0.000040,-0.000483,-0.000077,  39.273
    82.4,0.000026,0.000040,-0.000543,-0.000055,  39.273
    82.6,0.000026,0.000039,-0.000631,-0.000090,  39.271
    82.8,0.000026,0.000038,-0.000602,-0.000077,  39.274
    83.0,0.000020,0.000040,-0.000534,-0.000055,  39.269
    83.2,0.000024,0.000037,-0.000411,-0.000090,  39.269
    83.4,0.000025,0.000034,-0.000400,-0.000077,  39.271
    83.6,0.000021,0.000030,-0.000450,-0.000055,  39.267
    83.8,0.000028,0.000034,-0.000528,-0.000090,  39.266
    84.0,0.000025,0.000031,-0.000528,-0.000077,  39.271
    84.2,0.000025,0.000026,-0.000524,-0.000055,  39.272
    84.4,0.000029,0.000027,-0.000499,-0.000090,  39.269
    84.6,0.000034,0.000025,-0.000772,-0.000077,  39.268
    84.8,0.000027,0.000022,-0.001187,-0.000055,  39.265
    85.0,0.000026,0.000027,-0.001727,-0.000090,  39.267
    85.2,0.000026,0.000027,-0.001727,-0.000077,  39.274
    85.4,0.000022,0.000025,-0.001525,-0.000055,  39.278
    85.6,0.000019,0.000028,-0.001131,-0.000090,  39.272
    85.8,0.000019,0.000026,-0.001022,-0.000077,  39.271
    86.0,0.000019,0.000028,-0.000942,-0.000055,  39.275
    86.2,0.000019,0.000030,-0.000902,-0.000090,  39.273
    86.4,0.000019,0.000032,-0.000838,-0.000077,  39.278
    86.6,0.000025,0.000035,-0.000785,-0.000055,  39.278
    86.8,0.000019,0.000032,-0.000715,-0.000090,  39.281
    87.0,0.000019,0.000031,-0.000645,-0.000055,  39.279
    87.2,0.000028,0.000029,-0.000612,-0.000032,  39.281
    87.4,0.000024,0.000025,-0.000573,-0.000068,  39.282
    87.6,0.000028,0.000027,-0.000534,-0.000032,  39.283
    87.8,0.000025,0.000027,-0.000499,-0.000032,  39.280
    88.0,0.000021,0.000025,-0.000474,-0.000068,  39.286
    88.2,0.000025,0.000027,-0.000618,-0.000032,  39.285
    88.4,0.000029,0.000022,-0.000870,-0.000032,  39.284
    88.6,0.000025,0.000025,-0.001210,-0.000068,  39.284
    88.8,0.000022,0.000028,-0.001235,-0.000032,  39.287
    89.0,0.000029,0.000024,-0.001151,-0.000032,  39.286
    89.2,0.000022,0.000025,-0.000963,-0.000032,  39.284
    89.4,0.000020,0.000030,-0.000903,-0.000055,  39.284
    89.6,0.000024,0.000028,-0.000864,-0.000032,  39.283
    89.8,0.000017,0.000026,-0.000829,-0.000032,  39.289
    90.0,0.000017,0.000027,-0.000819,-0.000055,  39.288
    90.2,0.000017,0.000024,-0.000776,-0.000032,  39.284
    90.4,0.000008,0.000019,-0.000727,-0.000032,  39.287
    90.6,0.000012,0.000017,-0.000667,-0.000081,  39.287
    90.8,0.000016,0.000012,-0.000638,-0.000045,  39.289
    91.0,0.000007,0.000017,-0.000614,-0.000045,  39.290
    91.2,0.000007,0.000013,-0.000593,-0.000081,  39.287
    91.4,0.000013,0.000013,-0.000599,-0.000045,  39.294
    91.6,0.000009,0.000015,-0.000624,-0.000032,  39.290
    91.8,0.000009,0.000017,-0.000653,-0.000055,  39.291
    92.0,0.000009,0.000017,-0.000630,-0.000019,  39.293
    92.2,0.000006,0.000020,-0.000576,-0.000032,  39.292
    92.4,0.000017,0.000026,-0.000492,-0.000068,  39.289
    92.6,0.000020,0.000028,-0.000463,-0.000032,  39.287
    92.8,0.000019,0.000030,-0.000458,-0.000032,  39.288
    93.0,0.000028,0.000031,-0.000469,-0.000068,  39.289
    93.2,0.000025,0.000034,-0.000479,-0.000032,  39.287
    93.4,0.000021,0.000033,-0.000498,-0.000032,  39.290
    93.6,0.000028,0.000032,-0.000537,-0.000068,  39.292
    93.8,0.000025,0.000029,-0.000528,-0.000032,  39.293
    94.0,0.000021,0.000026,-0.000493,-0.000032,  39.290
    94.2,0.000030,0.000029,-0.000444,-0.000068,  39.293
    94.4,0.000030,0.000032,-0.000424,-0.000032,  39.293
    94.6,0.000030,0.000034,-0.000434,-0.000032,  39.298
    94.8,0.000030,0.000038,-0.000443,-0.000068,  39.295
    95.0,0.000019,0.000040,-0.000457,-0.000068,  39.300
    95.2,0.000022,0.000044,-0.000502,-0.000068,  39.297
    95.4,0.000019,0.000043,-0.000551,-0.000103,  39.299
    95.6,0.000019,0.000045,-0.000522,-0.000103,  39.299
    95.8,0.000028,0.000047,-0.000454,-0.000068,  39.301
    96.0,0.000024,0.000042,-0.000340,-0.000103,  39.304
    96.2,0.000030,0.000043,-0.000331,-0.000103,  39.300
    96.4,0.000033,0.000044,-0.000337,-0.000068,  39.300
    96.6,0.000029,0.000045,-0.000351,-0.000103,  39.300
    96.8,0.000035,0.000049,-0.000603,-0.000103,  39.301
    97.0,0.000035,0.000044,-0.000983,-0.000068,  39.299
    97.2,0.000032,0.000044,-0.001485,-0.000103,  39.300
    97.4,0.000032,0.000042,-0.001544,-0.000103,  39.303
    97.6,0.000029,0.000039,-0.001444,-0.000068,  39.301
    97.8,0.000020,0.000038,-0.001197,-0.000068,  39.305
    98.0,0.000026,0.000044,-0.001103,-0.000090,  39.305
    98.2,0.000030,0.000044,-0.000999,-0.000103,  39.304
    98.4,0.000024,0.000042,-0.000911,-0.000068,  39.309
    98.6,0.000024,0.000038,-0.000816,-0.000090,  39.308
    98.8,0.000024,0.000037,-0.000757,-0.000068,  39.307
    99.0,0.000023,0.000039,-0.000722,-0.000068,  39.310
    99.2,0.000025,0.000047,-0.000682,-0.000103,  39.306
    99.4,0.000032,0.000045,-0.000815,-0.000103,  39.311
    99.6,0.000031,0.000047,-0.001028,-0.000068,  39.309
    99.8,0.000036,0.000051,-0.001339,-0.000103,  39.308
   100.0,0.000045,0.000049,-0.001295,-0.000103,  39.306
   100.2,0.000044,0.000049,-0.001097,-0.000068,  39.310
   100.4,0.000044,0.000055,-0.000766,-0.000103,  39.309
   100.6,0.000053,0.000057,-0.000672,-0.000103,  39.307
   100.8,0.000051,0.000061,-0.000627,-0.000068,  39.313
   101.0,0.000063,0.000065,-0.000625,-0.000103,  39.309
   101.2,0.000072,0.000072,-0.000570,-0.000090,  39.309
   101.4,0.000074,0.000079,-0.000525,-0.000055,  39.310
   101.6,0.000081,0.000085,-0.000490,-0.000090,  39.313
   101.8,0.000089,0.000090,-0.000421,-0.000077,  39.315
   102.0,0.000093,0.000099,-0.000351,-0.000055,  39.312
   102.2,0.000101,0.000111,-0.000271,-0.000090,  39.315
   102.4,0.000115,0.000126,-0.000602,-0.000077,  39.311
   102.6,0.000120,0.000133,-0.001145,-0.000055,  39.314
   102.8,0.000127,0.000146,-0.001877,-0.000090,  39.318
   103.0,0.000142,0.000156,-0.001833,-0.000077,  39.320
   103.2,0.000148,0.000163,-0.001502,-0.000042,  39.319
   103.4,0.000159,0.000177,-0.000874,-0.000077,  39.319
   103.6,0.000167,0.000195,-0.000651,-0.000064,  39.319
   103.8,0.000175,0.000202,-0.000488,-0.000029,  39.321
   104.0,0.000185,0.000216,-0.000388,-0.000051,  39.323
   104.2,0.000193,0.000231,-0.000267,-0.000038,  39.321
   104.4,0.000205,0.000238,-0.000202,-0.000003,  39.322
   104.6,0.000215,0.000255,-0.000161,-0.000025,  39.324
   104.8,0.000232,0.000265,-0.000036,-0.000025,  39.321
   105.0,0.000233,0.000269,0.000097,0.000010,  39.322
   105.2,0.000237,0.000278,0.000261,-0.000012,  39.324
   105.4,0.000245,0.000282,0.000267,-0.000025,  39.326
   105.6,0.000260,0.000282,0.000209,0.000010,  39.324
   105.8,0.000264,0.000288,0.000098,-0.000012,  39.324
   106.0,0.000269,0.000293,-0.000019,-0.000012,  39.325
   106.2,0.000278,0.000290,-0.000172,0.000024,  39.328
   106.4,0.000277,0.000290,-0.000363,0.000001,  39.330
   106.6,0.000277,0.000287,-0.000337,0.000001,  39.337
   106.8,0.000271,0.000279,-0.000247,0.000024,  39.341
   107.0,0.000274,0.000280,-0.000057,0.000001,  39.336
   107.2,0.000271,0.000275,0.000053,0.000001,  39.340
   107.4,0.000275,0.000271,0.000153,0.000024,  39.340
   107.6,0.000271,0.000269,0.000254,0.000024,  39.339
   107.8,0.000269,0.000271,0.000348,0.000001,  39.342
   108.0,0.000275,0.000264,0.000488,-0.000012,  39.340
   108.2,0.000271,0.000263,0.000623,0.000010,  39.344
   108.4,0.000274,0.000261,0.000778,-0.000025,  39.341
   108.6,0.000283,0.000261,0.000959,-0.000003,  39.345
   108.8,0.000282,0.000262,0.001129,0.000033,  39.342
   109.0,0.000287,0.000267,0.001331,0.000010,  39.346
   109.2,0.000296,0.000267,0.001474,0.000010,  39.345
   109.4,0.000303,0.000273,0.001561,-0.000003,  39.343
   109.6,0.000316,0.000274,0.001630,-0.000025,  39.341
   109.8,0.000336,0.000276,0.001787,-0.000038,  39.343
   110.0,0.000345,0.000280,0.001975,-0.000016,  39.344
   110.2,0.000363,0.000286,0.002188,-0.000038,  39.345
   110.4,0.000388,0.000293,0.002392,-0.000051,  39.339
   110.6,0.000400,0.000302,0.002586,-0.000016,  39.344
   110.8,0.000418,0.000312,0.002782,-0.000038,  39.341
   111.0,0.000446,0.000321,0.003033,-0.000051,  39.339
   111.2,0.000465,0.000331,0.003289,-0.000016,  39.342
   111.4,0.000492,0.000340,0.003550,-0.000038,  39.335
   111.6,0.000527,0.000355,0.003851,-0.000051,  39.341
   111.8,0.000552,0.000366,0.004179,-0.000016,  39.340
   112.0,0.000583,0.000386,0.004528,-0.000038,  39.343
   112.2,0.000619,0.000406,0.004867,-0.000051,  39.339
   112.4,0.000646,0.000421,0.005222,-0.000016,  39.344
   112.6,0.000683,0.000441,0.005573,-0.000038,  39.346
   112.8,0.000729,0.000460,0.005975,-0.000051,  39.346
   113.0,0.000763,0.000482,0.006413,-0.000016,  39.345
   113.2,0.000800,0.000503,0.006867,-0.000051,  39.346
   113.4,0.000834,0.000536,0.007367,-0.000051,  39.343
   113.6,0.000868,0.000565,0.007899,-0.000029,  39.343
   113.8,0.000911,0.000591,0.008463,-0.000064,  39.341
   114.0,0.000973,0.000623,0.009037,-0.000051,  39.343
   114.2,0.001033,0.000658,0.009619,-0.000029,  39.343
   114.4,0.001090,0.000691,0.010232,-0.000064,  39.338
   114.6,0.001153,0.000723,0.010852,-0.000064,  39.339
   114.8,0.001225,0.000761,0.011472,-0.000042,  39.339
   115.0,0.001289,0.000801,0.012122,-0.000077,  39.338
   115.2,0.001357,0.000840,0.012895,-0.000077,  39.335
   115.4,0.001435,0.000884,0.013735,-0.000042,  39.339
   115.6,0.001507,0.000928,0.014645,-0.000077,  39.336
   115.8,0.001589,0.000978,0.015365,-0.000077,  39.334
   116.0,0.001676,0.001023,0.016033,-0.000042,  39.335
   116.2,0.001762,0.001078,0.016630,-0.000042,  39.332
   116.4,0.001857,0.001133,0.017165,-0.000077,  39.331
   116.6,0.001960,0.001186,0.018017,-0.000077,  39.332
   116.8,0.002059,0.001241,0.018940,-0.000042,  39.330
   117.0,0.002162,0.001300,0.019950,-0.000077,  39.332
   117.2,0.002273,0.001360,0.020968,-0.000042,  39.331
   117.4,0.002379,0.001416,0.022035,-0.000042,  39.332
   117.6,0.002497,0.001485,0.023137,-0.000077,  39.331
   117.8,0.002625,0.001554,0.024275,-0.000042,  39.329
   118.0,0.002740,0.001622,0.025436,-0.000019,  39.326
   118.2,0.002863,0.001699,0.026639,-0.000055,  39.314
   118.4,0.002993,0.001762,0.027909,-0.000006,  39.312
   118.6,0.003127,0.001825,0.029237,-0.000019,  39.315
   118.8,0.003266,0.001880,0.030634,-0.000055,  39.313
   119.0,0.003411,0.001933,0.031999,-0.000006,  39.317
   119.2,0.003553,0.002015,0.033374,-0.000019,  39.315
   119.4,0.003703,0.002097,0.034765,-0.000055,  39.316
   119.6,0.003854,0.002189,0.036210,-0.000042,  39.312
   119.8,0.004009,0.002275,0.037682,-0.000055,  39.316
   120.0,0.004181,0.002361,0.039164,-0.000090,  39.311
   120.2,0.004348,0.002449,0.040762,-0.000077,  39.316
   120.4,0.004516,0.002541,0.042428,-0.000055,  39.313
   120.6,0.004693,0.002644,0.044144,-0.000090,  39.316
   120.8,0.004873,0.002747,0.045852,-0.000077,  39.313
   121.0,0.005055,0.002845,0.047583,-0.000055,  39.313
   121.2,0.005246,0.002960,0.049333,-0.000090,  39.314
   121.4,0.005448,0.003069,0.051214,-0.000077,  39.309
   121.6,0.005618,0.003177,0.053190,-0.000055,  39.314
   121.8,0.005777,0.003291,0.055233,-0.000090,  39.311
   122.0,0.005926,0.003409,0.057228,-0.000077,  39.314
   122.2,0.006058,0.003529,0.059237,-0.000055,  39.314
   122.4,0.006257,0.003649,0.061239,-0.000090,  39.309
   122.6,0.006474,0.003777,0.063397,-0.000077,  39.310
   122.8,0.006714,0.003901,0.065625,-0.000042,  39.311
   123.0,0.006942,0.004040,0.067930,-0.000077,  39.313
   123.2,0.007174,0.004180,0.070187,-0.000042,  39.312
   123.4,0.007411,0.004315,0.072443,-0.000019,  39.312
   123.6,0.007656,0.004462,0.074711,-0.000055,  39.311
   123.8,0.007904,0.004608,0.076867,-0.000006,  39.310
   124.0,0.008157,0.004754,0.078954,-0.000019,  39.312
   124.2,0.008416,0.004900,0.081000,-0.000055,  39.316
   124.4,0.008678,0.005049,0.083516,-0.000006,  39.317
   124.6,0.008939,0.005198,0.086241,-0.000019,  39.315
   124.8,0.009209,0.005356,0.089198,-0.000055,  39.311
   125.0,0.009485,0.005514,0.091563,-0.000006,  39.311
   125.2,0.009763,0.005672,0.093746,-0.000019,  39.313
   125.4,0.010050,0.005840,0.095731,-0.000019,  39.315
   125.6,0.010339,0.006011,0.097526,-0.000042,  39.313
   125.8,0.010632,0.006181,0.100206,-0.000006,  39.317
   126.0,0.010932,0.006355,0.103130,-0.000019,  39.317
   126.2,0.011233,0.006526,0.106313,-0.000042,  39.313
   126.4,0.011534,0.006702,0.109256,-0.000006,  39.314
   126.6,0.011849,0.006885,0.112176,-0.000006,  39.313
   126.8,0.012172,0.007068,0.115095,-0.000042,  39.311
   127.0,0.012501,0.007229,0.118165,-0.000006,  39.316
   127.2,0.012824,0.007373,0.121296,-0.000006,  39.316
   127.4,0.013156,0.007512,0.124513,-0.000042,  39.320
   127.6,0.013499,0.007637,0.127860,-0.000006,  39.320
   127.8,0.013833,0.007823,0.131272,-0.000006,  39.315
   128.0,0.014180,0.008021,0.134817,-0.000042,  39.314
   128.2,0.014532,0.008232,0.138158,-0.000006,  39.315
   128.4,0.014878,0.008433,0.141443,-0.000006,  39.315
   128.6,0.015239,0.008636,0.144661,-0.000042,  39.313
   128.8,0.015598,0.008850,0.148017,-0.000006,  39.312
   129.0,0.015956,0.009055,0.151425,-0.000006,  39.315
   129.2,0.016329,0.009274,0.154839,-0.000042,  39.314
   129.4,0.016702,0.009491,0.158327,-0.000006,  39.314
   129.6,0.017071,0.009704,0.161879,-0.000006,  39.311
   129.8,0.017456,0.009922,0.165468,-0.000042,  39.313
   130.0,0.017835,0.010139,0.169112,-0.000006,  39.312
   130.2,0.018162,0.010355,0.172780,-0.000006,  39.311
   130.4,0.018468,0.010585,0.176501,-0.000042,  39.309
   130.6,0.018738,0.010812,0.180285,0.000007,  39.304
   130.8,0.018989,0.011038,0.184075,0.000007,  39.308
   131.0,0.019355,0.011273,0.187926,-0.000029,  39.303
   131.2,0.019755,0.011514,0.191780,0.000020,  39.302
   131.4,0.020191,0.011751,0.195630,0.000007,  39.300
   131.6,0.020597,0.011990,0.199527,-0.000016,  39.305
   131.8,0.021000,0.012229,0.203421,0.000020,  39.302
   132.0,0.021405,0.012469,0.207306,0.000020,  39.301
   132.2,0.021817,0.012713,0.211199,-0.000003,  39.300
   132.4,0.022233,0.012956,0.215221,0.000020,  39.295
   132.6,0.022652,0.013198,0.219303,0.000020,  39.295
   132.8,0.023077,0.013441,0.223418,-0.000003,  39.296
   133.0,0.023503,0.013691,0.227487,0.000020,  39.292
   133.2,0.023928,0.013943,0.231532,0.000020,  39.295
   133.4,0.024357,0.014197,0.235562,0.000020,  39.297
   133.6,0.024790,0.014453,0.239112,-0.000016,  39.296
   133.8,0.025217,0.014710,0.242378,0.000020,  39.298
   134.0,0.025655,0.014967,0.245400,0.000020,  39.296
   134.2,0.026092,0.015226,0.248132,-0.000016,  39.299
   134.4,0.026534,0.015486,0.252048,0.000020,  39.299
   134.6,0.026979,0.015749,0.256274,0.000020,  39.298
   134.8,0.027425,0.016019,0.260838,-0.000003,  39.296
   135.0,0.027872,0.016287,0.265095,0.000020,  39.299
   135.2,0.028319,0.016553,0.269370,0.000020,  39.299
   135.4,0.028763,0.016817,0.273660,-0.000003,  39.300
   135.6,0.029208,0.017043,0.277923,0.000033,  39.298
   135.8,0.029654,0.017252,0.282149,0.000033,  39.304
   136.0,0.030099,0.017440,0.286325,0.000010,  39.301
   136.2,0.030549,0.017609,0.289965,0.000046,  39.297
   136.4,0.030993,0.017858,0.293294,0.000046,  39.301
   136.6,0.031440,0.018121,0.296250,0.000024,  39.304
   136.8,0.031888,0.018405,0.300451,0.000046,  39.296
   137.0,0.032336,0.018668,0.305156,0.000046,  39.307
   137.2,0.032785,0.018940,0.310343,0.000024,  39.304
   137.4,0.033234,0.019218,0.314906,0.000010,  39.308
   137.6,0.033689,0.019484,0.319418,0.000010,  39.304
   137.8,0.034145,0.019750,0.323889,-0.000012,  39.305
   138.0,0.034601,0.020021,0.328416,-0.000025,  39.308
   138.2,0.035055,0.020294,0.332911,0.000010,  39.309
   138.4,0.035506,0.020566,0.337409,-0.000012,  39.311
   138.6,0.035950,0.020850,0.341849,-0.000025,  39.305
   138.8,0.036396,0.021118,0.346222,0.000010,  39.310
   139.0,0.036838,0.021385,0.350561,-0.000012,  39.307
   139.2,0.037274,0.021647,0.354858,-0.000012,  39.304
   139.4,0.037651,0.021912,0.359122,0.000024,  39.306
   139.6,0.037990,0.022182,0.363329,0.000001,  39.303
   139.8,0.038302,0.022447,0.367577,0.000037,  39.306
   140.0,0.038579,0.022706,0.371819,0.000059,  39.309
   140.2,0.038986,0.022972,0.375987,0.000037,  39.304
   140.4,0.039418,0.023236,0.380172,0.000072,  39.306
   140.6,0.039886,0.023502,0.384317,0.000072,  39.304
   140.8,0.040319,0.023765,0.388409,0.000037,  39.306
   141.0,0.040748,0.024030,0.392076,0.000072,  39.309
   141.2,0.041176,0.024299,0.395481,0.000072,  39.307
   141.4,0.041608,0.024566,0.398620,0.000037,  39.300
   141.6,0.042038,0.024826,0.402686,0.000072,  39.300
   141.8,0.042462,0.025089,0.407074,0.000072,  39.305
   142.0,0.042889,0.025349,0.411797,0.000037,  39.302
   142.2,0.043314,0.025612,0.415520,0.000072,  39.301
   142.4,0.043734,0.025865,0.418856,0.000072,  39.302
   142.6,0.044143,0.026119,0.421842,0.000072,  39.296
   142.8,0.044548,0.026368,0.424450,0.000037,  39.293
   143.0,0.044943,0.026617,0.428060,0.000072,  39.293
   143.2,0.045344,0.026864,0.431877,0.000072,  39.292
   143.4,0.045745,0.027109,0.435850,0.000037,  39.291
   143.6,0.046144,0.027353,0.439790,0.000072,  39.294
   143.8,0.046540,0.027596,0.443812,0.000072,  39.295
   144.0,0.046931,0.027843,0.447888,0.000037,  39.298
   144.2,0.047319,0.028087,0.451642,0.000072,  39.294
   144.4,0.047704,0.028324,0.455266,0.000072,  39.293
   144.6,0.048087,0.028563,0.458739,0.000037,  39.290
   144.8,0.048468,0.028765,0.462541,0.000072,  39.288
   145.0,0.048848,0.028947,0.466394,0.000072,  39.284
   145.2,0.049220,0.029123,0.470367,0.000037,  39.284
   145.4,0.049599,0.029272,0.473994,0.000072,  39.285
   145.6,0.049969,0.029481,0.477430,0.000059,  39.288
   145.8,0.050330,0.029707,0.480726,0.000037,  39.283
   146.0,0.050692,0.029952,0.484293,0.000059,  39.283
   146.2,0.051045,0.030175,0.487977,0.000046,  39.278
   146.4,0.051390,0.030391,0.491669,0.000024,  39.277
   146.6,0.051729,0.030602,0.495227,0.000046,  39.275
   146.8,0.052071,0.030818,0.498750,0.000046,  39.274
   147.0,0.052402,0.031032,0.502179,0.000010,  39.274
   147.2,0.052733,0.031240,0.505674,0.000033,  39.269
   147.4,0.053061,0.031445,0.509164,0.000007,  39.267
   147.6,0.053380,0.031649,0.512617,-0.000029,  39.263
   147.8,0.053709,0.031854,0.516003,0.000007,  39.260
   148.0,0.053982,0.032056,0.519287,-0.000006,  39.260
   148.2,0.054224,0.032256,0.522541,-0.000042,  39.255
   148.4,0.054453,0.032454,0.525925,-0.000019,  39.255
   148.6,0.054649,0.032652,0.529297,-0.000032,  39.249
   148.8,0.054931,0.032849,0.532649,-0.000068,  39.232
   149.0,0.055250,0.033045,0.535608,-0.000032,  39.231
   149.2,0.055580,0.033237,0.538301,-0.000032,  39.225
   149.4,0.055877,0.033418,0.540761,-0.000081,  39.220
   149.6,0.056157,0.033600,0.543835,-0.000045,  39.214
   149.8,0.056443,0.033777,0.547009,-0.000058,  39.206
   150.0,0.056724,0.033949,0.550394,-0.000094,  39.204
   150.2,0.056992,0.034118,0.553611,-0.000071,  39.200
   150.4,0.057270,0.034290,0.556829,-0.000084,  39.193
   150.6,0.057539,0.034455,0.560040,-0.000120,  39.188
   150.8,0.057799,0.034619,0.563132,-0.000097,  39.184
   151.0,0.058060,0.034789,0.566114,-0.000123,  39.175
   151.2,0.058326,0.034959,0.569059,-0.000136,  39.174
   151.4,0.058587,0.035125,0.571627,-0.000172,  39.149
   151.6,0.058848,0.035289,0.573906,-0.000149,  39.138
   151.8,0.059115,0.035448,0.576006,-0.000163,  39.129
   152.0,0.059370,0.035599,0.577808,-0.000211,  39.119
   152.2,0.059622,0.035751,0.580572,-0.000202,  39.112
   152.4,0.059884,0.035908,0.583549,-0.000215,  39.108
   152.6,0.060139,0.036065,0.586820,-0.000250,  39.093
   152.8,0.060389,0.036211,0.589694,-0.000228,  39.077
   153.0,0.060635,0.036356,0.592553,-0.000254,  39.058
   153.2,0.060870,0.036503,0.595356,-0.000302,  39.048
   153.4,0.061099,0.036652,0.598201,-0.000267,  39.030
   153.6,0.061337,0.036802,0.601064,-0.000280,  39.008
   153.8,0.061576,0.036947,0.603935,-0.000328,  38.988
   154.0,0.061808,0.037073,0.606831,-0.000306,  38.976
   154.2,0.062047,0.037190,0.609722,-0.000319,  38.957
   154.4,0.062288,0.037296,0.612591,-0.000355,  38.944
   154.6,0.062530,0.037392,0.615432,-0.000332,  38.921
   154.8,0.062769,0.037520,0.618218,-0.000371,  38.897
   155.0,0.063002,0.037657,0.620980,-0.000420,  38.874
   155.2,0.063235,0.037796,0.623950,-0.000397,  38.859
   155.4,0.063486,0.037934,0.626971,-0.000423,  38.829
   155.6,0.063741,0.038075,0.630058,-0.000472,  38.795
   155.8,0.063999,0.038220,0.633021,-0.000462,  38.784
   156.0,0.064245,0.038365,0.635879,-0.000475,  38.749
   156.2,0.064494,0.038519,0.638779,-0.000524,  38.723
   156.4,0.064738,0.038678,0.641752,-0.000501,  38.698
   156.6,0.064981,0.038814,0.644650,-0.000514,  38.655
   156.8,0.065230,0.038956,0.647562,-0.000563,  38.636
   157.0,0.065476,0.039095,0.650590,-0.000527,  38.599
   157.2,0.065729,0.039238,0.653594,-0.000527,  38.556
   157.4,0.065997,0.039390,0.656618,-0.000563,  38.524
   157.6,0.066256,0.039544,0.659804,-0.000540,  38.483
   157.8,0.066488,0.039705,0.662972,-0.000579,  38.448
   158.0,0.066705,0.039870,0.666216,-0.000615,  38.420
   158.2,0.066900,0.040041,0.669431,-0.000579,  38.381
   158.4,0.067090,0.040200,0.672586,-0.000605,  38.331
   158.6,0.067340,0.040354,0.675722,-0.000654,  38.281
   158.8,0.067621,0.040511,0.679014,-0.000618,  38.246
   159.0,0.067928,0.040679,0.682283,-0.000632,  38.203
   159.2,0.068230,0.040857,0.685582,-0.000680,  38.160
   159.4,0.068562,0.041050,0.689037,-0.000645,  38.104
   159.6,0.068893,0.041224,0.692621,-0.000632,  38.047
   159.8,0.069203,0.041397,0.696178,-0.000667,  38.018
   160.0,0.069519,0.041575,0.699674,-0.000632,  37.956
   160.2,0.069826,0.041754,0.703051,-0.000645,  37.901
   160.4,0.070140,0.041931,0.706408,-0.000654,  37.846
   160.6,0.070460,0.042108,0.709520,-0.000605,  37.781
   160.8,0.070787,0.042292,0.712427,-0.000605,  37.737
   161.0,0.071110,0.042484,0.715154,-0.000592,  37.671
   161.2,0.071443,0.042683,0.717675,-0.000628,  37.618
   161.4,0.071786,0.042880,0.721237,-0.000579,  37.551
   161.6,0.072132,0.043080,0.725110,-0.000592,  37.491
   161.8,0.072494,0.043285,0.729241,-0.000615,  37.438
   162.0,0.072872,0.043481,0.733070,-0.000566,  37.371
   162.2,0.073228,0.043683,0.736945,-0.000553,  37.306
   162.4,0.073597,0.043886,0.740855,-0.000576,  37.239
   162.6,0.073969,0.044100,0.744895,-0.000527,  37.160
   162.8,0.074338,0.044319,0.749025,-0.000514,  37.113
   163.0,0.074721,0.044537,0.753131,-0.000524,  37.042
   163.2,0.075113,0.044717,0.757289,-0.000475,  36.974
   163.4,0.075480,0.044879,0.761433,-0.000449,  36.907
   163.6,0.075845,0.045027,0.765559,-0.000446,  36.820
   163.8,0.076213,0.045161,0.769658,-0.000397,  36.768
   164.0,0.076575,0.045352,0.773682,-0.000384,  36.696
   164.2,0.076940,0.045552,0.777689,-0.000394,  36.619
   164.4,0.077313,0.045774,0.781788,-0.000319,  36.552
   164.6,0.077672,0.045976,0.785875,-0.000280,  36.468
   164.8,0.078036,0.046189,0.790008,-0.000289,  36.415
   165.0,0.078393,0.046398,0.794098,-0.000228,  36.340
   165.2,0.078744,0.046596,0.798164,-0.000202,  36.276
   165.4,0.079090,0.046799,0.802204,-0.000185,  36.203
   165.6,0.079432,0.046993,0.806277,-0.000123,  36.119
   165.8,0.079762,0.047182,0.810387,-0.000097,  36.069
   166.0,0.080090,0.047372,0.814465,-0.000094,  36.005
   166.2,0.080417,0.047558,0.818466,-0.000019,  35.935
   166.4,0.080698,0.047743,0.822319,0.000007,  35.868
   166.6,0.080950,0.047933,0.826069,0.000010,  35.796
   166.8,0.081177,0.048121,0.829817,0.000085,  35.745
   167.0,0.081383,0.048289,0.833523,0.000111,  35.681
   167.2,0.081645,0.048453,0.837109,0.000115,  35.620
   167.4,0.081917,0.048604,0.840609,0.000203,  35.557
   167.6,0.082185,0.048751,0.843870,0.000242,  35.487
   167.8,0.082429,0.048891,0.846960,0.000245,  35.440
   168.0,0.082666,0.049020,0.850203,0.000333,  35.386
   168.2,0.082904,0.049149,0.853325,0.000359,  35.332
   168.4,0.083126,0.049276,0.856414,0.000350,  35.279
   168.6,0.083348,0.049401,0.859479,0.000411,  35.224
   168.8,0.083560,0.049513,0.862399,0.000424,  35.188
   169.0,0.083754,0.049625,0.865329,0.000415,  35.134
   169.2,0.083932,0.049730,0.868019,0.000490,  35.088
   169.4,0.084097,0.049824,0.870448,0.000529,  35.052
   169.6,0.084249,0.049910,0.872686,0.000568,  35.011
   169.8,0.084393,0.049987,0.874743,0.000559,  34.972
   170.0,0.084536,0.050057,0.876638,0.000633,  34.944
   170.2,0.084653,0.050123,0.878230,0.000646,  34.910
   170.4,0.084765,0.050182,0.879661,0.000650,  34.885
   170.6,0.084870,0.050222,0.881353,0.000712,  34.845
   170.8,0.084940,0.050257,0.883063,0.000738,  34.832
   171.0,0.084994,0.050279,0.884773,0.000741,  34.800
   171.2,0.085032,0.050298,0.886256,0.000816,  34.784
   171.4,0.085070,0.050318,0.887654,0.000829,  34.767
   171.6,0.085096,0.050327,0.888827,0.000820,  34.752
   171.8,0.085112,0.050334,0.890014,0.000882,  34.740
   172.0,0.085118,0.050334,0.891125,0.000895,  34.734
   172.2,0.085124,0.050334,0.892007,0.000885,  34.727
   172.4,0.085128,0.050327,0.892885,0.000934,  34.732
   172.6,0.085099,0.050312,0.893606,0.000960,  34.729
   172.8,0.085061,0.050294,0.894248,0.000950,  34.725
   173.0,0.085019,0.050263,0.894789,0.000999,  34.735
   173.2,0.084959,0.050226,0.895170,0.000999,  34.738
   173.4,0.084898,0.050188,0.895387,0.000990,  34.745
   173.6,0.084832,0.050147,0.895689,0.001003,  34.759
   173.8,0.084746,0.050092,0.895849,0.001016,  34.771
   174.0,0.084650,0.050037,0.895849,0.001006,  34.789
   174.2,0.084548,0.049973,0.895620,0.001006,  34.809
   174.4,0.084424,0.049899,0.895159,0.001042,  34.832
   174.6,0.084288,0.049815,0.894390,0.001019,  34.855
   174.8,0.084148,0.049726,0.893918,0.001019,  34.879
   175.0,0.084027,0.049633,0.893509,0.001068,  34.907
   175.2,0.083913,0.049541,0.892936,0.001046,  34.941
   175.4,0.083805,0.049452,0.892142,0.001046,  34.969
   175.6,0.083697,0.049344,0.891283,0.001081,  35.020
   175.8,0.083535,0.049234,0.890200,0.001059,  35.044
   176.0,0.083367,0.049123,0.888823,0.001059,  35.088
   176.2,0.083173,0.049007,0.887239,0.001081,  35.123
   176.4,0.082983,0.048891,0.885360,0.001059,  35.165
   176.6,0.082796,0.048772,0.884114,0.001081,  35.222
   176.8,0.082603,0.048643,0.883081,0.001091,  35.264
   177.0,0.082397,0.048512,0.882099,0.001068,  35.307
   177.2,0.082192,0.048378,0.880762,0.001104,  35.355
   177.4,0.081983,0.048243,0.879363,0.001091,  35.406
   177.6,0.081755,0.048108,0.877739,0.001055,  35.473
   177.8,0.081528,0.047973,0.876109,0.001091,  35.515
   178.0,0.081294,0.047828,0.874409,0.001064,  35.557
   178.2,0.081048,0.047676,0.872494,0.001029,  35.615
   178.4,0.080802,0.047509,0.870970,0.001064,  35.670
   178.6,0.080550,0.047352,0.869602,0.001038,  35.740
   178.8,0.080294,0.047194,0.868181,0.001038,  35.780
   179.0,0.080049,0.047040,0.866983,0.000990,  35.833
   179.2,0.079803,0.046880,0.865111,0.001025,  35.894
   179.4,0.079542,0.046725,0.863043,0.001012,  35.956
   179.6,0.079281,0.046579,0.860763,0.000964,  36.028
   179.8,0.079014,0.046418,0.858686,0.000986,  36.075
   180.0,0.078748,0.046248,0.856540,0.000973,  36.142
   180.2,0.078478,0.046074,0.854254,0.000937,  36.193
   180.4,0.078199,0.045900,0.851941,0.000973,  36.263
   180.6,0.077926,0.045735,0.849593,0.000947,  36.331
   180.8,0.077657,0.045568,0.847066,0.000911,  36.376
   181.0,0.077391,0.045420,0.844650,0.000934,  36.439
   181.2,0.077100,0.045276,0.842100,0.000908,  36.490
   181.4,0.076809,0.045159,0.839483,0.000859,  36.546
   181.6,0.076516,0.045039,0.836888,0.000859,  36.622
   181.8,0.076222,0.044874,0.834170,0.000846,  36.671
   182.0,0.075932,0.044696,0.831405,0.000810,  36.737
   182.2,0.075652,0.044512,0.828726,0.000784,  36.794
   182.4,0.075362,0.044336,0.826007,0.000807,  36.855
   182.6,0.075079,0.044161,0.823243,0.000771,  36.930
   182.8,0.074805,0.043986,0.820675,0.000758,  36.980
   183.0,0.074519,0.043812,0.818129,0.000767,  37.040
   183.2,0.074236,0.043644,0.815657,0.000719,  37.086
   183.4,0.073960,0.043475,0.812947,0.000706,  37.149
   183.6,0.073668,0.043306,0.810129,0.000715,  37.216
   183.8,0.073383,0.043131,0.807198,0.000680,  37.264
   184.0,0.073098,0.042963,0.804482,0.000653,  37.320
   184.2,0.072856,0.042792,0.801846,0.000689,  37.364
   184.4,0.072639,0.042616,0.799105,0.000653,  37.422
   184.6,0.072441,0.042446,0.796358,0.000640,  37.484
   184.8,0.072265,0.042271,0.793554,0.000663,  37.528
   185.0,0.071993,0.042099,0.790704,0.000627,  37.577
   185.2,0.071709,0.041929,0.787953,0.000614,  37.627
   185.4,0.071397,0.041754,0.785100,0.000637,  37.678
   185.6,0.071107,0.041585,0.782273,0.000588,  37.731
   185.8,0.070830,0.041424,0.779507,0.000588,  37.770
   186.0,0.070562,0.041256,0.776759,0.000611,  37.825
   186.2,0.070275,0.041083,0.773907,0.000575,  37.857
   186.4,0.069998,0.040925,0.771200,0.000562,  37.913
   186.6,0.069728,0.040766,0.768450,0.000585,  37.973
   186.8,0.069454,0.040603,0.765663,0.000549,  37.997
   187.0,0.069187,0.040445,0.763301,0.000549,  38.047
   187.2,0.068929,0.040284,0.761116,0.000559,  38.078
   187.4,0.068659,0.040121,0.759122,0.000559,  38.126
   187.6,0.068393,0.039963,0.757312,0.000510,  38.163
   187.8,0.068132,0.039809,0.754648,0.000510,  38.201
   188.0,0.067863,0.039656,0.751839,0.000532,  38.233
   188.2,0.067597,0.039512,0.748878,0.000484,  38.275
   188.4,0.067334,0.039356,0.745982,0.000506,  38.320
   188.6,0.067062,0.039201,0.743106,0.000506,  38.352
   188.8,0.066799,0.039036,0.740248,0.000458,  38.384
   189.0,0.066540,0.038884,0.737216,0.000458,  38.413
   189.2,0.066277,0.038736,0.734063,0.000493,  38.439
   189.4,0.066030,0.038590,0.730848,0.000471,  38.477
   189.6,0.065793,0.038462,0.728179,0.000458,  38.507
   189.8,0.065537,0.038351,0.725623,0.000467,  38.536
   190.0,0.065287,0.038248,0.723273,0.000445,  38.564
   190.2,0.065047,0.038161,0.720632,0.000432,  38.583
   190.4,0.064801,0.038028,0.717966,0.000454,  38.618
   190.6,0.064561,0.037889,0.715164,0.000432,  38.641
   190.8,0.064324,0.037742,0.712624,0.000418,  38.672
   191.0,0.064084,0.037606,0.710093,0.000454,  38.694
   191.2,0.063860,0.037469,0.707639,0.000418,  38.715
   191.4,0.063630,0.037342,0.704920,0.000418,  38.733
   191.6,0.063393,0.037212,0.702069,0.000441,  38.764
   191.8,0.063166,0.037079,0.699165,0.000405,  38.777
   192.0,0.062933,0.036952,0.696482,0.000405,  38.798
   192.2,0.062697,0.036820,0.693853,0.000428,  38.823
   192.4,0.062470,0.036688,0.691278,0.000392,  38.837
   192.6,0.062240,0.036551,0.688818,0.000392,  38.855
   192.8,0.062013,0.036422,0.686365,0.000428,  38.868
   193.0,0.061793,0.036293,0.683925,0.000392,  38.882
   193.2,0.061585,0.036161,0.681554,0.000392,  38.907
   193.4,0.061401,0.036040,0.679255,0.000428,  38.918
   193.6,0.061238,0.035921,0.676920,0.000392,  38.932
   193.8,0.061091,0.035808,0.674417,0.000392,  38.941
   194.0,0.060958,0.035686,0.671903,0.000415,  38.954
   194.2,0.060759,0.035567,0.669221,0.000379,  38.978
   194.4,0.060558,0.035455,0.666679,0.000379,  38.986
   194.6,0.060332,0.035345,0.664158,0.000402,  39.003
   194.8,0.060127,0.035237,0.661605,0.000353,  39.005
   195.0,0.059932,0.035133,0.659270,0.000353,  39.019
   195.2,0.059749,0.035027,0.656982,0.000389,  39.029
   195.4,0.059547,0.034919,0.654792,0.000340,  39.048
   195.6,0.059352,0.034811,0.652447,0.000340,  39.061
   195.8,0.059163,0.034707,0.650081,0.000389,  39.063
   196.0,0.058971,0.034601,0.647648,0.000389,  39.071
   196.2,0.058785,0.034497,0.645628,0.000353,  39.077
   196.4,0.058606,0.034397,0.643841,0.000366,  39.087
   196.6,0.058417,0.034296,0.642195,0.000389,  39.099
   196.8,0.058234,0.034199,0.640744,0.000353,  39.108
   197.0,0.058058,0.034104,0.638273,0.000389,  39.121
   197.2,0.057878,0.034008,0.635525,0.000389,  39.127
   197.4,0.057710,0.033915,0.632427,0.000353,  39.135
   197.6,0.057549,0.033829,0.630299,0.000353,  39.141
   197.8,0.057376,0.033739,0.628356,0.000389,  39.147
   198.0,0.057211,0.033655,0.626730,0.000366,  39.153
   198.2,0.057053,0.033576,0.624740,0.000366,  39.159
   198.4,0.056883,0.033511,0.622648,0.000402,  39.165
   198.6,0.056722,0.033443,0.620444,0.000379,  39.165
   198.8,0.056567,0.033389,0.618356,0.000379,  39.173
   199.0,0.056400,0.033304,0.616318,0.000402,  39.173
   199.2,0.056236,0.033215,0.614202,0.000366,  39.181
   199.4,0.056072,0.033122,0.612148,0.000366,  39.186
   199.6,0.055911,0.033038,0.610074,0.000402,  39.192
   199.8,0.055759,0.032951,0.608021,0.000366,  39.196
   200.0,0.055614,0.032869,0.606043,0.000366,  39.201
   200.2,0.055459,0.032786,0.604115,0.000402,  39.203
   200.4,0.055313,0.032708,0.602160,0.000353,  39.211
   200.6,0.055177,0.032632,0.600237,0.000353,  39.212
   200.8,0.055028,0.032551,0.598322,0.000389,  39.219
   201.0,0.054888,0.032482,0.596370,0.000340,  39.219
   201.2,0.054758,0.032408,0.594443,0.000340,  39.226
   201.4,0.054615,0.032330,0.592531,0.000389,  39.226
   201.6,0.054478,0.032261,0.590554,0.000353,  39.233
   201.8,0.054348,0.032189,0.588699,0.000353,  39.236
   202.0,0.054235,0.032122,0.586856,0.000376,  39.242
   202.2,0.054134,0.032052,0.584983,0.000353,  39.245
   202.4,0.054045,0.031992,0.583101,0.000340,  39.253
   202.6,0.053968,0.031922,0.581193,0.000363,  39.253
   202.8,0.053843,0.031857,0.579250,0.000340,  39.255
   203.0,0.053713,0.031791,0.577397,0.000327,  39.260
   203.2,0.053574,0.031728,0.575520,0.000363,  39.263
   203.4,0.053452,0.031673,0.573663,0.000340,  39.277
   203.6,0.053337,0.031619,0.571954,0.000327,  39.282
   203.8,0.053219,0.031564,0.570321,0.000363,  39.291
   204.0,0.053112,0.031511,0.568743,0.000340,  39.297
   204.2,0.053006,0.031461,0.567085,0.000327,  39.294
   204.4,0.052911,0.031406,0.565421,0.000363,  39.301
   204.6,0.052801,0.031353,0.563764,0.000340,  39.300
   204.8,0.052695,0.031305,0.562093,0.000327,  39.308
   205.0,0.052592,0.031252,0.560397,0.000350,  39.314
   205.2,0.052482,0.031199,0.558677,0.000350,  39.315
   205.4,0.052385,0.031153,0.557245,0.000314,  39.324
   205.6,0.052294,0.031102,0.556007,0.000314,  39.326
   205.8,0.052196,0.031054,0.554875,0.000350,  39.332
   206.0,0.052101,0.031010,0.553856,0.000314,  39.334
   206.2,0.052013,0.030961,0.552368,0.000350,  39.343
   206.4,0.051918,0.030924,0.550751,0.000363,  39.351
   206.6,0.051823,0.030884,0.548998,0.000340,  39.355
   206.8,0.051729,0.030838,0.547424,0.000327,  39.358
   207.0,0.051634,0.030794,0.545856,0.000363,  39.364
   207.2,0.051549,0.030755,0.544294,0.000340,  39.371
   207.4,0.051467,0.030720,0.542465,0.000327,  39.370
   207.6,0.051387,0.030692,0.540432,0.000363,  39.377
   207.8,0.051316,0.030665,0.538252,0.000340,  39.378
   208.0,0.051246,0.030648,0.536910,0.000327,  39.384
   208.2,0.051181,0.030616,0.535846,0.000363,  39.385
   208.4,0.051105,0.030589,0.535126,0.000340,  39.393
   208.6,0.051031,0.030558,0.533770,0.000327,  39.396
   208.8,0.050970,0.030526,0.532234,0.000350,  39.396
   209.0,0.050902,0.030497,0.530520,0.000327,  39.399
   209.2,0.050828,0.030468,0.528876,0.000327,  39.403
   209.4,0.050763,0.030441,0.527250,0.000350,  39.404
   209.6,0.050702,0.030417,0.525528,0.000327,  39.410
   209.8,0.050638,0.030396,0.524287,0.000327,  39.411
   210.0,0.050567,0.030368,0.523292,0.000363,  39.414
   210.2,0.050505,0.030342,0.522506,0.000340,  39.429
   210.4,0.050440,0.030318,0.521480,0.000327,  39.428
   210.6,0.050372,0.030292,0.520473,0.000363,  39.430
   210.8,0.050313,0.030265,0.519475,0.000340,  39.433
   211.0,0.050264,0.030250,0.518357,0.000340,  39.433
   211.2,0.050214,0.030229,0.517124,0.000389,  39.431
   211.4,0.050173,0.030202,0.515813,0.000366,  39.436
   211.6,0.050129,0.030185,0.514704,0.000366,  39.436
   211.8,0.050093,0.030164,0.513613,0.000402,  39.435
   212.0,0.050043,0.030145,0.512597,0.000379,  39.439
   212.2,0.049999,0.030126,0.511550,0.000379,  39.436
   212.4,0.049947,0.030106,0.510512,0.000402,  39.441
   212.6,0.049896,0.030096,0.509475,0.000366,  39.439
   212.8,0.049852,0.030081,0.508495,0.000366,  39.443
   213.0,0.049814,0.030062,0.507517,0.000402,  39.439
   213.2,0.049761,0.030045,0.506541,0.000366,  39.449
   213.4,0.049714,0.030022,0.505401,0.000366,  39.444
   213.6,0.049667,0.030001,0.504152,0.000402,  39.445
   213.8,0.049614,0.029985,0.502832,0.000353,  39.450
   214.0,0.049564,0.029967,0.501848,0.000353,  39.449
   214.2,0.049517,0.029951,0.500984,0.000389,  39.453
   214.4,0.049472,0.029937,0.500229,0.000389,  39.453
   214.6,0.049437,0.029927,0.499561,0.000353,  39.453
   214.8,0.049408,0.029914,0.498651,0.000366,  39.452
   215.0,0.049380,0.029905,0.497686,0.000389,  39.458
   215.2,0.049341,0.029896,0.496679,0.000353,  39.456
   215.4,0.049300,0.029885,0.495623,0.000389,  39.456
   215.6,0.049272,0.029874,0.494548,0.000411,  39.456
   215.8,0.049242,0.029868,0.493451,0.000389,  39.456
   216.0,0.049204,0.029867,0.492491,0.000424,  39.457
   216.2,0.049174,0.029856,0.491602,0.000411,  39.463
   216.4,0.049151,0.029856,0.490810,0.000389,  39.459
   216.6,0.049124,0.029855,0.489853,0.000424,  39.465
   216.8,0.049098,0.029850,0.488816,0.000411,  39.464
   217.0,0.049075,0.029842,0.487706,0.000389,  39.465
   217.2,0.049052,0.029837,0.486751,0.000424,  39.470
   217.4,0.049022,0.029831,0.485817,0.000411,  39.470
   217.6,0.048998,0.029823,0.484843,0.000389,  39.469
   217.8,0.048975,0.029815,0.483995,0.000411,  39.476
   218.0,0.048957,0.029811,0.483204,0.000398,  39.476
   218.2,0.048937,0.029806,0.482415,0.000376,  39.479
   218.4,0.048922,0.029806,0.481589,0.000398,  39.482
   218.6,0.048908,0.029804,0.480733,0.000398,  39.492
   218.8,0.048887,0.029799,0.479872,0.000376,  39.497
   219.0,0.048869,0.029801,0.479075,0.000398,  39.497
   219.2,0.048855,0.029801,0.478275,0.000398,  39.501
   219.4,0.048834,0.029799,0.477475,0.000376,  39.496
   219.6,0.048814,0.029797,0.476738,0.000363,  39.501
   219.8,0.048802,0.029799,0.475972,0.000363,  39.504
   220.0,0.048784,0.029799,0.475237,0.000340,  39.501
   220.2,0.048787,0.029799,0.474425,0.000327,  39.500
   220.4,0.048779,0.029801,0.473559,0.000363,  39.509
   220.6,0.048764,0.029797,0.472676,0.000340,  39.500
   220.8,0.048753,0.029795,0.471869,0.000327,  39.506
   221.0,0.048729,0.029797,0.471068,0.000363,  39.507
   221.2,0.048708,0.029790,0.470305,0.000340,  39.506
   221.4,0.048694,0.029791,0.469580,0.000327,  39.503
   221.6,0.048685,0.029788,0.468880,0.000363,  39.506
   221.8,0.048667,0.029790,0.468140,0.000340,  39.499
   222.0,0.048659,0.029792,0.467508,0.000327,  39.502
   222.2,0.048656,0.029792,0.467008,0.000350,  39.508
   222.4,0.048644,0.029803,0.466448,0.000350,  39.502
   222.6,0.048641,0.029811,0.465990,0.000314,  39.500
   222.8,0.048642,0.029813,0.465409,0.000301,  39.501
   223.0,0.048632,0.029822,0.464799,0.000337,  39.502
   223.2,0.048629,0.029827,0.464154,0.000301,  39.498
   223.4,0.048630,0.029832,0.463498,0.000337,  39.494
   223.6,0.048621,0.029836,0.462819,0.000337,  39.492
   223.8,0.048622,0.029838,0.462118,0.000314,  39.495
   224.0,0.048624,0.029847,0.461441,0.000301,  39.491
   224.2,0.048612,0.029851,0.460719,0.000337,  39.486
   224.4,0.048599,0.029851,0.459997,0.000301,  39.483
   224.6,0.048593,0.029855,0.459359,0.000337,  39.479
   224.8,0.048592,0.029868,0.458757,0.000359,  39.479
   225.0,0.048595,0.029873,0.458127,0.000324,  39.479
   225.2,0.048601,0.029886,0.457596,0.000372,  39.479
   225.4,0.048601,0.029896,0.457066,0.000359,  39.474
   225.6,0.048610,0.029904,0.456555,0.000324,  39.469
   225.8,0.048613,0.029913,0.455991,0.000372,  39.470
   226.0,0.048612,0.029923,0.455382,0.000359,  39.472
   226.2,0.048622,0.029933,0.454780,0.000324,  39.469
   226.4,0.048627,0.029945,0.454236,0.000372,  39.462
   226.6,0.048630,0.029955,0.453641,0.000359,  39.451
   226.8,0.048645,0.029970,0.453081,0.000324,  39.448
   227.0,0.048654,0.029983,0.452615,0.000372,  39.450
   227.2,0.048653,0.029993,0.452177,0.000359,  39.445
   227.4,0.048666,0.030007,0.451757,0.000337,  39.441
   227.6,0.048671,0.030029,0.451234,0.000372,  39.442
   227.8,0.048677,0.030039,0.450695,0.000372,  39.436
   228.0,0.048680,0.030051,0.450105,0.000350,  39.439
   228.2,0.048680,0.030064,0.449367,0.000372,  39.433
   228.4,0.048687,0.030077,0.448534,0.000372,  39.434
   228.6,0.048695,0.030087,0.447578,0.000350,  39.431
   228.8,0.048707,0.030101,0.447078,0.000385,  39.431
   229.0,0.048716,0.030111,0.446788,0.000385,  39.433
   229.2,0.048721,0.030119,0.446594,0.000363,  39.430
   229.4,0.048733,0.030136,0.446242,0.000398,  39.431
   229.6,0.048751,0.030147,0.445856,0.000385,  39.425
   229.8,0.048750,0.030155,0.445448,0.000363,  39.429
   230.0,0.048753,0.030175,0.445040,0.000398,  39.429
   230.2,0.048753,0.030190,0.444604,0.000385,  39.428
   230.4,0.048756,0.030195,0.444152,0.000363,  39.423
   230.6,0.048771,0.030213,0.443700,0.000398,  39.425
   230.8,0.048783,0.030228,0.443233,0.000385,  39.428
   231.0,0.048785,0.030234,0.442771,0.000363,  39.426
   231.2,0.048800,0.030245,0.442238,0.000398,  39.433
   231.4,0.048809,0.030258,0.441632,0.000385,  39.433
   231.6,0.048811,0.030269,0.440977,0.000385,  39.435
   231.8,0.048824,0.030275,0.440285,0.000350,  39.432
   232.0,0.048830,0.030278,0.440005,0.000385,  39.436
   232.2,0.048832,0.030291,0.439869,0.000385,  39.435
   232.4,0.048844,0.030301,0.439815,0.000350,  39.439
   232.6,0.048847,0.030311,0.439613,0.000385,  39.438
   232.8,0.048852,0.030323,0.439344,0.000350,  39.439
   233.0,0.048868,0.030338,0.439059,0.000327,  39.440
   233.2,0.048876,0.030351,0.438741,0.000327,  39.441
   233.4,0.048882,0.030366,0.438395,0.000350,  39.445
   233.6,0.048900,0.030377,0.438038,0.000327,  39.442
   233.8,0.048915,0.030390,0.437743,0.000327,  39.443
   234.0,0.048917,0.030393,0.437447,0.000350,  39.447
   234.2,0.048932,0.030406,0.437146,0.000327,  39.445
   234.4,0.048941,0.030411,0.436779,0.000327,  39.449
   234.6,0.048940,0.030419,0.436374,0.000350,  39.449
   234.8,0.048950,0.030427,0.435865,0.000327,  39.455
   235.0,0.048950,0.030435,0.435499,0.000327,  39.466
   235.2,0.048955,0.030445,0.435155,0.000350,  39.467
   235.4,0.048970,0.030456,0.434812,0.000327,  39.467
   235.6,0.048982,0.030469,0.434168,0.000327,  39.474
   235.8,0.048984,0.030482,0.433333,0.000350,  39.472
   236.0,0.049000,0.030497,0.432370,0.000327,  39.472
   236.2,0.049005,0.030509,0.431970,0.000314,  39.482
   236.4,0.049011,0.030517,0.431722,0.000337,  39.479
   236.6,0.049026,0.030518,0.431703,0.000314,  39.484
   236.8,0.049035,0.030529,0.431466,0.000301,  39.487
   237.0,0.049037,0.030542,0.431235,0.000337,  39.488
   237.2,0.049049,0.030553,0.430955,0.000314,  39.487
   237.4,0.049055,0.030567,0.430740,0.000301,  39.490
   237.6,0.049064,0.030579,0.430569,0.000337,  39.488
   237.8,0.049076,0.030596,0.430397,0.000314,  39.490
   238.0,0.049078,0.030609,0.430091,0.000301,  39.497
   238.2,0.049090,0.030617,0.429692,0.000337,  39.498
   238.4,0.049092,0.030630,0.429251,0.000314,  39.495
   238.6,0.049102,0.030638,0.428918,0.000301,  39.504
   238.8,0.049111,0.030646,0.428585,0.000337,  39.509
   239.0,0.049113,0.030661,0.428280,0.000314,  39.507
   239.2,0.049131,0.030669,0.428023,0.000301,  39.512
   239.4,0.049137,0.030677,0.427794,0.000337,  39.511
   239.6,0.049143,0.030691,0.427598,0.000314,  39.512
   239.8,0.049158,0.030704,0.427175,0.000301,  39.512
   240.0,0.049167,0.030710,0.426661,0.000337,  39.512
   240.2,0.049169,0.030716,0.426057,0.000337,  39.515
   240.4,0.049178,0.030729,0.425738,0.000314,  39.517
   240.6,0.049181,0.030740,0.425510,0.000301,  39.520
   240.8,0.049181,0.030742,0.425405,0.000337,  39.520
   241.0,0.049193,0.030749,0.425344,0.000314,  39.522
   241.2,0.049196,0.030757,0.425137,0.000350,  39.523
   241.4,0.049195,0.030768,0.424925,0.000350,  39.521
   241.6,0.049205,0.030772,0.424670,0.000327,  39.521
   241.8,0.049214,0.030780,0.424367,0.000327,  39.528
   242.0,0.049211,0.030784,0.424028,0.000350,  39.540
   242.2,0.049213,0.030788,0.423641,0.000327,  39.542
   242.4,0.049211,0.030793,0.423312,0.000327,  39.541
   242.6,0.049201,0.030793,0.422962,0.000350,  39.549
   242.8,0.049205,0.030793,0.422634,0.000327,  39.543
   243.0,0.049199,0.030792,0.422311,0.000314,  39.548
   243.2,0.049195,0.030801,0.421947,0.000337,  39.546
   243.4,0.049205,0.030800,0.421556,0.000301,  39.546
   243.6,0.049213,0.030807,0.421256,0.000301,  39.547
   243.8,0.049210,0.030811,0.421003,0.000324,  39.545
   244.0,0.049216,0.030813,0.420777,0.000288,  39.547
   244.2,0.049213,0.030817,0.420466,0.000301,  39.549
   244.4,0.049207,0.030821,0.420187,0.000324,  39.544
   244.6,0.049213,0.030819,0.419875,0.000288,  39.545
   244.8,0.049213,0.030822,0.419507,0.000301,  39.545
   245.0,0.049204,0.030826,0.419077,0.000324,  39.539
   245.2,0.049205,0.030828,0.418579,0.000288,  39.544
   245.4,0.049196,0.030832,0.418233,0.000301,  39.548
   245.6,0.049187,0.030834,0.417855,0.000324,  39.545
   245.8,0.049190,0.030830,0.417551,0.000288,  39.545
   246.0,0.049187,0.030827,0.417274,0.000288,  39.545
   246.2,0.049178,0.030830,0.416997,0.000311,  39.548
   246.4,0.049181,0.030829,0.416726,0.000275,  39.546
   246.6,0.049182,0.030833,0.416423,0.000275,  39.547
   246.8,0.049179,0.030833,0.416120,0.000311,  39.547
   247.0,0.049173,0.030833,0.415770,0.000275,  39.542
   247.2,0.049173,0.030829,0.415426,0.000275,  39.546
   247.4,0.049167,0.030832,0.415094,0.000311,  39.542
   247.6,0.049164,0.030834,0.414742,0.000275,  39.543
   247.8,0.049158,0.030835,0.414431,0.000311,  39.541
   248.0,0.049162,0.030837,0.414062,0.000333,  39.538
   248.2,0.049155,0.030839,0.413725,0.000297,  39.534
   248.4,0.049159,0.030840,0.412856,0.000311,  39.534
   248.6,0.049159,0.030842,0.411637,0.000297,  39.533
   248.8,0.049152,0.030835,0.410160,0.000262,  39.530
   249.0,0.049153,0.030837,0.409769,0.000275,  39.530
   249.2,0.049144,0.030833,0.409758,0.000311,  39.529
   249.4,0.049129,0.030827,0.410152,0.000275,  39.522
   249.6,0.049124,0.030819,0.410085,0.000275,  39.520
   249.8,0.049106,0.030817,0.409978,0.000311,  39.516
   250.0,0.049091,0.030820,0.409836,0.000311,  39.517
   250.2,0.049089,0.030823,0.409714,0.000275,  39.518
   250.4,0.049086,0.030823,0.409619,0.000288,  39.515
   250.6,0.049070,0.030827,0.409471,0.000311,  39.514
   250.8,0.049068,0.030825,0.409329,0.000288,  39.514
   251.0,0.049059,0.030818,0.409063,0.000324,  39.512
   251.2,0.049044,0.030819,0.408704,0.000311,  39.511
   251.4,0.049036,0.030810,0.408294,0.000275,  39.512
   251.6,0.049021,0.030803,0.408037,0.000288,  39.506
   251.8,0.049009,0.030808,0.407858,0.000324,  39.493
   252.0,0.049004,0.030804,0.407719,0.000288,  39.491
   252.2,0.048995,0.030800,0.407474,0.000301,  39.491
   252.4,0.048977,0.030793,0.407110,0.000324,  39.493
   252.6,0.048968,0.030793,0.406707,0.000288,  39.489
   252.8,0.048951,0.030789,0.406365,0.000301,  39.494
   253.0,0.048930,0.030777,0.405997,0.000324,  39.491
   253.2,0.048912,0.030772,0.405603,0.000288,  39.489
   253.4,0.048892,0.030758,0.405064,0.000288,  39.493
   253.6,0.048874,0.030750,0.404400,0.000311,  39.490
   253.8,0.048862,0.030743,0.403625,0.000275,  39.495
   254.0,0.048854,0.030738,0.403291,0.000275,  39.495
   254.2,0.048835,0.030731,0.403114,0.000311,  39.494
   254.4,0.048824,0.030726,0.403042,0.000275,  39.490
   254.6,0.048815,0.030726,0.402827,0.000275,  39.492
   254.8,0.048791,0.030717,0.402619,0.000311,  39.490
   255.0,0.048768,0.030709,0.402353,0.000275,  39.490
   255.2,0.048751,0.030701,0.402073,0.000275,  39.486
   255.4,0.048733,0.030690,0.401760,0.000311,  39.486
   255.6,0.048728,0.030679,0.401407,0.000275,  39.489
   255.8,0.048710,0.030671,0.401069,0.000288,  39.487
   256.0,0.048705,0.030654,0.400654,0.000324,  39.486
   256.2,0.048681,0.030644,0.400206,0.000288,  39.487
   256.4,0.048657,0.030634,0.399809,0.000301,  39.481
   256.6,0.048628,0.030621,0.399387,0.000324,  39.486
   256.8,0.048601,0.030608,0.398927,0.000288,  39.485
   257.0,0.048584,0.030599,0.398551,0.000301,  39.484
   257.2,0.048567,0.030587,0.398144,0.000324,  39.481
   257.4,0.048540,0.030573,0.397763,0.000301,  39.481
   257.6,0.048523,0.030559,0.397473,0.000301,  39.483
   257.8,0.048497,0.030544,0.397196,0.000337,  39.479
   258.0,0.048467,0.030531,0.396951,0.000314,  39.483
   258.2,0.048450,0.030522,0.396596,0.000301,  39.480
   258.4,0.048424,0.030502,0.396166,0.000337,  39.481
   258.6,0.048394,0.030487,0.395652,0.000337,  39.475
   258.8,0.048374,0.030473,0.395299,0.000314,  39.478
   259.0,0.048348,0.030454,0.394996,0.000301,  39.474
   259.2,0.048318,0.030437,0.394769,0.000337,  39.474
   259.4,0.048294,0.030426,0.394548,0.000301,  39.478
   259.6,0.048271,0.030409,0.394190,0.000324,  39.475
   259.8,0.048235,0.030392,0.393807,0.000324,  39.478
   260.0,0.048203,0.030369,0.393342,0.000288,  39.479
   260.2,0.048169,0.030352,0.392941,0.000288,  39.474
   260.4,0.048130,0.030335,0.392520,0.000311,  39.474
   260.6,0.048101,0.030319,0.392117,0.000275,  39.475
   260.8,0.048078,0.030304,0.391755,0.000288,  39.471
   261.0,0.048039,0.030289,0.391437,0.000324,  39.478
   261.2,0.048010,0.030272,0.391133,0.000288,  39.471
   261.4,0.047978,0.030264,0.390727,0.000301,  39.478
   261.6,0.047942,0.030247,0.390234,0.000324,  39.475
   261.8,0.047910,0.030226,0.389678,0.000288,  39.473
   262.0,0.047872,0.030206,0.389249,0.000301,  39.469
   262.2,0.047834,0.030183,0.388801,0.000324,  39.469
   262.4,0.047799,0.030161,0.388378,0.000288,  39.463
   262.6,0.047770,0.030142,0.387975,0.000301,  39.461
   262.8,0.047731,0.030123,0.387603,0.000324,  39.465
   263.0,0.047703,0.030109,0.387231,0.000288,  39.461
   263.2,0.047674,0.030093,0.386780,0.000301,  39.464
   263.4,0.047630,0.030070,0.386310,0.000324,  39.457
   263.6,0.047592,0.030043,0.385766,0.000288,  39.456
   263.8,0.047549,0.030013,0.385291,0.000301,  39.452
   264.0,0.047514,0.029985,0.384829,0.000324,  39.452
   264.2,0.047482,0.029965,0.384336,0.000288,  39.452
   264.4,0.047450,0.029940,0.383912,0.000301,  39.445
   264.6,0.047423,0.029907,0.383475,0.000324,  39.444
   264.8,0.047385,0.029889,0.383034,0.000288,  39.445
   265.0,0.047347,0.029865,0.382562,0.000288,  39.441
   265.2,0.047307,0.029840,0.382078,0.000311,  39.438
   265.4,0.047259,0.029811,0.381594,0.000275,  39.434
   265.6,0.047213,0.029788,0.381099,0.000275,  39.438
   265.8,0.047172,0.029761,0.380605,0.000311,  39.430
   266.0,0.047125,0.029738,0.380117,0.000275,  39.430
   266.2,0.047084,0.029711,0.379643,0.000275,  39.426
   266.4,0.047050,0.029679,0.379150,0.000311,  39.427
   266.6,0.047002,0.029654,0.378664,0.000275,  39.429
   266.8,0.046956,0.029631,0.378179,0.000275,  39.426
   267.0,0.046916,0.029599,0.377675,0.000311,  39.422
   267.2,0.046865,0.029573,0.377184,0.000311,  39.422
   267.4,0.046816,0.029548,0.376736,0.000275,  39.420
   267.6,0.046773,0.029516,0.376325,0.000288,  39.417
   267.8,0.046723,0.029489,0.375944,0.000311,  39.415
   268.0,0.046676,0.029462,0.375588,0.000288,  39.409
   268.2,0.046636,0.029428,0.375166,0.000324,  39.406
   268.4,0.046583,0.029396,0.374745,0.000311,  39.402
   268.6,0.046536,0.029366,0.374301,0.000275,  39.402
   268.8,0.046493,0.029337,0.373826,0.000275,  39.400
   269.0,0.046440,0.029305,0.373279,0.000311,  39.402
   269.2,0.046390,0.029285,0.372697,0.000275,  39.403
   269.4,0.046347,0.029260,0.372291,0.000275,  39.399
   269.6,0.046294,0.029239,0.371921,0.000311,  39.399
   269.8,0.046248,0.029214,0.371617,0.000275,  39.400
   270.0,0.046205,0.029195,0.371056,0.000275,  39.402
   270.2,0.046146,0.029163,0.370369,0.000297,  39.402
   270.4,0.046093,0.029133,0.369617,0.000262,  39.402
   270.6,0.046041,0.029095,0.369076,0.000275,  39.400
   270.8,0.045983,0.029060,0.368524,0.000297,  39.401
   271.0,0.045930,0.029030,0.368056,0.000262,  39.402
   271.2,0.045881,0.028998,0.367535,0.000262,  39.397
   271.4,0.045830,0.028967,0.366973,0.000284,  39.401
   271.6,0.045784,0.028932,0.366417,0.000249,  39.404
   271.8,0.045739,0.028901,0.365898,0.000249,  39.403
   272.0,0.045687,0.028870,0.365350,0.000284,  39.401
   272.2,0.045634,0.028840,0.364814,0.000249,  39.404
   272.4,0.045575,0.028802,0.364314,0.000249,  39.404
   272.6,0.045519,0.028764,0.363809,0.000284,  39.402
   272.8,0.045457,0.028731,0.363282,0.000249,  39.401
   273.0,0.045406,0.028693,0.362731,0.000249,  39.400
   273.2,0.045362,0.028660,0.362163,0.000284,  39.405
   273.4,0.045315,0.028624,0.361579,0.000249,  39.404
   273.6,0.045280,0.028598,0.361001,0.000249,  39.405
   273.8,0.045248,0.028562,0.360395,0.000284,  39.410
   274.0,0.045187,0.028527,0.359807,0.000249,  39.405
   274.2,0.045120,0.028487,0.359203,0.000249,  39.408
   274.4,0.045054,0.028445,0.358611,0.000284,  39.409
   274.6,0.044989,0.028412,0.357974,0.000249,  39.406
   274.8,0.044931,0.028377,0.357470,0.000249,  39.410
   275.0,0.044870,0.028335,0.357031,0.000284,  39.411
   275.2,0.044806,0.028302,0.356632,0.000249,  39.411
   275.4,0.044745,0.028264,0.356113,0.000249,  39.410
   275.6,0.044690,0.028222,0.355560,0.000284,  39.414
   275.8,0.044626,0.028185,0.354944,0.000284,  39.424
   276.0,0.044559,0.028147,0.354456,0.000249,  39.427
   276.2,0.044502,0.028101,0.354031,0.000236,  39.430
   276.4,0.044437,0.028063,0.353629,0.000258,  39.427
   276.6,0.044373,0.028029,0.353279,0.000236,  39.429
   276.8,0.044319,0.027985,0.352707,0.000271,  39.431
   277.0,0.044252,0.027947,0.352084,0.000258,  39.426
   277.2,0.044191,0.027914,0.351399,0.000236,  39.427
   277.4,0.044133,0.027870,0.350823,0.000236,  39.428
   277.6,0.044063,0.027828,0.350271,0.000258,  39.428
   277.8,0.043999,0.027784,0.349765,0.000236,  39.426
   278.0,0.043936,0.027742,0.349157,0.000236,  39.428
   278.2,0.043866,0.027703,0.348483,0.000258,  39.427
   278.4,0.043800,0.027663,0.347764,0.000236,  39.428
   278.6,0.043730,0.027628,0.346946,0.000236,  39.426
   278.8,0.043663,0.027601,0.346090,0.000258,  39.429
   279.0,0.043609,0.027571,0.345147,0.000236,  39.432
   279.2,0.043545,0.027550,0.344579,0.000236,  39.429
   279.4,0.043472,0.027511,0.344180,0.000258,  39.428
   279.6,0.043409,0.027470,0.343920,0.000236,  39.428
   279.8,0.043337,0.027424,0.343449,0.000236,  39.425
   280.0,0.043264,0.027380,0.342916,0.000258,  39.431
   280.2,0.043209,0.027340,0.342357,0.000236,  39.430
   280.4,0.043151,0.027300,0.341843,0.000223,  39.430
   280.6,0.043076,0.027258,0.341329,0.000245,  39.432
   280.8,0.043007,0.027219,0.340816,0.000223,  39.434
   281.0,0.042938,0.027176,0.340176,0.000210,  39.435
   281.2,0.042865,0.027126,0.339472,0.000245,  39.436
   281.4,0.042799,0.027089,0.338714,0.000223,  39.434
   281.6,0.042739,0.027046,0.338155,0.000210,  39.431
   281.8,0.042669,0.027001,0.337667,0.000245,  39.437
   282.0,0.042602,0.026966,0.337218,0.000223,  39.436
   282.2,0.042540,0.026928,0.336661,0.000210,  39.433
   282.4,0.042482,0.026884,0.336022,0.000245,  39.434
   282.6,0.042430,0.026845,0.335373,0.000223,  39.436
   282.8,0.042378,0.026802,0.334748,0.000210,  39.437
   283.0,0.042329,0.026753,0.334079,0.000245,  39.435
   283.2,0.042265,0.026710,0.333379,0.000223,  39.438
   283.4,0.042193,0.026663,0.332713,0.000210,  39.434
   283.6,0.042125,0.026617,0.332064,0.000232,  39.435
   283.8,0.042046,0.026577,0.331399,0.000210,  39.437
   284.0,0.041983,0.026535,0.330768,0.000210,  39.437
   284.2,0.041914,0.026487,0.330159,0.000232,  39.434
   284.4,0.041841,0.026441,0.329595,0.000210,  39.438
   284.6,0.041769,0.026398,0.329014,0.000210,  39.438
   284.8,0.041694,0.026350,0.328369,0.000232,  39.441
   285.0,0.041616,0.026304,0.327740,0.000210,  39.439
   285.2,0.041541,0.026259,0.327200,0.000210,  39.438
   285.4,0.041463,0.026210,0.326698,0.000245,  39.443
   285.6,0.041382,0.026167,0.326263,0.000258,  39.442
   285.8,0.041316,0.026123,0.325829,0.000223,  39.442
   286.0,0.041248,0.026075,0.325301,0.000223,  39.442
   286.2,0.041170,0.026033,0.324737,0.000245,  39.443
   286.4,0.041095,0.025992,0.324162,0.000210,  39.443
   286.6,0.041023,0.025944,0.323551,0.000232,  39.441
   286.8,0.040942,0.025894,0.322931,0.000268,  39.438
   287.0,0.040862,0.025842,0.322269,0.000245,  39.446
   287.2,0.040790,0.025790,0.321624,0.000281,  39.447
   287.4,0.040709,0.025743,0.320985,0.000281,  39.440
   287.6,0.040632,0.025696,0.320353,0.000258,  39.443
   287.8,0.040563,0.025656,0.319649,0.000281,  39.443
   288.0,0.040479,0.025619,0.318894,0.000281,  39.441
   288.2,0.040402,0.025592,0.318104,0.000258,  39.442
   288.4,0.040328,0.025562,0.317428,0.000281,  39.446
   288.6,0.040247,0.025519,0.316790,0.000281,  39.446
   288.8,0.040169,0.025468,0.316178,0.000258,  39.439
   289.0,0.040095,0.025408,0.315535,0.000281,  39.444
   289.2,0.040014,0.025356,0.314936,0.000281,  39.441
   289.4,0.039934,0.025308,0.314322,0.000258,  39.444
   289.6,0.039860,0.025264,0.313652,0.000281,  39.444
   289.8,0.039776,0.025214,0.312974,0.000281,  39.446
   290.0,0.039696,0.025167,0.312241,0.000258,  39.446
   290.2,0.039619,0.025117,0.311625,0.000281,  39.445
   290.4,0.039550,0.025061,0.311082,0.000281,  39.443
   290.6,0.039487,0.025014,0.310533,0.000258,  39.445
   290.8,0.039430,0.024962,0.309869,0.000281,  39.446
   291.0,0.039378,0.024908,0.309176,0.000281,  39.450
   291.2,0.039306,0.024863,0.308408,0.000258,  39.447
   291.4,0.039226,0.024812,0.307777,0.000245,  39.446
   291.6,0.039140,0.024757,0.307141,0.000245,  39.446
   291.8,0.039053,0.024708,0.306535,0.000223,  39.445
   292.0,0.038970,0.024653,0.305871,0.000245,  39.447
   292.2,0.038887,0.024597,0.305179,0.000268,  39.450
   292.4,0.038804,0.024548,0.304464,0.000245,  39.447
   292.6,0.038730,0.024498,0.303768,0.000268,  39.450
   292.8,0.038650,0.024440,0.303053,0.000255,  39.447
   293.0,0.038560,0.024389,0.302371,0.000219,  39.448
   293.2,0.038484,0.024338,0.301699,0.000255,  39.450
   293.4,0.038398,0.024281,0.301037,0.000242,  39.451
   293.6,0.038309,0.024232,0.300367,0.000206,  39.450
   293.8,0.038226,0.024178,0.299666,0.000255,  39.450
   294.0,0.038143,0.024122,0.298932,0.000242,  39.448
   294.2,0.038056,0.024071,0.298217,0.000242,  39.451
   294.4,0.037976,0.024016,0.297454,0.000206,  39.448
   294.6,0.037903,0.023962,0.296890,0.000255,  39.444
   294.8,0.037814,0.023912,0.296344,0.000242,  39.445
   295.0,0.037731,0.023864,0.295856,0.000206,  39.446
   295.2,0.037649,0.023807,0.295237,0.000242,  39.447
   295.4,0.037557,0.023754,0.294584,0.000242,  39.444
   295.6,0.037474,0.023696,0.293879,0.000206,  39.443
   295.8,0.037392,0.023640,0.293282,0.000219,  39.442
   296.0,0.037300,0.023588,0.292700,0.000206,  39.447
   296.2,0.037217,0.023541,0.292100,0.000170,  39.452
   296.4,0.037135,0.023500,0.291423,0.000184,  39.449
   296.6,0.037046,0.023456,0.290686,0.000206,  39.445
   296.8,0.036963,0.023421,0.289914,0.000170,  39.448
   297.0,0.036887,0.023390,0.289214,0.000170,  39.445
   297.2,0.036795,0.023338,0.288522,0.000193,  39.445
   297.4,0.036707,0.023284,0.287806,0.000157,  39.441
   297.6,0.036622,0.023222,0.287131,0.000157,  39.441
   297.8,0.036533,0.023166,0.286490,0.000193,  39.441
   298.0,0.036453,0.023114,0.285839,0.000157,  39.439
   298.2,0.036377,0.023061,0.285147,0.000157,  39.438
   298.4,0.036292,0.023009,0.284448,0.000193,  39.438
   298.6,0.036214,0.022958,0.283743,0.000157,  39.434
   298.8,0.036136,0.022911,0.283082,0.000157,  39.434
   299.0,0.036047,0.022855,0.282435,0.000193,  39.432
   299.2,0.035965,0.022804,0.281809,0.000157,  39.432
   299.4,0.035876,0.022749,0.281117,0.000157,  39.431
   299.6,0.035808,0.022693,0.280425,0.000180,  39.427
   299.8,0.035732,0.022639,0.279681,0.000144,  39.429
   300.0,0.035675,0.022585,0.278986,0.000157,  39.429
   300.2,0.035621,0.022531,0.278303,0.000180,  39.425
   300.4,0.035541,0.022482,0.277601,0.000144,  39.424
   300.6,0.035456,0.022432,0.276961,0.000157,  39.426
   300.8,0.035368,0.022378,0.276348,0.000180,  39.424
   301.0,0.035279,0.022326,0.275749,0.000144,  39.424
   301.2,0.035200,0.022281,0.275084,0.000157,  39.424
   301.4,0.035124,0.022232,0.274369,0.000180,  39.420
   301.6,0.035038,0.022178,0.273604,0.000144,  39.422
   301.8,0.034955,0.022129,0.272885,0.000170,  39.420
   302.0,0.034877,0.022078,0.272180,0.000170,  39.419
   302.2,0.034791,0.022027,0.271418,0.000170,  39.419
   302.4,0.034711,0.021974,0.270755,0.000170,  39.421
   302.6,0.034633,0.021921,0.270162,0.000157,  39.423
   302.8,0.034544,0.021874,0.269558,0.000157,  39.420
   303.0,0.034468,0.021823,0.269011,0.000157,  39.421
   303.2,0.034390,0.021768,0.268514,0.000157,  39.421
   303.4,0.034301,0.021714,0.268025,0.000157,  39.420
   303.6,0.034223,0.021664,0.267573,0.000157,  39.417
   303.8,0.034138,0.021611,0.266928,0.000157,  39.414
   304.0,0.034046,0.021555,0.266258,0.000157,  39.422
   304.2,0.033968,0.021505,0.265509,0.000157,  39.412
   304.4,0.033880,0.021452,0.264885,0.000157,  39.415
   304.6,0.033792,0.021401,0.264239,0.000170,  39.419
   304.8,0.033713,0.021345,0.263624,0.000170,  39.414
   305.0,0.033632,0.021298,0.262928,0.000184,  39.416
   305.2,0.033543,0.021261,0.262176,0.000170,  39.414
   305.4,0.033456,0.021222,0.261394,0.000170,  39.415
   305.6,0.033372,0.021192,0.260690,0.000184,  39.411
   305.8,0.033280,0.021138,0.260000,0.000170,  39.417
   306.0,0.033193,0.021085,0.259323,0.000170,  39.417
   306.2,0.033106,0.021020,0.258622,0.000184,  39.413
   306.4,0.033015,0.020960,0.257929,0.000170,  39.418
   306.6,0.032930,0.020905,0.257192,0.000170,  39.414
   306.8,0.032849,0.020852,0.256495,0.000184,  39.415
   307.0,0.032758,0.020790,0.255817,0.000170,  39.414
   307.2,0.032673,0.020742,0.255146,0.000170,  39.421
   307.4,0.032595,0.020691,0.254207,0.000184,  39.423
   307.6,0.032501,0.020631,0.253141,0.000170,  39.420
   307.8,0.032414,0.020581,0.251962,0.000170,  39.420
   308.0,0.032330,0.020527,0.251231,0.000184,  39.425
   308.2,0.032254,0.020467,0.250616,0.000170,  39.422
   308.4,0.032186,0.020414,0.250160,0.000170,  39.422
   308.6,0.032121,0.020355,0.249626,0.000184,  39.425
   308.8,0.032062,0.020297,0.249098,0.000170,  39.424
   309.0,0.031986,0.020246,0.248626,0.000170,  39.424
   309.2,0.031898,0.020197,0.248002,0.000184,  39.425
   309.4,0.031811,0.020141,0.247302,0.000170,  39.422
   309.6,0.031717,0.020085,0.246566,0.000170,  39.423
   309.8,0.031630,0.020032,0.245915,0.000170,  39.426
   310.0,0.031544,0.019971,0.245260,0.000193,  39.429
   310.2,0.031450,0.019922,0.244618,0.000157,  39.425
   310.4,0.031365,0.019873,0.244024,0.000157,  39.427
   310.6,0.031285,0.019819,0.243473,0.000180,  39.428
   310.8,0.031194,0.019762,0.242910,0.000144,  39.428
   311.0,0.031112,0.019711,0.242325,0.000157,  39.429
   311.2,0.031032,0.019660,0.241704,0.000193,  39.428
   311.4,0.030941,0.019607,0.241078,0.000193,  39.430
   311.6,0.030859,0.019556,0.240507,0.000157,  39.430
   311.8,0.030779,0.019505,0.240000,0.000157,  39.432
   312.0,0.030691,0.019454,0.239476,0.000193,  39.427
   312.2,0.030609,0.019400,0.239006,0.000157,  39.430
   312.4,0.030534,0.019354,0.238349,0.000193,  39.432
   312.6,0.030446,0.019301,0.237611,0.000193,  39.433
   312.8,0.030362,0.019250,0.236839,0.000157,  39.432
   313.0,0.030287,0.019197,0.236173,0.000157,  39.441
   313.2,0.030199,0.019142,0.235526,0.000193,  39.437
   313.4,0.030115,0.019089,0.234892,0.000157,  39.440
   313.6,0.030037,0.019044,0.234201,0.000170,  39.438
   313.8,0.029947,0.018994,0.233481,0.000206,  39.437
   314.0,0.029863,0.018961,0.232734,0.000170,  39.440
   314.2,0.029782,0.018928,0.232052,0.000184,  39.442
   314.4,0.029689,0.018881,0.231423,0.000206,  39.442
   314.6,0.029605,0.018824,0.230823,0.000170,  39.437
   314.8,0.029527,0.018766,0.230144,0.000184,  39.443
   315.0,0.029439,0.018713,0.229477,0.000206,  39.442
   315.2,0.029353,0.018660,0.228817,0.000170,  39.441
   315.4,0.029263,0.018612,0.228175,0.000184,  39.439
   315.6,0.029175,0.018563,0.227552,0.000206,  39.444
   315.8,0.029100,0.018509,0.226940,0.000170,  39.441
   316.0,0.029017,0.018458,0.226295,0.000184,  39.443
   316.2,0.028926,0.018407,0.225657,0.000206,  39.443
   316.4,0.028846,0.018349,0.224980,0.000170,  39.445
   316.6,0.028753,0.018299,0.224287,0.000184,  39.446
   316.8,0.028681,0.018246,0.223539,0.000206,  39.449
   317.0,0.028614,0.018188,0.222753,0.000170,  39.448
   317.2,0.028546,0.018140,0.222125,0.000184,  39.447
   317.4,0.028496,0.018091,0.221521,0.000206,  39.446
   317.6,0.028414,0.018034,0.220980,0.000170,  39.450
   317.8,0.028333,0.017980,0.220310,0.000184,  39.450
   318.0,0.028253,0.017929,0.219614,0.000206,  39.451
   318.2,0.028163,0.017876,0.218863,0.000170,  39.452
   318.4,0.028080,0.017818,0.217796,0.000184,  39.451
   318.6,0.027991,0.017764,0.216534,0.000206,  39.452
   318.8,0.027898,0.017710,0.215099,0.000170,  39.447
   319.0,0.027820,0.017661,0.214499,0.000184,  39.449
   319.2,0.027734,0.017610,0.214208,0.000206,  39.446
   319.4,0.027646,0.017558,0.214230,0.000170,  39.444
   319.6,0.027572,0.017504,0.213774,0.000184,  39.448
   319.8,0.027491,0.017452,0.213231,0.000206,  39.442
   320.0,0.027404,0.017404,0.212590,0.000206,  39.437
   320.2,0.027332,0.017351,0.212115,0.000170,  39.440
   320.4,0.027246,0.017293,0.211667,0.000184,  39.437
   320.6,0.027156,0.017245,0.211259,0.000206,  39.438
   320.8,0.027078,0.017194,0.210868,0.000170,  39.434
   321.0,0.026989,0.017139,0.210372,0.000206,  39.436
   321.2,0.026902,0.017090,0.209805,0.000206,  39.435
   321.4,0.026831,0.017041,0.209222,0.000170,  39.438
   321.6,0.026750,0.016983,0.208598,0.000170,  39.438
   321.8,0.026665,0.016935,0.207899,0.000193,  39.437
   322.0,0.026591,0.016884,0.207174,0.000157,  39.435
   322.2,0.026510,0.016828,0.206553,0.000170,  39.432
   322.4,0.026423,0.016770,0.205949,0.000206,  39.436
   322.6,0.026343,0.016722,0.205366,0.000170,  39.437
   322.8,0.026256,0.016672,0.204474,0.000184,  39.440
   323.0,0.026169,0.016638,0.203434,0.000206,  39.439
   323.2,0.026089,0.016600,0.202255,0.000170,  39.432
   323.4,0.026015,0.016572,0.201645,0.000184,  39.435
   323.6,0.025928,0.016527,0.201238,0.000206,  39.438
   323.8,0.025847,0.016477,0.201054,0.000170,  39.437
   324.0,0.025773,0.016424,0.200610,0.000184,  39.438
   324.2,0.025689,0.016375,0.200141,0.000206,  39.438
   324.4,0.025608,0.016322,0.199645,0.000170,  39.440
   324.6,0.025534,0.016271,0.199097,0.000184,  39.440
   324.8,0.025450,0.016222,0.198523,0.000206,  39.442
   325.0,0.025369,0.016178,0.197908,0.000170,  39.442
   325.2,0.025295,0.016131,0.197310,0.000184,  39.435
   325.4,0.025211,0.016079,0.196718,0.000206,  39.442
   325.6,0.025131,0.016029,0.196112,0.000170,  39.440
   325.8,0.025057,0.015977,0.195536,0.000184,  39.439
   326.0,0.024987,0.015928,0.194973,0.000206,  39.443
   326.2,0.024926,0.015876,0.194405,0.000170,  39.441
   326.4,0.024868,0.015824,0.193779,0.000184,  39.443
   326.6,0.024813,0.015774,0.193151,0.000206,  39.442
   326.8,0.024729,0.015725,0.192456,0.000170,  39.441
   327.0,0.024655,0.015668,0.191849,0.000184,  39.441
   327.2,0.024569,0.015611,0.191263,0.000206,  39.438
   327.4,0.024482,0.015561,0.190684,0.000170,  39.437
   327.6,0.024399,0.015511,0.190012,0.000184,  39.437
   327.8,0.024319,0.015458,0.189322,0.000206,  39.438
   328.0,0.024236,0.015405,0.188582,0.000170,  39.434
   328.2,0.024158,0.015361,0.187949,0.000184,  39.435
   328.4,0.024084,0.015312,0.187359,0.000206,  39.429
   328.6,0.023998,0.015257,0.186831,0.000170,  39.428
   328.8,0.023920,0.015206,0.186207,0.000184,  39.433
   329.0,0.023841,0.015160,0.185533,0.000206,  39.429
   329.2,0.023754,0.015109,0.184830,0.000206,  39.429
   329.4,0.023680,0.015060,0.184292,0.000170,  39.425
   329.6,0.023607,0.015014,0.183837,0.000184,  39.421
   329.8,0.023526,0.014959,0.183428,0.000206,  39.431
   330.0,0.023452,0.014910,0.183106,0.000170,  39.423
   330.2,0.023377,0.014859,0.182508,0.000206,  39.426
   330.4,0.023296,0.014809,0.181830,0.000206,  39.422
   330.6,0.023223,0.014764,0.181098,0.000170,  39.422
   330.8,0.023142,0.014711,0.180507,0.000170,  39.421
   331.0,0.023059,0.014661,0.179935,0.000193,  39.418
   331.2,0.022988,0.014608,0.179375,0.000157,  39.418
   331.4,0.022911,0.014563,0.178742,0.000157,  39.419
   331.6,0.022827,0.014527,0.178100,0.000193,  39.418
   331.8,0.022753,0.014486,0.177405,0.000157,  39.418
   332.0,0.022682,0.014460,0.176784,0.000157,  39.421
   332.2,0.022602,0.014414,0.176174,0.000193,  39.421
   332.4,0.022527,0.014361,0.175575,0.000157,  39.414
   332.6,0.022450,0.014305,0.174982,0.000157,  39.417
   332.8,0.022366,0.014256,0.174389,0.000193,  39.414
   333.0,0.022298,0.014208,0.173798,0.000157,  39.416
   333.2,0.022218,0.014161,0.173168,0.000157,  39.420
   333.4,0.022140,0.014119,0.172544,0.000180,  39.421
   333.6,0.022072,0.014071,0.171912,0.000144,  39.425
   333.8,0.022001,0.014027,0.171358,0.000144,  39.427
   334.0,0.021920,0.013978,0.170843,0.000167,  39.430
   334.2,0.021846,0.013933,0.170390,0.000131,  39.422
   334.4,0.021766,0.013884,0.169876,0.000131,  39.429
   334.6,0.021685,0.013837,0.169348,0.000167,  39.430
   334.8,0.021615,0.013788,0.168812,0.000131,  39.431
   335.0,0.021547,0.013747,0.168267,0.000131,  39.434
   335.2,0.021483,0.013702,0.167672,0.000167,  39.434
   335.4,0.021426,0.013653,0.167090,0.000131,  39.434
   335.6,0.021367,0.013607,0.166547,0.000131,  39.439
   335.8,0.021324,0.013558,0.166020,0.000167,  39.439
   336.0,0.021255,0.013512,0.165493,0.000118,  39.444
   336.2,0.021181,0.013462,0.164937,0.000154,  39.441
   336.4,0.021108,0.013418,0.164388,0.000190,  39.441
   336.6,0.021033,0.013371,0.163825,0.000141,  39.445
   336.8,0.020965,0.013329,0.163232,0.000141,  39.447
   337.0,0.020900,0.013286,0.162623,0.000154,  39.452
   337.2,0.020822,0.013240,0.161997,0.000118,  39.451
   337.4,0.020748,0.013200,0.161413,0.000118,  39.452
   337.6,0.020671,0.013158,0.160809,0.000154,  39.450
   337.8,0.020593,0.013110,0.160218,0.000118,  39.449
   338.0,0.020524,0.013062,0.159693,0.000118,  39.454
   338.2,0.020465,0.013017,0.159182,0.000154,  39.460
   338.4,0.020390,0.012974,0.158696,0.000154,  39.458
   338.6,0.020319,0.012932,0.158260,0.000131,  39.461
   338.8,0.020254,0.012885,0.157839,0.000118,  39.460
   339.0,0.020179,0.012841,0.157503,0.000154,  39.463
   339.2,0.020113,0.012801,0.157153,0.000118,  39.463
   339.4,0.020048,0.012754,0.156666,0.000154,  39.467
   339.6,0.019973,0.012712,0.156121,0.000154,  39.466
   339.8,0.019905,0.012665,0.155554,0.000118,  39.467
   340.0,0.019840,0.012616,0.154999,0.000118,  39.470
   340.2,0.019765,0.012574,0.154430,0.000154,  39.467
   340.4,0.019696,0.012536,0.153831,0.000131,  39.466
   340.6,0.019632,0.012502,0.153264,0.000131,  39.471
   340.8,0.019557,0.012463,0.152689,0.000167,  39.470
   341.0,0.019488,0.012437,0.152114,0.000144,  39.470
   341.2,0.019426,0.012411,0.151544,0.000144,  39.469
   341.4,0.019354,0.012377,0.150974,0.000167,  39.471
   341.6,0.019286,0.012329,0.150391,0.000131,  39.465
   341.8,0.019218,0.012281,0.149642,0.000131,  39.469
   342.0,0.019143,0.012233,0.148804,0.000167,  39.472
   342.2,0.019078,0.012188,0.147876,0.000131,  39.470
   342.4,0.019013,0.012146,0.147198,0.000131,  39.467
   342.6,0.018941,0.012097,0.146546,0.000167,  39.471
   342.8,0.018875,0.012058,0.145969,0.000131,  39.472
   343.0,0.018810,0.012016,0.145548,0.000131,  39.474
   343.2,0.018740,0.011969,0.145209,0.000167,  39.469
   343.4,0.018679,0.011931,0.144987,0.000131,  39.475
   343.6,0.018610,0.011889,0.144612,0.000131,  39.473
   343.8,0.018553,0.011846,0.144193,0.000131,  39.476
   344.0,0.018501,0.011804,0.143751,0.000131,  39.477
   344.2,0.018449,0.011762,0.143332,0.000131,  39.490
   344.4,0.018409,0.011717,0.142905,0.000131,  39.491
   344.6,0.018352,0.011677,0.142470,0.000131,  39.484
   344.8,0.018286,0.011637,0.142044,0.000131,  39.489
   345.0,0.018218,0.011589,0.141626,0.000131,  39.492
   345.2,0.018146,0.011551,0.141195,0.000118,  39.488
   345.4,0.018075,0.011511,0.140712,0.000118,  39.488
   345.6,0.018010,0.011460,0.140198,0.000154,  39.485
   345.8,0.017936,0.011415,0.139621,0.000118,  39.485
   346.0,0.017868,0.011373,0.139094,0.000118,  39.483
   346.2,0.017803,0.011328,0.138555,0.000131,  39.484
   346.4,0.017728,0.011283,0.138008,0.000144,  39.484
   346.6,0.017660,0.011242,0.137492,0.000144,  39.483
   346.8,0.017599,0.011198,0.136982,0.000131,  39.481
   347.0,0.017527,0.011163,0.136453,0.000118,  39.482
   347.2,0.017464,0.011120,0.136008,0.000118,  39.479
   347.4,0.017405,0.011073,0.135613,0.000118,  39.481
   347.6,0.017333,0.011034,0.135259,0.000105,  39.475
   347.8,0.017268,0.010994,0.134940,0.000105,  39.474
   348.0,0.017206,0.010945,0.134463,0.000105,  39.465
   348.2,0.017134,0.010904,0.133957,0.000105,  39.459
   348.4,0.017069,0.010863,0.133396,0.000105,  39.464
   348.6,0.017010,0.010823,0.132929,0.000092,  39.460
   348.8,0.016941,0.010777,0.132470,0.000105,  39.458
   349.0,0.016878,0.010740,0.132026,0.000118,  39.455
   349.2,0.016822,0.010704,0.131574,0.000118,  39.456
   349.4,0.016753,0.010674,0.131122,0.000105,  39.451
   349.6,0.016688,0.010641,0.130650,0.000118,  39.451
   349.8,0.016626,0.010622,0.130107,0.000118,  39.453
   350.0,0.016560,0.010581,0.129533,0.000141,  39.449
   350.2,0.016500,0.010548,0.128925,0.000118,  39.448
   350.4,0.016444,0.010508,0.128447,0.000118,  39.450
   350.6,0.016378,0.010465,0.128004,0.000141,  39.446
   350.8,0.016318,0.010424,0.127605,0.000118,  39.450
   351.0,0.016259,0.010388,0.126867,0.000118,  39.449
   351.2,0.016193,0.010349,0.125989,0.000141,  39.449
   351.4,0.016133,0.010302,0.124926,0.000118,  39.450
   351.6,0.016077,0.010268,0.124404,0.000118,  39.448
   351.8,0.016011,0.010230,0.124064,0.000141,  39.449
   352.0,0.015949,0.010188,0.123912,0.000118,  39.443
   352.2,0.015883,0.010154,0.123594,0.000105,  39.451
   352.4,0.015817,0.010117,0.123283,0.000128,  39.439
   352.6,0.015764,0.010075,0.122986,0.000105,  39.439
   352.8,0.015707,0.010045,0.122480,0.000092,  39.437
   353.0,0.015655,0.010009,0.121842,0.000128,  39.436
   353.2,0.015609,0.009965,0.121113,0.000105,  39.436
   353.4,0.015562,0.009929,0.120678,0.000092,  39.443
   353.6,0.015528,0.009895,0.120339,0.000128,  39.439
   353.8,0.015467,0.009857,0.120077,0.000105,  39.441
   354.0,0.015408,0.009825,0.119740,0.000092,  39.444
   354.2,0.015349,0.009789,0.119422,0.000128,  39.441
   354.4,0.015288,0.009751,0.119099,0.000105,  39.442
   354.6,0.015238,0.009714,0.118729,0.000092,  39.439
   354.8,0.015181,0.009678,0.118338,0.000128,  39.441
   355.0,0.015120,0.009644,0.117932,0.000105,  39.436
   355.2,0.015070,0.009608,0.117521,0.000092,  39.435
   355.4,0.015013,0.009574,0.117095,0.000128,  39.439
   355.6,0.014952,0.009537,0.116635,0.000105,  39.440
   355.8,0.014902,0.009505,0.116155,0.000092,  39.437
   356.0,0.014845,0.009472,0.115621,0.000128,  39.441
   356.2,0.014781,0.009432,0.115054,0.000128,  39.438
   356.4,0.014731,0.009398,0.114663,0.000092,  39.440
   356.6,0.014674,0.009364,0.114340,0.000092,  39.435
   356.8,0.014614,0.009332,0.114085,0.000115,  39.441
   357.0,0.014563,0.009293,0.113895,0.000079,  39.442
   357.2,0.014506,0.009256,0.113513,0.000115,  39.444
   357.4,0.014446,0.009217,0.113083,0.000115,  39.441
   357.6,0.014395,0.009181,0.112608,0.000092,  39.444
   357.8,0.014342,0.009145,0.112227,0.000092,  39.443
   358.0,0.014279,0.009108,0.111842,0.000128,  39.446
   358.2,0.014222,0.009077,0.111489,0.000105,  39.445
   358.4,0.014172,0.009049,0.110806,0.000092,  39.442
   358.6,0.014106,0.009017,0.109944,0.000128,  39.446
   358.8,0.014049,0.008995,0.108948,0.000105,  39.450
   359.0,0.013999,0.008967,0.108492,0.000092,  39.441
   359.2,0.013935,0.008939,0.108222,0.000128,  39.447
   359.4,0.013881,0.008911,0.108147,0.000105,  39.446
   359.6,0.013836,0.008874,0.107830,0.000092,  39.444
   359.8,0.013779,0.008839,0.107460,0.000128,  39.444
   360.0,0.013725,0.008803,0.107057,0.000105,  39.444
   360.2,0.013677,0.008768,0.106721,0.000092,  39.439
   360.4,0.013617,0.008732,0.106366,0.000128,  39.440
   360.6,0.013560,0.008700,0.106018,0.000105,  39.444
   360.8,0.013512,0.008663,0.105644,0.000092,  39.446
   361.0,0.013452,0.008629,0.105262,0.000128,  39.444
   361.2,0.013398,0.008591,0.104848,0.000105,  39.444
   361.4,0.013350,0.008554,0.104442,0.000105,  39.443
   361.6,0.013293,0.008520,0.104035,0.000105,  39.448
   361.8,0.013242,0.008488,0.103608,0.000118,  39.445
   362.0,0.013192,0.008450,0.103215,0.000118,  39.444
   362.2,0.013146,0.008414,0.102823,0.000105,  39.444
   362.4,0.013099,0.008379,0.102438,0.000118,  39.444
   362.6,0.013061,0.008344,0.102126,0.000105,  39.446
   362.8,0.013026,0.008313,0.101835,0.000092,  39.445
   363.0,0.012978,0.008278,0.101583,0.000105,  39.451
   363.2,0.012924,0.008249,0.101192,0.000092,  39.446
   363.4,0.012865,0.008212,0.100729,0.000092,  39.446
   363.6,0.012807,0.008175,0.100208,0.000105,  39.449
   363.8,0.012756,0.008149,0.099772,0.000092,  39.448
   364.0,0.012711,0.008116,0.099349,0.000092,  39.449
   364.2,0.012656,0.008086,0.098939,0.000105,  39.451
   364.4,0.012607,0.008058,0.098485,0.000092,  39.452
   364.6,0.012568,0.008023,0.098011,0.000092,  39.449
   364.8,0.012513,0.007993,0.097544,0.000105,  39.449
   365.0,0.012471,0.007961,0.097194,0.000092,  39.449
   365.2,0.012426,0.007931,0.096921,0.000079,  39.454
   365.4,0.012371,0.007897,0.096694,0.000079,  39.452
   365.6,0.012329,0.007868,0.096531,0.000079,  39.451
   365.8,0.012284,0.007837,0.096228,0.000079,  39.446
   366.0,0.012231,0.007810,0.095874,0.000079,  39.443
   366.2,0.012189,0.007777,0.095515,0.000079,  39.448
   366.4,0.012138,0.007740,0.095135,0.000079,  39.445
   366.6,0.012087,0.007715,0.094711,0.000079,  39.449
   366.8,0.012045,0.007686,0.094261,0.000092,  39.447
   367.0,0.012000,0.007656,0.093908,0.000092,  39.448
   367.2,0.011954,0.007630,0.093575,0.000079,  39.447
   367.4,0.011902,0.007600,0.093248,0.000092,  39.444
   367.6,0.011857,0.007575,0.092915,0.000092,  39.446
   367.8,0.011811,0.007549,0.092545,0.000079,  39.448
   368.0,0.011761,0.007526,0.092186,0.000092,  39.446
   368.2,0.011717,0.007508,0.091802,0.000092,  39.445
   368.4,0.011668,0.007479,0.091375,0.000079,  39.445
   368.6,0.011616,0.007451,0.090935,0.000092,  39.445
   368.8,0.011571,0.007418,0.090540,0.000092,  39.443
   369.0,0.011526,0.007385,0.090170,0.000079,  39.449
   369.2,0.011474,0.007360,0.089801,0.000092,  39.447
   369.4,0.011434,0.007331,0.089223,0.000092,  39.445
   369.6,0.011385,0.007299,0.088515,0.000079,  39.441
   369.8,0.011339,0.007273,0.087724,0.000092,  39.446
   370.0,0.011294,0.007249,0.087383,0.000079,  39.443
   370.2,0.011242,0.007218,0.087206,0.000102,  39.448
   370.4,0.011202,0.007186,0.087205,0.000079,  39.446
   370.6,0.011149,0.007158,0.086940,0.000066,  39.446
   370.8,0.011108,0.007121,0.086662,0.000102,  39.442
   371.0,0.011073,0.007095,0.086321,0.000079,  39.442
   371.2,0.011035,0.007063,0.086000,0.000066,  39.442
   371.4,0.011012,0.007032,0.085678,0.000102,  39.437
   371.6,0.010965,0.007000,0.085313,0.000079,  39.438
   371.8,0.010919,0.006972,0.084967,0.000066,  39.441
   372.0,0.010868,0.006942,0.084615,0.000102,  39.439
   372.2,0.010819,0.006914,0.084256,0.000066,  39.442
   372.4,0.010780,0.006886,0.083904,0.000053,  39.440
   372.6,0.010738,0.006851,0.083541,0.000076,  39.438
   372.8,0.010688,0.006827,0.083195,0.000040,  39.435
   373.0,0.010652,0.006803,0.082876,0.000040,  39.435
   373.2,0.010604,0.006775,0.082576,0.000076,  39.434
   373.4,0.010558,0.006747,0.082295,0.000040,  39.437
   373.6,0.010512,0.006720,0.082032,0.000040,  39.435
   373.8,0.010473,0.006694,0.081781,0.000076,  39.429
   374.0,0.010430,0.006661,0.081561,0.000076,  39.430
   374.2,0.010378,0.006632,0.081352,0.000053,  39.432
   374.4,0.010342,0.006606,0.081046,0.000040,  39.431
   374.6,0.010295,0.006577,0.080716,0.000076,  39.433
   374.8,0.010252,0.006554,0.080361,0.000053,  39.428
   375.0,0.010207,0.006526,0.080069,0.000089,  39.430
   375.2,0.010158,0.006496,0.079770,0.000089,  39.429
   375.4,0.010124,0.006465,0.079497,0.000053,  39.430
   375.6,0.010078,0.006437,0.079217,0.000066,  39.428
   375.8,0.010032,0.006409,0.078901,0.000089,  39.432
   376.0,0.009995,0.006386,0.078590,0.000053,  39.435
   376.2,0.009955,0.006369,0.078219,0.000066,  39.431
   376.4,0.009911,0.006344,0.077822,0.000089,  39.438
   376.6,0.009875,0.006325,0.077390,0.000053,  39.436
   376.8,0.009832,0.006307,0.077019,0.000053,  39.427
   377.0,0.009788,0.006280,0.076674,0.000076,  39.434
   377.2,0.009751,0.006254,0.076352,0.000040,  39.435
   377.4,0.009709,0.006228,0.076056,0.000040,  39.436
   377.6,0.009665,0.006204,0.075766,0.000076,  39.441
   377.8,0.009628,0.006180,0.075501,0.000040,  39.441
   378.0,0.009588,0.006155,0.075186,0.000040,  39.438
   378.2,0.009542,0.006129,0.074848,0.000040,  39.442
   378.4,0.009508,0.006103,0.074497,0.000040,  39.441
   378.6,0.009465,0.006080,0.074190,0.000040,  39.441
   378.8,0.009428,0.006059,0.073882,0.000040,  39.449
   379.0,0.009387,0.006031,0.073587,0.000040,  39.445
   379.2,0.009354,0.006008,0.073335,0.000040,  39.450
   379.4,0.009319,0.005987,0.073077,0.000076,  39.450
   379.6,0.009292,0.005961,0.072856,0.000040,  39.451
   379.8,0.009260,0.005935,0.072592,0.000076,  39.452
   380.0,0.009236,0.005903,0.072281,0.000098,  39.458
   380.2,0.009195,0.005882,0.071975,0.000063,  39.454
   380.4,0.009161,0.005863,0.071675,0.000076,  39.459
   380.6,0.009121,0.005835,0.071358,0.000063,  39.461
   380.8,0.009086,0.005811,0.071040,0.000027,  39.463
   381.0,0.009040,0.005786,0.070717,0.000040,  39.461
   381.2,0.009006,0.005758,0.070352,0.000076,  39.464
   381.4,0.008969,0.005737,0.069987,0.000040,  39.465
   381.6,0.008925,0.005714,0.069719,0.000040,  39.464
   381.8,0.008889,0.005688,0.069487,0.000076,  39.466
   382.0,0.008842,0.005661,0.069279,0.000040,  39.467
   382.2,0.008807,0.005640,0.068969,0.000040,  39.481
   382.4,0.008767,0.005611,0.068641,0.000076,  39.486
   382.6,0.008723,0.005592,0.068248,0.000076,  39.483
   382.8,0.008693,0.005567,0.067987,0.000053,  39.483
   383.0,0.008655,0.005541,0.067785,0.000040,  39.488
   383.2,0.008611,0.005519,0.067613,0.000076,  39.486
   383.4,0.008578,0.005494,0.067501,0.000053,  39.485
   383.6,0.008538,0.005473,0.067234,0.000089,  39.485
   383.8,0.008497,0.005449,0.066914,0.000076,  39.485
   384.0,0.008466,0.005423,0.066588,0.000040,  39.487
   384.2,0.008428,0.005399,0.066322,0.000040,  39.482
   384.4,0.008390,0.005380,0.066085,0.000063,  39.481
   384.6,0.008361,0.005359,0.065837,0.000027,  39.477
   384.8,0.008327,0.005339,0.065506,0.000040,  39.478
   385.0,0.008292,0.005319,0.065157,0.000063,  39.475
   385.2,0.008255,0.005305,0.064744,0.000027,  39.471
   385.4,0.008224,0.005288,0.064425,0.000040,  39.470
   385.6,0.008189,0.005271,0.064137,0.000063,  39.466
   385.8,0.008148,0.005249,0.063860,0.000027,  39.465
   386.0,0.008122,0.005225,0.063625,0.000040,  39.470
   386.2,0.008081,0.005205,0.063408,0.000063,  39.464
   386.4,0.008047,0.005183,0.063208,0.000027,  39.452
   386.6,0.008012,0.005164,0.062991,0.000040,  39.449
   386.8,0.007974,0.005134,0.062768,0.000063,  39.449
   387.0,0.007951,0.005115,0.062533,0.000027,  39.448
   387.2,0.007921,0.005097,0.062258,0.000040,  39.443
   387.4,0.007886,0.005073,0.061977,0.000063,  39.442
   387.6,0.007863,0.005054,0.061689,0.000027,  39.446
   387.8,0.007828,0.005038,0.061432,0.000040,  39.439
   388.0,0.007801,0.005015,0.061192,0.000063,  39.444
   388.2,0.007775,0.004995,0.060982,0.000027,  39.436
   388.4,0.007744,0.004974,0.060754,0.000040,  39.440
   388.6,0.007724,0.004950,0.060514,0.000063,  39.436
   388.8,0.007688,0.004931,0.060263,0.000027,  39.435
   389.0,0.007654,0.004912,0.060013,0.000040,  39.441
   389.2,0.007625,0.004887,0.059762,0.000076,  39.438
   389.4,0.007590,0.004872,0.059500,0.000040,  39.438
   389.6,0.007564,0.004850,0.059226,0.000053,  39.437
   389.8,0.007532,0.004824,0.058929,0.000089,  39.438
   390.0,0.007494,0.004811,0.058621,0.000053,  39.437
   390.2,0.007468,0.004792,0.058382,0.000053,  39.433
   390.4,0.007436,0.004769,0.058156,0.000076,  39.432
   390.6,0.007398,0.004751,0.057970,0.000040,  39.431
   390.8,0.007370,0.004730,0.057715,0.000040,  39.427
   391.0,0.007335,0.004709,0.057419,0.000076,  39.430
   391.2,0.007300,0.004690,0.057112,0.000076,  39.426
   391.4,0.007274,0.004670,0.056886,0.000053,  39.421
   391.6,0.007245,0.004653,0.056683,0.000040,  39.425
   391.8,0.007209,0.004630,0.056487,0.000076,  39.429
   392.0,0.007177,0.004612,0.056330,0.000053,  39.426
   392.2,0.007145,0.004597,0.056151,0.000089,  39.422
   392.4,0.007107,0.004576,0.055972,0.000076,  39.423
   392.6,0.007075,0.004558,0.055799,0.000040,  39.421
   392.8,0.007047,0.004545,0.055585,0.000040,  39.420
   393.0,0.007015,0.004523,0.055343,0.000076,  39.421
   393.2,0.006985,0.004501,0.055072,0.000040,  39.420
   393.4,0.006969,0.004485,0.054812,0.000040,  39.418
   393.6,0.006942,0.004474,0.054530,0.000063,  39.419
   393.8,0.006907,0.004458,0.054231,0.000027,  39.418
   394.0,0.006881,0.004447,0.053966,0.000040,  39.415
   394.2,0.006852,0.004425,0.053702,0.000063,  39.412
   394.4,0.006816,0.004411,0.053438,0.000027,  39.409
   394.6,0.006796,0.004387,0.053202,0.000040,  39.411
   394.8,0.006760,0.004367,0.052984,0.000063,  39.410
   395.0,0.006734,0.004351,0.052778,0.000027,  39.406
   395.2,0.006705,0.004334,0.052017,0.000040,  39.406
   395.4,0.006674,0.004314,0.050984,0.000063,  39.401
   395.6,0.006654,0.004298,0.049694,0.000027,  39.401
   395.8,0.006625,0.004282,0.049501,0.000040,  39.398
   396.0,0.006592,0.004262,0.049727,0.000063,  39.398
   396.2,0.006569,0.004246,0.050345,0.000027,  39.399
   396.4,0.006540,0.004233,0.050412,0.000040,  39.401
   396.6,0.006516,0.004209,0.050428,0.000063,  39.399
   396.8,0.006495,0.004191,0.050365,0.000027,  39.403
   397.0,0.006467,0.004173,0.050313,0.000040,  39.401
   397.2,0.006455,0.004151,0.050233,0.000063,  39.397
   397.4,0.006422,0.004135,0.050125,0.000027,  39.396
   397.6,0.006395,0.004121,0.049976,0.000040,  39.405
   397.8,0.006370,0.004101,0.049788,0.000063,  39.403
   398.0,0.006339,0.004087,0.049555,0.000027,  39.395
   398.2,0.006322,0.004068,0.048981,0.000027,  39.397
   398.4,0.006293,0.004049,0.048212,0.000050,  39.398
   398.6,0.006260,0.004036,0.047263,0.000014,  39.394
   398.8,0.006240,0.004015,0.047065,0.000014,  39.401
   399.0,0.006208,0.003997,0.047154,0.000050,  39.395
   399.2,0.006175,0.003982,0.047508,0.000014,  39.396
   399.4,0.006155,0.003966,0.047507,0.000014,  39.396
   399.6,0.006128,0.003945,0.047461,0.000050,  39.395
   399.8,0.006098,0.003930,0.047388,0.000050,  39.396
   400.0,0.006078,0.003916,0.047257,0.000014,  39.395
   400.2,0.006051,0.003895,0.047178,0.000027,  39.394
   400.4,0.006018,0.003884,0.047081,0.000050,  39.398
   400.6,0.005998,0.003864,0.046967,0.000014,  39.396
   400.8,0.005969,0.003842,0.046792,0.000037,  39.393
   401.0,0.005936,0.003833,0.046594,0.000059,  39.394
   401.2,0.005912,0.003815,0.046363,0.000024,  39.396
   401.4,0.005885,0.003793,0.046159,0.000024,  39.400
   401.6,0.005855,0.003782,0.045973,0.000037,  39.398
   401.8,0.005834,0.003766,0.045792,0.000001,  39.398
   402.0,0.005814,0.003753,0.045634,0.000001,  39.398
   402.2,0.005784,0.003738,0.045492,0.000037,  39.398
   402.4,0.005760,0.003724,0.045346,0.000001,  39.401
   402.6,0.005740,0.003716,0.044627,0.000001,  39.400
   402.8,0.005707,0.003701,0.043615,0.000037,  39.401
   403.0,0.005686,0.003686,0.042317,0.000001,  39.402
   403.2,0.005664,0.003672,0.041949,0.000001,  39.403
   403.4,0.005633,0.003652,0.041893,0.000037,  39.401
   403.6,0.005616,0.003637,0.042152,0.000001,  39.406
   403.8,0.005592,0.003625,0.042256,0.000001,  39.411
   404.0,0.005565,0.003609,0.042427,0.000037,  39.414
   404.2,0.005547,0.003594,0.042682,0.000001,  39.408
   404.4,0.005521,0.003571,0.042758,0.000001,  39.416
   404.6,0.005499,0.003557,0.042790,0.000037,  39.418
   404.8,0.005475,0.003544,0.042756,0.000014,  39.417
   405.0,0.005455,0.003528,0.042665,0.000014,  39.420
   405.2,0.005437,0.003516,0.042531,0.000050,  39.417
   405.4,0.005421,0.003502,0.042324,0.000014,  39.426
   405.6,0.005396,0.003492,0.042212,0.000014,  39.423
   405.8,0.005383,0.003482,0.042105,0.000037,  39.427
   406.0,0.005358,0.003469,0.042009,-0.000012,  39.434
   406.2,0.005337,0.003455,0.041625,-0.000012,  39.432
   406.4,0.005319,0.003442,0.041108,0.000037,  39.430
   406.6,0.005291,0.003428,0.040471,0.000001,  39.438
   406.8,0.005279,0.003418,0.040320,0.000001,  39.440
   407.0,0.005258,0.003402,0.040346,0.000037,  39.440
   407.2,0.005237,0.003385,0.040555,0.000001,  39.441
   407.4,0.005213,0.003381,0.040510,0.000037,  39.444
   407.6,0.005196,0.003363,0.040431,0.000059,  39.445
   407.8,0.005172,0.003345,0.040297,0.000037,  39.446
   408.0,0.005142,0.003332,0.040202,0.000072,  39.448
   408.2,0.005124,0.003316,0.040084,0.000059,  39.448
   408.4,0.005100,0.003296,0.039972,0.000037,  39.451
   408.6,0.005070,0.003280,0.039828,0.000072,  39.449
   408.8,0.005050,0.003266,0.039667,0.000072,  39.452
   409.0,0.005029,0.003246,0.039467,0.000072,  39.458
   409.2,0.004999,0.003235,0.039256,0.000050,  39.458
   409.4,0.004981,0.003222,0.039128,0.000037,  39.457
   409.6,0.004960,0.003202,0.039000,0.000037,  39.460
   409.8,0.004932,0.003189,0.038888,0.000001,  39.465
   410.0,0.004915,0.003173,0.038781,0.000024,  39.471
   410.2,0.004896,0.003159,0.038681,0.000059,  39.469
   410.4,0.004869,0.003146,0.038597,0.000037,  39.476
   410.6,0.004851,0.003132,0.038441,0.000072,  39.477
   410.8,0.004830,0.003113,0.038247,0.000059,  39.476
   411.0,0.004797,0.003102,0.038026,0.000037,  39.480
   411.2,0.004780,0.003088,0.037887,0.000072,  39.478
   411.4,0.004761,0.003080,0.037759,0.000059,  39.474
   411.6,0.004734,0.003066,0.037642,0.000037,  39.476
   411.8,0.004722,0.003057,0.037454,0.000072,  39.476
   412.0,0.004697,0.003048,0.037250,0.000059,  39.475
   412.2,0.004681,0.003033,0.037019,0.000037,  39.477
   412.4,0.004662,0.003023,0.036880,0.000072,  39.476
   412.6,0.004637,0.003013,0.036747,0.000059,  39.474
   412.8,0.004623,0.003003,0.036652,0.000037,  39.479
   413.0,0.004599,0.002992,0.036475,0.000072,  39.477
   413.2,0.004574,0.002976,0.036266,0.000059,  39.477
   413.4,0.004564,0.002967,0.036041,0.000037,  39.475
   413.6,0.004546,0.002954,0.035886,0.000072,  39.471
   413.8,0.004518,0.002940,0.035770,0.000059,  39.473
   414.0,0.004506,0.002929,0.035670,0.000037,  39.478
   414.2,0.004485,0.002920,0.035516,0.000072,  39.477
   414.4,0.004469,0.002906,0.035340,0.000059,  39.477
   414.6,0.004456,0.002891,0.035132,0.000037,  39.476
   414.8,0.004436,0.002881,0.035015,0.000072,  39.478
   415.0,0.004432,0.002867,0.034926,0.000059,  39.473
   415.2,0.004410,0.002853,0.034881,0.000037,  39.480
   415.4,0.004386,0.002843,0.034759,0.000072,  39.479
   415.6,0.004369,0.002830,0.034600,0.000059,  39.476
   415.8,0.004346,0.002820,0.034419,0.000037,  39.482
   416.0,0.004334,0.002811,0.034270,0.000037,  39.479
   416.2,0.004321,0.002799,0.034133,0.000024,  39.482
   416.4,0.004296,0.002785,0.033990,0.000001,  39.482
   416.6,0.004281,0.002772,0.033837,0.000001,  39.480
   416.8,0.004260,0.002757,0.033667,0.000037,  39.479
   417.0,0.004233,0.002748,0.033508,0.000001,  39.481
   417.2,0.004221,0.002738,0.033360,0.000001,  39.481
   417.4,0.004200,0.002723,0.033229,0.000037,  39.480
   417.6,0.004184,0.002713,0.033097,0.000037,  39.481
   417.8,0.004168,0.002700,0.032967,0.000001,  39.483
   418.0,0.004156,0.002686,0.032814,0.000001,  39.482
   418.2,0.004131,0.002675,0.032661,0.000037,  39.481
   418.4,0.004112,0.002671,0.032486,-0.000012,  39.483
   418.6,0.004091,0.002661,0.032366,0.000024,  39.488
   418.8,0.004069,0.002651,0.032240,0.000046,  39.488
   419.0,0.004059,0.002639,0.032125,0.000024,  39.482
   419.2,0.004046,0.002631,0.031983,0.000046,  39.484
   419.4,0.004028,0.002620,0.031830,0.000046,  39.486
   419.6,0.004016,0.002614,0.031650,0.000024,  39.484
   419.8,0.003998,0.002607,0.031400,0.000059,  39.486
   420.0,0.003982,0.002599,0.031112,0.000059,  39.486
   420.2,0.003967,0.002587,0.030777,0.000037,  39.483
   420.4,0.003948,0.002575,0.030641,0.000072,  39.481
   420.6,0.003932,0.002563,0.030575,0.000072,  39.479
   420.8,0.003910,0.002551,0.030573,0.000037,  39.477
   421.0,0.003891,0.002542,0.030459,0.000072,  39.481
   421.2,0.003873,0.002532,0.030334,0.000072,  39.480
   421.4,0.003851,0.002516,0.030171,0.000037,  39.476
   421.6,0.003839,0.002504,0.030078,0.000072,  39.480
   421.8,0.003820,0.002492,0.030017,0.000059,  39.476
   422.0,0.003795,0.002474,0.029967,0.000037,  39.479
   422.2,0.003783,0.002465,0.029642,0.000072,  39.474
   422.4,0.003770,0.002455,0.029174,0.000059,  39.478
   422.6,0.003745,0.002438,0.028578,0.000037,  39.475
   422.8,0.003733,0.002430,0.028484,0.000072,  39.468
   423.0,0.003720,0.002420,0.028574,0.000059,  39.473
   423.2,0.003700,0.002404,0.028829,0.000037,  39.474
   423.4,0.003693,0.002395,0.028838,0.000037,  39.474
   423.6,0.003680,0.002383,0.028804,0.000024,  39.475
   423.8,0.003661,0.002372,0.028721,0.000001,  39.474
   424.0,0.003645,0.002363,0.028676,0.000001,  39.470
   424.2,0.003626,0.002353,0.028626,0.000024,  39.471
   424.4,0.003608,0.002344,0.028566,0.000001,  39.470
   424.6,0.003589,0.002334,0.028420,0.000001,  39.465
   424.8,0.003577,0.002326,0.028220,0.000024,  39.466
   425.0,0.003552,0.002313,0.027973,0.000001,  39.465
   425.2,0.003537,0.002299,0.027881,0.000001,  39.459
   425.4,0.003523,0.002289,0.027825,0.000024,  39.459
   425.6,0.003501,0.002279,0.027812,0.000001,  39.457
   425.8,0.003492,0.002266,0.027724,0.000001,  39.451
   426.0,0.003473,0.002256,0.027615,0.000024,  39.441
   426.2,0.003454,0.002246,0.027486,0.000024,  39.444
   426.4,0.003444,0.002238,0.027266,0.000001,  39.438
   426.6,0.003426,0.002228,0.026993,0.000001,  39.436
   426.8,0.003406,0.002219,0.026667,0.000024,  39.437
   427.0,0.003397,0.002210,0.026279,-0.000012,  39.440
   427.2,0.003381,0.002202,0.026186,0.000024,  39.434
   427.4,0.003361,0.002194,0.026185,0.000010,  39.435
   427.6,0.003354,0.002184,0.026252,-0.000012,  39.431
   427.8,0.003339,0.002181,0.026208,-0.000025,  39.427
   428.0,0.003322,0.002171,0.026121,0.000010,  39.426
   428.2,0.003315,0.002159,0.026002,-0.000012,  39.428
   428.4,0.003299,0.002150,0.025624,-0.000025,  39.427
   428.6,0.003280,0.002148,0.025091,0.000010,  39.425
   428.8,0.003270,0.002136,0.024423,-0.000012,  39.425
   429.0,0.003254,0.002133,0.024358,-0.000025,  39.424
   429.2,0.003235,0.002123,0.024530,0.000010,  39.422
   429.4,0.003228,0.002115,0.024936,-0.000012,  39.418
   429.6,0.003212,0.002102,0.024977,-0.000025,  39.414
   429.8,0.003195,0.002095,0.024959,0.000010,  39.416
   430.0,0.003188,0.002083,0.024868,-0.000012,  39.413
   430.2,0.003172,0.002076,0.024648,0.000010,  39.414
   430.4,0.003156,0.002063,0.024345,0.000033,  39.416
   430.6,0.003145,0.002055,0.023942,0.000010,  39.414
   430.8,0.003129,0.002052,0.023877,0.000046,  39.410
   431.0,0.003112,0.002038,0.023934,0.000033,  39.412
   431.2,0.003105,0.002028,0.024112,0.000010,  39.409
   431.4,0.003099,0.002017,0.024115,0.000046,  39.405
   431.6,0.003085,0.002006,0.024109,0.000046,  39.411
   431.8,0.003072,0.002002,0.024065,0.000024,  39.407
   432.0,0.003063,0.002005,0.024047,0.000033,  39.403
   432.2,0.003052,0.001994,0.024045,0.000020,  39.407
   432.4,0.003039,0.001986,0.024033,-0.000003,  39.404
   432.6,0.003029,0.001979,0.023978,0.000020,  39.405
   432.8,0.003015,0.001971,0.023886,0.000020,  39.409
   433.0,0.002996,0.001959,0.023774,-0.000003,  39.407
   433.2,0.002986,0.001952,0.023678,0.000020,  39.403
   433.4,0.002971,0.001937,0.023565,0.000056,  39.401
   433.6,0.002957,0.001932,0.023442,0.000033,  39.397
   433.8,0.002940,0.001929,0.023346,0.000020,  39.398
   434.0,0.002934,0.001916,0.023249,0.000020,  39.394
   434.2,0.002923,0.001910,0.023164,-0.000003,  39.396
   434.4,0.002904,0.001905,0.023073,-0.000003,  39.394
   434.6,0.002897,0.001891,0.022955,-0.000003,  39.393
   434.8,0.002886,0.001881,0.022833,-0.000025,  39.390
   435.0,0.002867,0.001875,0.022694,-0.000025,  39.386
   435.2,0.002860,0.001865,0.022551,0.000010,  39.386
   435.4,0.002849,0.001852,0.022392,0.000010,  39.384
   435.6,0.002830,0.001853,0.022302,-0.000012,  39.387
   435.8,0.002826,0.001850,0.022237,-0.000025,  39.385
   436.0,0.002815,0.001837,0.022199,0.000010,  39.386
   436.2,0.002796,0.001834,0.022198,-0.000025,  39.384
   436.4,0.002786,0.001828,0.022155,0.000010,  39.386
   436.6,0.002778,0.001820,0.022122,0.000010,  39.386
   436.8,0.002764,0.001815,0.022083,-0.000012,  39.385
   437.0,0.002765,0.001814,0.021997,0.000010,  39.386
   437.2,0.002760,0.001808,0.021890,0.000033,  39.389
   437.4,0.002740,0.001802,0.021763,0.000010,  39.389
   437.6,0.002736,0.001794,0.021672,0.000046,  39.388
   437.8,0.002728,0.001795,0.021597,0.000033,  39.385
   438.0,0.002709,0.001782,0.021538,0.000010,  39.383
   438.2,0.002702,0.001779,0.021463,0.000010,  39.385
   438.4,0.002691,0.001771,0.021352,-0.000003,  39.385
   438.6,0.002674,0.001765,0.021246,-0.000025,  39.382
   438.8,0.002668,0.001760,0.020988,-0.000025,  39.385
   439.0,0.002657,0.001751,0.020641,-0.000003,  39.383
   439.2,0.002643,0.001749,0.020216,-0.000025,  39.383
   439.4,0.002639,0.001743,0.020105,-0.000025,  39.384
   439.6,0.002631,0.001735,0.020113,-0.000003,  39.384
   439.8,0.002616,0.001730,0.020260,-0.000025,  39.383
   440.0,0.002610,0.001727,0.020248,-0.000025,  39.385
   440.2,0.002602,0.001719,0.020215,-0.000003,  39.381
   440.4,0.002590,0.001710,0.020162,-0.000025,  39.383
   440.6,0.002586,0.001708,0.020160,-0.000025,  39.382
   440.8,0.002578,0.001700,0.020179,0.000010,  39.379
   441.0,0.002564,0.001692,0.020193,-0.000012,  39.374
   441.2,0.002560,0.001690,0.020134,-0.000025,  39.371
   441.4,0.002549,0.001679,0.020044,-0.000003,  39.375
   441.6,0.002544,0.001675,0.019929,-0.000025,  39.378
   441.8,0.002533,0.001673,0.019901,0.000010,  39.381
   442.0,0.002529,0.001667,0.019910,0.000033,  39.386
   442.2,0.002524,0.001661,0.019949,0.000010,  39.391
   442.4,0.002513,0.001660,0.019932,0.000024,  39.396
   442.6,0.002505,0.001656,0.019910,0.000024,  39.393
   442.8,0.002498,0.001647,0.019872,0.000001,  39.401
   443.0,0.002483,0.001643,0.019803,0.000001,  39.399
   443.2,0.002473,0.001639,0.019698,0.000037,  39.399
   443.4,0.002462,0.001634,0.019567,0.000037,  39.404
   443.6,0.002445,0.001630,0.019472,0.000014,  39.404
   443.8,0.002439,0.001626,0.019372,0.000001,  39.404
   444.0,0.002428,0.001616,0.019293,0.000037,  39.409
   444.2,0.002414,0.001610,0.019204,0.000001,  39.405
   444.4,0.002412,0.001608,0.019166,0.000037,  39.411
   444.6,0.002407,0.001600,0.019122,0.000037,  39.413
   444.8,0.002393,0.001598,0.019094,0.000001,  39.413
   445.0,0.002389,0.001592,0.019010,0.000001,  39.416
   445.2,0.002383,0.001582,0.018899,0.000037,  39.415
   445.4,0.002366,0.001570,0.018784,0.000001,  39.415
   445.6,0.002360,0.001562,0.018715,0.000001,  39.417
   445.8,0.002352,0.001554,0.018631,0.000037,  39.418
   446.0,0.002337,0.001550,0.018583,0.000001,  39.426
   446.2,0.002331,0.001550,0.018525,0.000001,  39.426
   446.4,0.002323,0.001539,0.018466,0.000037,  39.423
   446.6,0.002308,0.001532,0.018418,0.000001,  39.427
   446.8,0.002302,0.001522,0.018364,0.000001,  39.429
   447.0,0.002291,0.001514,0.018315,0.000037,  39.427
   447.2,0.002277,0.001509,0.018267,0.000001,  39.431
   447.4,0.002270,0.001507,0.018224,0.000001,  39.431
   447.6,0.002256,0.001501,0.018165,0.000037,  39.431
   447.8,0.002243,0.001498,0.018102,0.000001,  39.436
   448.0,0.002232,0.001493,0.018017,0.000001,  39.437
   448.2,0.002218,0.001485,0.017927,0.000024,  39.438
   448.4,0.002214,0.001479,0.017822,0.000001,  39.440
   448.6,0.002201,0.001473,0.017733,0.000001,  39.440
   448.8,0.002193,0.001468,0.017638,0.000024,  39.433
   449.0,0.002187,0.001465,0.017559,0.000001,  39.440
   449.2,0.002173,0.001464,0.017299,-0.000012,  39.435
   449.4,0.002174,0.001458,0.016940,0.000010,  39.436
   449.6,0.002160,0.001454,0.016472,-0.000012,  39.434
   449.8,0.002149,0.001442,0.016403,-0.000025,  39.438
   450.0,0.002148,0.001433,0.016484,0.000010,  39.436
   450.2,0.002131,0.001431,0.016705,-0.000012,  39.435
   450.4,0.002127,0.001427,0.016694,-0.000025,  39.437
   450.6,0.002119,0.001419,0.016641,0.000010,  39.436
   450.8,0.002107,0.001413,0.016532,-0.000012,  39.436
   451.0,0.002103,0.001407,0.016536,-0.000025,  39.435
   451.2,0.002093,0.001399,0.016580,0.000010,  39.436
   451.4,0.002081,0.001397,0.016651,-0.000012,  39.432
   451.6,0.002079,0.001393,0.016640,-0.000025,  39.432
   451.8,0.002072,0.001384,0.016619,0.000010,  39.433
   452.0,0.002057,0.001374,0.016539,0.000010,  39.434
   452.2,0.002053,0.001364,0.016461,-0.000012,  39.430
   452.4,0.002040,0.001361,0.016398,-0.000038,  39.430
   452.6,0.002026,0.001354,0.016324,-0.000003,  39.430
   452.8,0.002027,0.001346,0.016267,-0.000038,  39.426
   453.0,0.002016,0.001342,0.016032,-0.000003,  39.422
   453.2,0.002002,0.001334,0.015715,-0.000003,  39.425
   453.4,0.002001,0.001329,0.015317,-0.000025,  39.429
   453.6,0.001987,0.001321,0.015222,-0.000025,  39.423
   453.8,0.001970,0.001310,0.015247,0.000010,  39.431
   454.0,0.001966,0.001307,0.015391,-0.000012,  39.425
   454.2,0.001953,0.001306,0.015410,-0.000025,  39.428
   454.4,0.001939,0.001297,0.015424,0.000010,  39.432
   454.6,0.001935,0.001296,0.015439,-0.000012,  39.427
   454.8,0.001930,0.001297,0.015416,-0.000025,  39.429
   455.0,0.001924,0.001293,0.015374,0.000010,  39.429
   455.2,0.001914,0.001289,0.015296,-0.000012,  39.429
   455.4,0.001912,0.001287,0.015227,-0.000025,  39.433
   455.6,0.001907,0.001286,0.015170,-0.000003,  39.433
   455.8,0.001890,0.001278,0.015091,-0.000025,  39.430
   456.0,0.001889,0.001267,0.015063,-0.000025,  39.433
   456.2,0.001883,0.001253,0.015062,-0.000003,  39.433
   456.4,0.001869,0.001251,0.015077,-0.000025,  39.432
   456.6,0.001868,0.001251,0.015054,-0.000025,  39.431
   456.8,0.001862,0.001248,0.015007,-0.000003,  39.433
   457.0,0.001845,0.001244,0.014965,-0.000025,  39.431
   457.2,0.001841,0.001243,0.014927,-0.000025,  39.435
   457.4,0.001836,0.001236,0.014869,-0.000003,  39.439
   457.6,0.001822,0.001232,0.014816,-0.000025,  39.436
   457.8,0.001826,0.001223,0.014747,-0.000025,  39.438
   458.0,0.001818,0.001216,0.014674,-0.000003,  39.444
   458.2,0.001806,0.001208,0.014601,-0.000025,  39.443
   458.4,0.001802,0.001208,0.014564,-0.000025,  39.446
   458.6,0.001794,0.001204,0.014531,-0.000003,  39.445
   458.8,0.001782,0.001194,0.014530,-0.000025,  39.450
   459.0,0.001774,0.001193,0.014411,-0.000025,  39.446
   459.2,0.001767,0.001189,0.014226,-0.000003,  39.448
   459.4,0.001755,0.001183,0.013994,-0.000025,  39.454
   459.6,0.001753,0.001182,0.013921,-0.000025,  39.463
   459.8,0.001743,0.001176,0.013899,0.000010,  39.464
   460.0,0.001731,0.001168,0.013928,-0.000012,  39.464
   460.2,0.001730,0.001165,0.013921,-0.000025,  39.470
   460.4,0.001719,0.001161,0.013914,0.000010,  39.468
   460.6,0.001708,0.001150,0.013913,0.000010,  39.468
   460.8,0.001706,0.001146,0.013865,-0.000012,  39.466
   461.0,0.001696,0.001145,0.013792,-0.000025,  39.472
   461.2,0.001687,0.001142,0.013705,0.000010,  39.473
   461.4,0.001685,0.001136,0.013591,-0.000025,  39.476
   461.6,0.001677,0.001137,0.013529,0.000010,  39.476
   461.8,0.001669,0.001131,0.013487,0.000010,  39.471
   462.0,0.001661,0.001119,0.013439,-0.000012,  39.478
   462.2,0.001657,0.001113,0.013381,0.000010,  39.477
   462.4,0.001649,0.001105,0.013324,0.000033,  39.478
   462.6,0.001642,0.001100,0.013246,0.000010,  39.480
   462.8,0.001643,0.001094,0.013147,0.000046,  39.475
   463.0,0.001637,0.001087,0.013049,0.000033,  39.480
   463.2,0.001632,0.001085,0.012920,0.000010,  39.481
   463.4,0.001622,0.001083,0.012847,0.000046,  39.479
   463.6,0.001614,0.001080,0.012790,0.000033,  39.479
   463.8,0.001609,0.001074,0.012742,0.000010,  39.480
   464.0,0.001601,0.001066,0.012710,0.000010,  39.480
   464.2,0.001593,0.001059,0.012688,0.000010,  39.480
   464.4,0.001585,0.001059,0.012676,-0.000012,  39.477
   464.6,0.001577,0.001057,0.012628,-0.000025,  39.474
   464.8,0.001569,0.001053,0.012586,0.000010,  39.473
   465.0,0.001561,0.001049,0.012514,-0.000012,  39.476
   465.2,0.001560,0.001044,0.012467,-0.000025,  39.472
   465.4,0.001552,0.001043,0.012435,0.000010,  39.475
   465.6,0.001540,0.001040,0.012398,-0.000012,  39.472
   465.8,0.001539,0.001034,0.012340,-0.000025,  39.473
   466.0,0.001531,0.001026,0.012294,-0.000003,  39.477
   466.2,0.001526,0.001024,0.012221,-0.000038,  39.473
   466.4,0.001520,0.001027,0.012188,-0.000038,  39.467
   466.6,0.001515,0.001021,0.012182,-0.000029,  39.469
   466.8,0.001506,0.001013,0.012171,-0.000064,  39.468
   467.0,0.001503,0.001010,0.012149,-0.000051,  39.470
   467.2,0.001501,0.001004,0.012137,-0.000029,  39.464
   467.4,0.001496,0.001001,0.012110,-0.000064,  39.465
   467.6,0.001493,0.001001,0.012018,-0.000051,  39.461
   467.8,0.001485,0.000995,0.011884,-0.000029,  39.462
   468.0,0.001477,0.000990,0.011721,-0.000064,  39.462
   468.2,0.001472,0.000988,0.011683,-0.000051,  39.461
   468.4,0.001461,0.000980,0.011687,-0.000029,  39.459
   468.6,0.001456,0.000976,0.011741,-0.000064,  39.458
   468.8,0.001451,0.000976,0.011751,-0.000051,  39.457
   469.0,0.001446,0.000966,0.011729,-0.000029,  39.455
   469.2,0.001440,0.000963,0.011707,-0.000064,  39.452
   469.4,0.001433,0.000962,0.011686,-0.000051,  39.454
   469.6,0.001427,0.000954,0.011638,-0.000029,  39.449
   469.8,0.001422,0.000951,0.011613,-0.000029,  39.448
   470.0,0.001413,0.000957,0.011546,-0.000064,  39.435
   470.2,0.001408,0.000955,0.011453,-0.000064,  39.437
   470.4,0.001405,0.000946,0.011320,-0.000029,  39.439
   470.6,0.001403,0.000942,0.011167,-0.000064,  39.435
   470.8,0.001404,0.000940,0.011089,-0.000029,  39.433
   471.0,0.001400,0.000938,0.011049,-0.000029,  39.434
   471.2,0.001402,0.000941,0.011002,-0.000051,  39.433
   471.4,0.001399,0.000941,0.011001,-0.000051,  39.432
   471.6,0.001399,0.000936,0.011040,-0.000016,  39.426
   471.8,0.001402,0.000940,0.011105,-0.000038,  39.429
   472.0,0.001394,0.000940,0.011074,-0.000051,  39.426
   472.2,0.001390,0.000937,0.011002,-0.000016,  39.427
   472.4,0.001390,0.000936,0.010905,-0.000038,  39.429
   472.6,0.001390,0.000932,0.010869,-0.000051,  39.425
   472.8,0.001386,0.000932,0.010823,-0.000016,  39.427
   473.0,0.001377,0.000933,0.010787,-0.000038,  39.420
   473.2,0.001372,0.000936,0.010720,-0.000051,  39.424
   473.4,0.001372,0.000936,0.010638,-0.000016,  39.424
   473.6,0.001363,0.000929,0.010546,-0.000038,  39.419
   473.8,0.001355,0.000926,0.010535,-0.000051,  39.418
   474.0,0.001353,0.000923,0.010580,-0.000016,  39.422
   474.2,0.001341,0.000928,0.010655,-0.000038,  39.417
   474.4,0.001339,0.000924,0.010271,-0.000038,  39.414
   474.6,0.001337,0.000917,0.009676,-0.000003,  39.420
   474.8,0.001328,0.000922,0.008874,-0.000025,  39.417
   475.0,0.001332,0.000920,0.008878,-0.000025,  39.417
   475.2,0.001329,0.000916,0.009161,-0.000003,  39.418
   475.4,0.001320,0.000916,0.009739,-0.000025,  39.417
   475.6,0.001318,0.000911,0.009892,-0.000025,  39.414
   475.8,0.001316,0.000909,0.009972,0.000010,  39.414
   476.0,0.001307,0.000908,0.009998,-0.000012,  39.412
   476.2,0.001314,0.000902,0.010047,-0.000025,  39.412
   476.4,0.001312,0.000896,0.010086,0.000010,  39.414
   476.6,0.001300,0.000894,0.010133,-0.000012,  39.411
   476.8,0.001295,0.000890,0.010173,-0.000025,  39.409
   477.0,0.001291,0.000884,0.010187,0.000010,  39.410
   477.2,0.001285,0.000882,0.010196,-0.000012,  39.406
   477.4,0.001280,0.000876,0.010211,-0.000025,  39.410
   477.6,0.001275,0.000874,0.010205,0.000010,  39.413
   477.8,0.001272,0.000870,0.010184,-0.000012,  39.408
   478.0,0.001267,0.000866,0.010173,-0.000038,  39.405
   478.2,0.001265,0.000864,0.010172,-0.000016,  39.411
   478.4,0.001262,0.000862,0.010172,-0.000038,  39.408
   478.6,0.001253,0.000858,0.010140,-0.000051,  39.410
   478.8,0.001248,0.000857,0.010094,-0.000016,  39.410
   479.0,0.001245,0.000850,0.010033,-0.000016,  39.414
   479.2,0.001236,0.000850,0.010002,-0.000038,  39.411
   479.4,0.001237,0.000845,0.009977,-0.000051,  39.410
   479.6,0.001234,0.000844,0.009966,-0.000003,  39.409
   479.8,0.001225,0.000846,0.009945,-0.000038,  39.407
   480.0,0.001227,0.000843,0.009884,-0.000003,  39.408
   480.2,0.001220,0.000846,0.009798,-0.000016,  39.408
   480.4,0.001215,0.000844,0.009707,-0.000038,  39.408
   480.6,0.001215,0.000837,0.009675,-0.000038,  39.410
   480.8,0.001206,0.000838,0.009680,-0.000003,  39.408
   481.0,0.001207,0.000834,0.009689,-0.000025,  39.409
   481.2,0.001202,0.000832,0.009698,-0.000025,  39.408
   481.4,0.001197,0.000827,0.009723,-0.000003,  39.405
   481.6,0.001191,0.000834,0.009736,-0.000025,  39.405
   481.8,0.001192,0.000834,0.009680,-0.000025,  39.405
   482.0,0.001190,0.000831,0.009587,-0.000003,  39.405
   482.2,0.001181,0.000829,0.009456,-0.000025,  39.406
   482.4,0.001182,0.000823,0.009410,-0.000025,  39.405
   482.6,0.001179,0.000821,0.009373,-0.000003,  39.399
   482.8,0.001170,0.000820,0.009363,-0.000025,  39.405
   483.0,0.001171,0.000816,0.009372,-0.000025,  39.398
   483.2,0.001169,0.000810,0.009391,-0.000003,  39.401
   483.4,0.001160,0.000808,0.009421,-0.000025,  39.402
   483.6,0.001161,0.000808,0.009187,-0.000025,  39.394
   483.8,0.001158,0.000805,0.008796,0.000010,  39.397
   484.0,0.001149,0.000806,0.008269,-0.000012,  39.395
   484.2,0.001153,0.000808,0.008227,-0.000025,  39.395
   484.4,0.001153,0.000806,0.008364,0.000010,  39.394
   484.6,0.001141,0.000804,0.008657,-0.000012,  39.395
   484.8,0.001140,0.000799,0.008732,-0.000025,  39.391
   485.0,0.001137,0.000795,0.008797,0.000010,  39.394
   485.2,0.001126,0.000794,0.008848,-0.000012,  39.392
   485.4,0.001127,0.000789,0.008806,-0.000025,  39.392
   485.6,0.001119,0.000778,0.008736,0.000010,  39.389
   485.8,0.001107,0.000779,0.008620,-0.000012,  39.390
   486.0,0.001106,0.000771,0.008644,-0.000025,  39.386
   486.2,0.001107,0.000762,0.008725,0.000010,  39.390
   486.4,0.001102,0.000757,0.008850,-0.000012,  39.389
   486.6,0.001093,0.000755,0.008864,-0.000025,  39.387
   486.8,0.001087,0.000750,0.008847,0.000010,  39.387
   487.0,0.001087,0.000746,0.008785,-0.000012,  39.386
   487.2,0.001076,0.000748,0.008779,-0.000025,  39.388
   487.4,0.001080,0.000749,0.008769,0.000010,  39.385
   487.6,0.001073,0.000750,0.008759,-0.000012,  39.384
   487.8,0.001068,0.000749,0.008757,-0.000025,  39.383
   488.0,0.001063,0.000747,0.008752,0.000010,  39.387
   488.2,0.001060,0.000749,0.008735,-0.000012,  39.382
   488.4,0.001055,0.000744,0.008730,-0.000025,  39.381
   488.6,0.001056,0.000742,0.008718,-0.000003,  39.379
   488.8,0.001053,0.000740,0.008723,-0.000003,  39.383
   489.0,0.001044,0.000737,0.008717,-0.000025,  39.382
   489.2,0.001051,0.000731,0.008635,-0.000038,  39.385
   489.4,0.001048,0.000725,0.008540,-0.000003,  39.385
   489.6,0.001039,0.000723,0.008409,-0.000038,  39.386
   489.8,0.001043,0.000714,0.008378,0.000010,  39.385
   490.0,0.001034,0.000715,0.008372,0.000010,  39.392
   490.2,0.001029,0.000717,0.008397,-0.000012,  39.394
   490.4,0.001026,0.000713,0.008387,-0.000003,  39.389
   490.6,0.001020,0.000711,0.008345,0.000020,  39.385
   490.8,0.001021,0.000718,0.008305,-0.000003,  39.390
   491.0,0.001015,0.000716,0.008325,0.000020,  39.394
   491.2,0.001013,0.000717,0.008353,0.000020,  39.394
   491.4,0.001013,0.000713,0.008419,-0.000003,  39.396
   491.6,0.001019,0.000714,0.007846,-0.000003,  39.398
   491.8,0.001010,0.000712,0.006976,0.000010,  39.397
   492.0,0.001008,0.000712,0.005798,-0.000012,  39.393
   492.2,0.001008,0.000714,0.005752,-0.000025,  39.398
   492.4,0.001001,0.000716,0.006124,0.000010,  39.399
   492.6,0.001002,0.000717,0.006900,-0.000012,  39.400
   492.8,0.000997,0.000713,0.007116,-0.000025,  39.401
   493.0,0.000997,0.000715,0.007258,0.000010,  39.401
   493.2,0.000994,0.000713,0.007308,-0.000012,  39.401
   493.4,0.000998,0.000707,0.007439,-0.000025,  39.402
   493.6,0.000996,0.000701,0.007559,0.000010,  39.398
   493.8,0.000987,0.000699,0.007664,-0.000012,  39.400
   494.0,0.000988,0.000697,0.007719,-0.000025,  39.402
   494.2,0.000985,0.000690,0.007749,0.000010,  39.401
   494.4,0.000976,0.000688,0.007739,-0.000012,  39.403
   494.6,0.000977,0.000693,0.007713,-0.000025,  39.402
   494.8,0.000975,0.000693,0.007668,0.000010,  39.405
   495.0,0.000968,0.000689,0.007592,-0.000012,  39.408
   495.2,0.000972,0.000685,0.007454,-0.000025,  39.408
   495.4,0.000969,0.000687,0.007282,0.000010,  39.411
   495.6,0.000967,0.000684,0.007081,-0.000012,  39.407
   495.8,0.000958,0.000686,0.007025,0.000010,  39.408
   496.0,0.000959,0.000689,0.007025,0.000046,  39.414
   496.2,0.000956,0.000685,0.007086,0.000024,  39.409
   496.4,0.000947,0.000682,0.007130,0.000046,  39.406
   496.6,0.000948,0.000684,0.007175,0.000046,  39.413
   496.8,0.000943,0.000680,0.007240,0.000024,  39.410
   497.0,0.000934,0.000675,0.007314,0.000046,  39.408
   497.2,0.000935,0.000666,0.007399,0.000046,  39.411
   497.4,0.000933,0.000667,0.007484,0.000024,  39.410
   497.6,0.000930,0.000666,0.007518,0.000046,  39.415
   497.8,0.000931,0.000658,0.007533,0.000046,  39.414
   498.0,0.000929,0.000655,0.007527,0.000046,  39.409
   498.2,0.000926,0.000659,0.007497,0.000024,  39.407
   498.4,0.000923,0.000656,0.007512,0.000046,  39.416
   498.6,0.000923,0.000651,0.007511,0.000046,  39.412
   498.8,0.000921,0.000654,0.007520,0.000010,  39.413
   499.0,0.000919,0.000653,0.007509,0.000046,  39.416
   499.2,0.000917,0.000656,0.007468,0.000046,  39.414
   499.4,0.000910,0.000652,0.007407,0.000024,  39.418
   499.6,0.000905,0.000647,0.007347,0.000046,  39.422
   499.8,0.000902,0.000643,0.007292,0.000046,  39.423
   500.0,0.000893,0.000637,0.007196,0.000024,  39.424
   500.2,0.000888,0.000633,0.007205,0.000046,  39.424
   500.4,0.000885,0.000627,0.007254,0.000046,  39.424
   500.6,0.000874,0.000625,0.007344,0.000024,  39.426
   500.8,0.000870,0.000626,0.007329,0.000046,  39.429
   501.0,0.000867,0.000621,0.007263,0.000046,  39.429
   501.2,0.000858,0.000623,0.007168,0.000024,  39.426
   501.4,0.000862,0.000618,0.007117,0.000046,  39.429
   501.6,0.000859,0.000616,0.007061,0.000033,  39.432
   501.8,0.000850,0.000609,0.006995,0.000010,  39.434
   502.0,0.000851,0.000609,0.007010,0.000010,  39.432
   502.2,0.000851,0.000609,0.007054,-0.000003,  39.432
   502.4,0.000846,0.000607,0.007118,-0.000025,  39.435
   502.6,0.000850,0.000603,0.007087,-0.000025,  39.434
   502.8,0.000850,0.000601,0.007010,0.000010,  39.434
   503.0,0.000850,0.000597,0.006910,-0.000012,  39.434
   503.2,0.000847,0.000595,0.006863,-0.000025,  39.429
   503.4,0.000845,0.000591,0.006832,0.000010,  39.433
   503.6,0.000836,0.000589,0.006821,-0.000012,  39.436
   503.8,0.000830,0.000594,0.006816,-0.000025,  39.434
   504.0,0.000828,0.000592,0.006810,0.000010,  39.432
   504.2,0.000816,0.000588,0.006804,-0.000012,  39.434
   504.4,0.000820,0.000585,0.006818,-0.000025,  39.436
   504.6,0.000817,0.000583,0.006847,0.000010,  39.434
   504.8,0.000811,0.000581,0.006877,-0.000012,  39.435
   505.0,0.000815,0.000579,0.006865,-0.000025,  39.434
   505.2,0.000815,0.000579,0.006840,0.000010,  39.435
   505.4,0.000806,0.000579,0.006800,-0.000012,  39.434
   505.6,0.000803,0.000577,0.006769,-0.000025,  39.439
   505.8,0.000800,0.000580,0.006728,0.000010,  39.440
   506.0,0.000798,0.000582,0.006692,-0.000012,  39.441
   506.2,0.000792,0.000583,0.006697,-0.000025,  39.441
   506.4,0.000796,0.000581,0.006685,0.000010,  39.443
   506.6,0.000794,0.000577,0.006700,-0.000012,  39.444
   506.8,0.000788,0.000566,0.006644,-0.000025,  39.448
   507.0,0.000787,0.000562,0.006569,0.000010,  39.448
   507.2,0.000784,0.000557,0.006464,-0.000012,  39.450
   507.4,0.000779,0.000550,0.006428,-0.000025,  39.458
   507.6,0.000774,0.000545,0.006407,0.000010,  39.466
   507.8,0.000771,0.000539,0.006412,0.000010,  39.457
   508.0,0.000769,0.000539,0.006431,-0.000012,  39.466
   508.2,0.000763,0.000531,0.006409,-0.000025,  39.463
   508.4,0.000763,0.000531,0.006383,0.000010,  39.463
   508.6,0.000758,0.000528,0.006357,-0.000025,  39.459
   508.8,0.000755,0.000524,0.006169,-0.000003,  39.466
   509.0,0.000755,0.000522,0.005918,-0.000003,  39.467
   509.2,0.000746,0.000522,0.005555,-0.000025,  39.462
   509.4,0.000741,0.000520,0.005514,-0.000025,  39.465
   509.6,0.000739,0.000520,0.005579,0.000010,  39.465
   509.8,0.000727,0.000520,0.005755,-0.000012,  39.466
   510.0,0.000725,0.000514,0.005663,-0.000025,  39.464
   510.2,0.000723,0.000518,0.005472,-0.000003,  39.463
   510.4,0.000711,0.000509,0.005201,-0.000025,  39.466
   510.6,0.000715,0.000516,0.005239,-0.000038,  39.465
   510.8,0.000712,0.000516,0.005384,-0.000016,  39.465
   511.0,0.000703,0.000514,0.005649,-0.000038,  39.469
   511.2,0.000707,0.000510,0.005694,-0.000051,  39.468
   511.4,0.000707,0.000513,0.005683,-0.000016,  39.466
   511.6,0.000698,0.000507,0.005618,-0.000051,  39.464
   511.8,0.000707,0.000503,0.005629,-0.000051,  39.469
   512.0,0.000710,0.000506,0.005643,-0.000029,  39.463
   512.2,0.000698,0.000504,0.005648,-0.000064,  39.467
   512.4,0.000702,0.000502,0.005698,-0.000051,  39.467
   512.6,0.000704,0.000496,0.005757,-0.000029,  39.467
   512.8,0.000695,0.000498,0.005827,-0.000064,  39.466
   513.0,0.000702,0.000502,0.005841,-0.000029,  39.465
   513.2,0.000702,0.000499,0.005821,-0.000006,  39.466
   513.4,0.000695,0.000498,0.005766,-0.000042,  39.463
   513.6,0.000699,0.000502,0.005771,0.000007,  39.467
   513.8,0.000697,0.000500,0.005780,0.000007,  39.464
   514.0,0.000690,0.000504,0.005794,-0.000016,  39.464
   514.2,0.000694,0.000505,0.005739,0.000020,  39.466
   514.4,0.000691,0.000500,0.005659,0.000020,  39.463
   514.6,0.000682,0.000503,0.005533,-0.000003,  39.470
   514.8,0.000689,0.000505,0.005513,0.000033,  39.465
   515.0,0.000686,0.000503,0.005523,0.000033,  39.467
   515.2,0.000686,0.000502,0.005573,0.000010,  39.469
   515.4,0.000680,0.000501,0.005582,0.000046,  39.470
   515.6,0.000686,0.000503,0.005603,0.000033,  39.471
   515.8,0.000689,0.000501,0.005607,0.000010,  39.471
   516.0,0.000677,0.000500,0.005627,0.000046,  39.474
   516.2,0.000678,0.000495,0.005646,0.000033,  39.470
   516.4,0.000678,0.000493,0.005665,0.000010,  39.470
   516.6,0.000669,0.000489,0.005544,0.000046,  39.473
   516.8,0.000670,0.000484,0.005338,0.000033,  39.474
   517.0,0.000670,0.000486,0.005057,0.000033,  39.470
   517.2,0.000664,0.000489,0.004976,0.000010,  39.473
   517.4,0.000668,0.000492,0.004961,0.000033,  39.470
   517.6,0.000668,0.000494,0.005016,0.000033,  39.470
   517.8,0.000661,0.000493,0.005132,-0.000003,  39.471
   518.0,0.000668,0.000492,0.005201,0.000033,  39.470
   518.2,0.000668,0.000493,0.005291,-0.000003,  39.471
   518.4,0.000661,0.000486,0.005396,-0.000025,  39.470
   518.6,0.000668,0.000484,0.005400,-0.000025,  39.472
   518.8,0.000665,0.000481,0.005355,-0.000003,  39.467
   519.0,0.000656,0.000481,0.005260,-0.000025,  39.471
   519.2,0.000657,0.000477,0.005290,-0.000025,  39.468
   519.4,0.000657,0.000479,0.005344,-0.000003,  39.465
   519.6,0.000648,0.000472,0.005434,-0.000025,  39.468
   519.8,0.000655,0.000479,0.005433,-0.000025,  39.467
   520.0,0.000655,0.000478,0.005418,-0.000003,  39.465
   520.2,0.000652,0.000475,0.005358,-0.000025,  39.461
   520.4,0.000653,0.000470,0.005312,-0.000025,  39.465
   520.6,0.000651,0.000470,0.005258,-0.000038,  39.461
   520.8,0.000651,0.000469,0.005188,-0.000025,  39.464
   521.0,0.000648,0.000466,0.005138,-0.000025,  39.467
   521.2,0.000645,0.000463,0.005098,-0.000038,  39.464
   521.4,0.000640,0.000467,0.005059,-0.000025,  39.464
   521.6,0.000637,0.000466,0.005033,-0.000025,  39.462
   521.8,0.000637,0.000462,0.005013,-0.000038,  39.457
   522.0,0.000635,0.000464,0.005003,-0.000025,  39.465
   522.2,0.000632,0.000461,0.005016,-0.000025,  39.459
   522.4,0.000632,0.000456,0.005046,-0.000038,  39.459
   522.6,0.000630,0.000458,0.005090,-0.000025,  39.460
   522.8,0.000627,0.000460,0.005124,-0.000025,  39.457
   523.0,0.000624,0.000457,0.005164,-0.000038,  39.460
   523.2,0.000621,0.000460,0.005199,-0.000025,  39.456
   523.4,0.000624,0.000458,0.005189,-0.000025,  39.461
   523.6,0.000624,0.000453,0.005153,-0.000038,  39.458
   523.8,0.000618,0.000458,0.005099,-0.000025,  39.457
   524.0,0.000618,0.000454,0.005034,-0.000025,  39.460
   524.2,0.000619,0.000451,0.004944,-0.000038,  39.456
   524.4,0.000622,0.000459,0.004834,-0.000025,  39.459
   524.6,0.000616,0.000460,0.004837,-0.000025,  39.454
   524.8,0.000614,0.000455,0.004902,-0.000038,  39.455
   525.0,0.000614,0.000457,0.005011,-0.000025,  39.454
   525.2,0.000611,0.000451,0.005020,-0.000025,  39.455
   525.4,0.000606,0.000445,0.004999,-0.000038,  39.457
   525.6,0.000603,0.000445,0.004939,-0.000038,  39.455
   525.8,0.000597,0.000440,0.004808,-0.000025,  39.459
   526.0,0.000592,0.000434,0.004627,-0.000038,  39.456
   526.2,0.000592,0.000434,0.004386,-0.000038,  39.457
   526.4,0.000580,0.000428,0.004085,-0.000038,  39.455
   526.6,0.000584,0.000422,0.004109,-0.000038,  39.449
   526.8,0.000587,0.000423,0.004244,-0.000051,  39.451
   527.0,0.000577,0.000425,0.004458,-0.000038,  39.449
   527.2,0.000584,0.000423,0.004553,-0.000038,  39.452
   527.4,0.000584,0.000420,0.004617,-0.000038,  39.447
   527.6,0.000575,0.000422,0.004667,-0.000025,  39.446
   527.8,0.000579,0.000424,0.004672,-0.000025,  39.447
   528.0,0.000576,0.000419,0.004642,-0.000003,  39.448
   528.2,0.000567,0.000421,0.004557,-0.000025,  39.445
   528.4,0.000568,0.000421,0.004560,-0.000025,  39.446
   528.6,0.000562,0.000421,0.004610,-0.000003,  39.446
   528.8,0.000559,0.000417,0.004659,-0.000025,  39.448
   529.0,0.000559,0.000412,0.004658,-0.000025,  39.443
   529.2,0.000553,0.000406,0.004653,-0.000003,  39.446
   529.4,0.000554,0.000405,0.004618,-0.000025,  39.444
   529.6,0.000549,0.000411,0.004587,-0.000025,  39.440
   529.8,0.000550,0.000407,0.004558,-0.000003,  39.440
   530.0,0.000559,0.000409,0.004497,-0.000025,  39.439
   530.2,0.000565,0.000411,0.004512,-0.000038,  39.440
   530.4,0.000565,0.000409,0.004542,-0.000016,  39.440
   530.6,0.000567,0.000409,0.004602,-0.000051,  39.439
   530.8,0.000562,0.000413,0.004606,-0.000016,  39.436
   531.0,0.000559,0.000413,0.004592,0.000007,  39.429
   531.2,0.000561,0.000408,0.004546,-0.000016,  39.427
   531.4,0.000555,0.000408,0.004525,0.000020,  39.427
   531.6,0.000555,0.000404,0.004511,0.000020,  39.425
   531.8,0.000557,0.000406,0.004486,-0.000003,  39.430
   532.0,0.000555,0.000405,0.004515,0.000020,  39.425
   532.2,0.000555,0.000400,0.004565,0.000020,  39.429
   532.4,0.000557,0.000407,0.004640,-0.000016,  39.430
   532.6,0.000548,0.000409,0.004640,0.000020,  39.433
   532.8,0.000555,0.000408,0.004615,0.000007,  39.430
   533.0,0.000557,0.000415,0.004565,-0.000029,  39.435
   533.2,0.000548,0.000415,0.004555,0.000020,  39.437
   533.4,0.000555,0.000414,0.004540,0.000007,  39.442
   533.6,0.000557,0.000416,0.004530,-0.000029,  39.444
   533.8,0.000548,0.000411,0.004484,0.000020,  39.446
   534.0,0.000548,0.000411,0.004415,0.000007,  39.442
   534.2,0.000551,0.000414,0.004331,-0.000029,  39.449
   534.4,0.000542,0.000417,0.004311,0.000020,  39.445
   534.6,0.000539,0.000412,0.004315,0.000007,  39.442
   534.8,0.000542,0.000414,0.004345,0.000007,  39.442
   535.0,0.000533,0.000414,0.004399,-0.000029,  39.436
   535.2,0.000537,0.000407,0.004379,0.000020,  39.429
   535.4,0.000537,0.000406,0.004329,0.000020,  39.429
   535.6,0.000528,0.000406,0.004264,-0.000016,  39.425
   535.8,0.000531,0.000397,0.004274,0.000020,  39.420
   536.0,0.000529,0.000398,0.004299,0.000020,  39.423
   536.2,0.000526,0.000403,0.004339,-0.000003,  39.419
   536.4,0.000527,0.000400,0.004309,-0.000016,  39.415
   536.6,0.000527,0.000395,0.004245,-0.000016,  39.418
   536.8,0.000527,0.000397,0.004155,-0.000038,  39.412
   537.0,0.000527,0.000393,0.004120,-0.000051,  39.411
   537.2,0.000530,0.000394,0.004099,-0.000016,  39.406
   537.4,0.000530,0.000393,0.004110,-0.000051,  39.408
   537.6,0.000530,0.000395,0.004058,-0.000051,  39.403
   537.8,0.000530,0.000397,0.004014,-0.000029,  39.397
   538.0,0.000530,0.000394,0.003966,-0.000051,  39.395
   538.2,0.000527,0.000392,0.003935,-0.000051,  39.400
   538.4,0.000530,0.000389,0.003925,-0.000016,  39.396
   538.6,0.000527,0.000389,0.003914,-0.000038,  39.389
   538.8,0.000522,0.000392,0.003964,-0.000051,  39.385
   539.0,0.000525,0.000391,0.004033,-0.000016,  39.390
   539.2,0.000522,0.000391,0.004107,-0.000038,  39.394
   539.4,0.000520,0.000394,0.004157,-0.000051,  39.387
   539.6,0.000520,0.000389,0.004197,-0.000016,  39.382
   539.8,0.000514,0.000387,0.004216,-0.000038,  39.385
   540.0,0.000509,0.000388,0.004231,-0.000051,  39.385
   540.2,0.000504,0.000383,0.004220,-0.000016,  39.385
   540.4,0.000497,0.000380,0.004200,-0.000038,  39.384
   540.6,0.000501,0.000384,0.004169,-0.000051,  39.384
   540.8,0.000499,0.000380,0.004123,-0.000016,  39.380
   541.0,0.000492,0.000374,0.004059,-0.000051,  39.384
   541.2,0.000490,0.000375,0.004049,-0.000051,  39.381
   541.4,0.000491,0.000374,0.004038,-0.000029,  39.389
   541.6,0.000491,0.000368,0.004033,-0.000064,  39.383
   541.8,0.000491,0.000369,0.003566,-0.000051,  39.385
   542.0,0.000488,0.000369,0.002876,-0.000029,  39.381
   542.2,0.000485,0.000369,0.001939,-0.000064,  39.380
   542.4,0.000483,0.000364,0.001884,-0.000051,  39.378
   542.6,0.000478,0.000364,0.002148,-0.000029,  39.377
   542.8,0.000475,0.000359,0.002726,-0.000064,  39.378
   543.0,0.000470,0.000351,0.002920,-0.000051,  39.381
   543.2,0.000467,0.000347,0.003074,-0.000029,  39.376
   543.4,0.000467,0.000347,0.003199,-0.000029,  39.377
   543.6,0.000464,0.000350,0.003272,-0.000064,  39.376
   543.8,0.000462,0.000345,0.003117,-0.000064,  39.377
   544.0,0.000462,0.000342,0.002832,-0.000029,  39.371
   544.2,0.000464,0.000347,0.002443,-0.000064,  39.379
   544.4,0.000464,0.000344,0.002501,-0.000029,  39.378
   544.6,0.000462,0.000344,0.002735,-0.000029,  39.373
   544.8,0.000462,0.000342,0.003139,-0.000064,  39.373
   545.0,0.000459,0.000336,0.003253,-0.000051,  39.377
   545.2,0.000457,0.000340,0.003293,-0.000029,  39.372
   545.4,0.000457,0.000340,0.003284,-0.000064,  39.373
   545.6,0.000457,0.000340,0.003149,-0.000051,  39.373
   545.8,0.000459,0.000336,0.002893,-0.000029,  39.372
   546.0,0.000459,0.000347,0.002550,-0.000064,  39.371
   546.2,0.000457,0.000345,0.002550,-0.000051,  39.373
   546.4,0.000459,0.000347,0.002669,-0.000029,  39.378
   546.6,0.000457,0.000344,0.002909,-0.000064,  39.376
   546.8,0.000454,0.000344,0.003013,-0.000051,  39.375
   547.0,0.000457,0.000340,0.003102,-0.000029,  39.377
   547.2,0.000457,0.000342,0.003202,-0.000051,  39.377
   547.4,0.000459,0.000341,0.003306,-0.000051,  39.377
   547.6,0.000459,0.000338,0.003390,-0.000016,  39.374
   547.8,0.000459,0.000336,0.003489,-0.000038,  39.374
   548.0,0.000459,0.000342,0.003558,-0.000051,  39.377
   548.2,0.000459,0.000339,0.003614,-0.000016,  39.374
   548.4,0.000459,0.000342,0.003654,-0.000038,  39.376
   548.6,0.000459,0.000342,0.003673,-0.000051,  39.374
   548.8,0.000459,0.000340,0.003693,-0.000016,  39.376
   549.0,0.000457,0.000344,0.003683,-0.000038,  39.375
   549.2,0.000451,0.000343,0.003713,-0.000051,  39.373
   549.4,0.000451,0.000343,0.003758,-0.000016,  39.376
   549.6,0.000445,0.000345,0.003787,-0.000038,  39.377
   549.8,0.000451,0.000346,0.003792,-0.000051,  39.375
   550.0,0.000451,0.000340,0.003767,-0.000016,  39.374
   550.2,0.000445,0.000342,0.003727,-0.000051,  39.371
   550.4,0.000445,0.000343,0.003542,-0.000016,  39.373
   550.6,0.000451,0.000340,0.003273,0.000007,  39.374
   550.8,0.000454,0.000342,0.002904,-0.000029,  39.378
   551.0,0.000451,0.000349,0.002854,0.000020,  39.374
   551.2,0.000449,0.000344,0.002929,0.000007,  39.374
   551.4,0.000449,0.000344,0.003109,-0.000029,  39.373
   551.6,0.000449,0.000345,0.003188,0.000007,  39.373
   551.8,0.000446,0.000338,0.003277,-0.000006,  39.378
   552.0,0.000446,0.000336,0.003372,-0.000042,  39.375
   552.2,0.000446,0.000341,0.003422,-0.000006,  39.375
   552.4,0.000444,0.000338,0.003457,-0.000006,  39.376
   552.6,0.000444,0.000336,0.003462,-0.000006,  39.380
   552.8,0.000441,0.000334,0.003457,-0.000042,  39.380
   553.0,0.000438,0.000332,0.003452,-0.000006,  39.380
   553.2,0.000436,0.000336,0.003441,-0.000006,  39.378
   553.4,0.000436,0.000334,0.003416,-0.000029,  39.380
   553.6,0.000433,0.000332,0.003236,0.000007,  39.381
   553.8,0.000433,0.000331,0.002981,0.000007,  39.381
   554.0,0.000433,0.000331,0.002638,-0.000029,  39.381
   554.2,0.000433,0.000328,0.002622,0.000020,  39.386
   554.4,0.000436,0.000323,0.002727,0.000007,  39.386
   554.6,0.000433,0.000324,0.002962,-0.000029,  39.391
   554.8,0.000430,0.000326,0.002902,0.000020,  39.388
   555.0,0.000433,0.000325,0.002752,0.000007,  39.392
   555.2,0.000433,0.000323,0.002518,-0.000029,  39.388
   555.4,0.000436,0.000328,0.002568,0.000020,  39.392
   555.6,0.000438,0.000329,0.002712,0.000007,  39.393
   555.8,0.000438,0.000330,0.002962,-0.000029,  39.393
   556.0,0.000438,0.000332,0.002753,0.000020,  39.395
   556.2,0.000438,0.000332,0.002359,0.000007,  39.393
   556.4,0.000438,0.000330,0.001797,-0.000029,  39.394
   556.6,0.000436,0.000336,0.001836,0.000020,  39.391
   556.8,0.000433,0.000336,0.002080,0.000007,  39.394
   557.0,0.000433,0.000339,0.002543,-0.000029,  39.392
   557.2,0.000436,0.000341,0.002702,-0.000016,  39.396
   557.4,0.000436,0.000338,0.002797,-0.000029,  39.392
   557.6,0.000436,0.000336,0.002842,-0.000051,  39.392
   557.8,0.000436,0.000339,0.002932,-0.000051,  39.395
   558.0,0.000436,0.000334,0.003011,-0.000016,  39.390
   558.2,0.000436,0.000333,0.003085,-0.000051,  39.391
   558.4,0.000433,0.000332,0.003125,-0.000064,  39.392
   558.6,0.000433,0.000332,0.003146,-0.000042,  39.391
   558.8,0.000424,0.000329,0.003131,-0.000077,  39.390
   559.0,0.000424,0.000329,0.003181,-0.000064,  39.390
   559.2,0.000421,0.000329,0.003225,-0.000029,  39.393
   559.4,0.000415,0.000329,0.003279,-0.000064,  39.388
   559.6,0.000421,0.000330,0.003327,-0.000051,  39.390
   559.8,0.000421,0.000332,0.003377,-0.000029,  39.390
   560.0,0.000424,0.000330,0.003433,-0.000051,  39.387
   560.2,0.000418,0.000329,0.003467,-0.000051,  39.392
   560.4,0.000421,0.000334,0.003492,-0.000016,  39.390
   560.6,0.000424,0.000332,0.003502,-0.000038,  39.393
   560.8,0.000415,0.000327,0.003487,-0.000051,  39.394
   561.0,0.000419,0.000329,0.003437,-0.000016,  39.394
   561.2,0.000419,0.000327,0.003364,-0.000038,  39.391
   561.4,0.000410,0.000325,0.003339,-0.000051,  39.395
   561.6,0.000414,0.000327,0.003318,-0.000016,  39.391
   561.8,0.000414,0.000329,0.003329,-0.000016,  39.396
   562.0,0.000414,0.000329,0.003333,-0.000051,  39.395
   562.2,0.000417,0.000329,0.003318,-0.000051,  39.398
   562.4,0.000417,0.000327,0.003273,-0.000016,  39.395
   562.6,0.000417,0.000326,0.003223,-0.000051,  39.394
   562.8,0.000415,0.000321,0.003203,-0.000016,  39.397
   563.0,0.000412,0.000321,0.003198,-0.000003,  39.397
   563.2,0.000406,0.000322,0.003182,-0.000025,  39.399
   563.4,0.000406,0.000317,0.003162,-0.000025,  39.396
   563.6,0.000403,0.000319,0.003143,-0.000003,  39.399
   563.8,0.000391,0.000317,0.003103,-0.000025,  39.400
   564.0,0.000395,0.000315,0.003133,-0.000038,  39.401
   564.2,0.000398,0.000317,0.003177,-0.000016,  39.400
   564.4,0.000391,0.000312,0.003256,-0.000051,  39.398
   564.6,0.000398,0.000314,0.003245,-0.000051,  39.397
   564.8,0.000400,0.000314,0.003206,-0.000029,  39.401
   565.0,0.000400,0.000312,0.003131,-0.000064,  39.398
   565.2,0.000407,0.000308,0.003086,-0.000051,  39.397
   565.4,0.000407,0.000311,0.003042,-0.000029,  39.398
   565.6,0.000404,0.000309,0.002982,-0.000064,  39.395
   565.8,0.000399,0.000308,0.002597,-0.000051,  39.396
   566.0,0.000399,0.000308,0.002029,-0.000029,  39.394
   566.2,0.000396,0.000307,0.001283,-0.000064,  39.391
   566.4,0.000398,0.000304,0.001258,-0.000051,  39.391
   566.6,0.000395,0.000299,0.001477,-0.000029,  39.390
   566.8,0.000389,0.000297,0.001953,-0.000051,  39.393
   567.0,0.000392,0.000302,0.002142,-0.000051,  39.388
   567.2,0.000390,0.000299,0.002311,-0.000016,  39.393
   567.4,0.000387,0.000295,0.002460,-0.000038,  39.397
   567.6,0.000382,0.000292,0.002524,-0.000051,  39.398
   567.8,0.000379,0.000292,0.002545,-0.000016,  39.397
   568.0,0.000379,0.000288,0.002515,-0.000038,  39.389
   568.2,0.000377,0.000287,0.002495,-0.000051,  39.390
   568.4,0.000377,0.000280,0.002460,-0.000016,  39.392
   568.6,0.000377,0.000285,0.002426,-0.000038,  39.394
   568.8,0.000373,0.000286,0.002441,-0.000051,  39.388
   569.0,0.000379,0.000281,0.002456,-0.000016,  39.387
   569.2,0.000379,0.000281,0.002491,-0.000051,  39.389
   569.4,0.000370,0.000281,0.002545,-0.000051,  39.389
   569.6,0.000374,0.000280,0.002609,-0.000029,  39.387
   569.8,0.000371,0.000284,0.002678,-0.000064,  39.386
   570.0,0.000365,0.000286,0.002707,-0.000051,  39.386
   570.2,0.000365,0.000286,0.002716,-0.000029,  39.387
   570.4,0.000362,0.000289,0.002722,-0.000029,  39.387
   570.6,0.000360,0.000287,0.002697,-0.000064,  39.386
   570.8,0.000366,0.000282,0.002720,-0.000064,  39.387
   571.0,0.000369,0.000285,0.002770,-0.000029,  39.386
   571.2,0.000360,0.000286,0.002819,-0.000064,  39.387
   571.4,0.000366,0.000284,0.002807,-0.000029,  39.389
   571.6,0.000366,0.000284,0.002778,-0.000029,  39.388
   571.8,0.000354,0.000281,0.002723,-0.000064,  39.387
   572.0,0.000356,0.000276,0.002728,-0.000051,  39.391
   572.2,0.000356,0.000279,0.002743,-0.000029,  39.391
   572.4,0.000349,0.000275,0.002772,-0.000064,  39.393
   572.6,0.000356,0.000275,0.002532,-0.000051,  39.391
   572.8,0.000356,0.000275,0.002168,-0.000029,  39.389
   573.0,0.000352,0.000275,0.001675,-0.000064,  39.394
   573.2,0.000358,0.000275,0.001480,-0.000051,  39.390
   573.4,0.000358,0.000274,0.001381,-0.000029,  39.391
   573.6,0.000354,0.000280,0.001387,-0.000064,  39.393
   573.8,0.000358,0.000279,0.001476,-0.000051,  39.394
   574.0,0.000358,0.000278,0.001655,-0.000029,  39.393
   574.2,0.000352,0.000278,0.001929,-0.000064,  39.394
   574.4,0.000356,0.000281,0.002068,-0.000051,  39.396
   574.6,0.000356,0.000278,0.002187,-0.000029,  39.396
   574.8,0.000349,0.000276,0.002282,-0.000064,  39.397
   575.0,0.000356,0.000277,0.002357,-0.000051,  39.394
   575.2,0.000356,0.000274,0.002396,-0.000029,  39.395
   575.4,0.000349,0.000274,0.002437,-0.000064,  39.398
   575.6,0.000356,0.000272,0.002472,-0.000051,  39.399
   575.8,0.000356,0.000270,0.002478,-0.000029,  39.400
   576.0,0.000347,0.000269,0.002468,-0.000064,  39.404
   576.2,0.000356,0.000266,0.002512,-0.000064,  39.404
   576.4,0.000347,0.000261,0.002576,-0.000042,  39.401
   576.6,0.000347,0.000264,0.002655,-0.000077,  39.408
   576.8,0.000344,0.000271,0.002703,-0.000077,  39.403
   577.0,0.000345,0.000270,0.002743,-0.000055,  39.405
   577.2,0.000345,0.000270,0.002782,-0.000090,  39.408
   577.4,0.000339,0.000276,0.002772,-0.000077,  39.409
   577.6,0.000348,0.000274,0.002728,-0.000042,  39.407
   577.8,0.000348,0.000273,0.002645,-0.000077,  39.408
   578.0,0.000341,0.000273,0.002614,-0.000077,  39.412
   578.2,0.000345,0.000270,0.002595,-0.000042,  39.410
   578.4,0.000350,0.000275,0.002570,-0.000077,  39.412
   578.6,0.000344,0.000280,0.002604,-0.000077,  39.416
   578.8,0.000350,0.000277,0.002674,-0.000042,  39.416
   579.0,0.000356,0.000282,0.002753,-0.000077,  39.414
   579.2,0.000352,0.000282,0.002778,-0.000077,  39.419
   579.4,0.000361,0.000283,0.002782,-0.000042,  39.423
   579.6,0.000363,0.000287,0.002774,-0.000029,  39.421
   579.8,0.000360,0.000293,0.002738,-0.000064,  39.426
   580.0,0.000369,0.000292,0.002734,-0.000064,  39.422
   580.2,0.000371,0.000294,0.002724,-0.000029,  39.424
   580.4,0.000365,0.000294,0.002719,-0.000051,  39.429
   580.6,0.000362,0.000294,0.002725,-0.000003,  39.427
   580.8,0.000365,0.000293,0.002715,-0.000016,  39.424
   581.0,0.000360,0.000289,0.002690,-0.000038,  39.425
   581.2,0.000354,0.000283,0.002700,-0.000051,  39.424
   581.4,0.000357,0.000287,0.002715,-0.000016,  39.420
   581.6,0.000354,0.000287,0.002719,-0.000038,  39.420
   581.8,0.000361,0.000286,0.002744,-0.000051,  39.420
   582.0,0.000363,0.000281,0.002763,-0.000016,  39.424
   582.2,0.000354,0.000281,0.002800,-0.000038,  39.418
   582.4,0.000361,0.000283,0.002810,-0.000051,  39.419
   582.6,0.000363,0.000282,0.002800,-0.000016,  39.418
   582.8,0.000354,0.000286,0.002765,-0.000038,  39.417
   583.0,0.000354,0.000285,0.002754,-0.000051,  39.419
   583.2,0.000357,0.000287,0.002754,-0.000016,  39.414
   583.4,0.000357,0.000290,0.002740,-0.000038,  39.423
   583.6,0.000366,0.000291,0.002765,-0.000051,  39.422
   583.8,0.000369,0.000287,0.002784,-0.000016,  39.420
   584.0,0.000362,0.000293,0.002829,-0.000038,  39.417
   584.2,0.000362,0.000285,0.002395,-0.000051,  39.417
   584.4,0.000365,0.000280,0.001734,-0.000016,  39.419
   584.6,0.000362,0.000284,0.000825,-0.000038,  39.413
   584.8,0.000357,0.000290,0.000794,-0.000051,  39.419
   585.0,0.000357,0.000286,0.001093,-0.000016,  39.412
   585.2,0.000357,0.000286,0.001709,-0.000038,  39.413
   585.4,0.000352,0.000284,0.001938,-0.000051,  39.412
   585.6,0.000349,0.000285,0.002106,-0.000016,  39.414
   585.8,0.000347,0.000285,0.002250,-0.000038,  39.411
   586.0,0.000341,0.000289,0.002350,-0.000051,  39.413
   586.2,0.000341,0.000289,0.002409,-0.000016,  39.411
   586.4,0.000339,0.000289,0.002430,-0.000038,  39.409
   586.6,0.000341,0.000286,0.002515,-0.000051,  39.410
   586.8,0.000345,0.000282,0.002583,-0.000016,  39.411
   587.0,0.000345,0.000279,0.002662,-0.000038,  39.413
   587.2,0.000342,0.000278,0.002762,-0.000051,  39.410
   587.4,0.000342,0.000273,0.002866,-0.000016,  39.411
   587.6,0.000345,0.000269,0.002970,-0.000038,  39.410
   587.8,0.000336,0.000275,0.002939,-0.000051,  39.412
   588.0,0.000342,0.000272,0.002856,-0.000016,  39.411
   588.2,0.000345,0.000269,0.002702,-0.000038,  39.414
   588.4,0.000336,0.000268,0.002686,-0.000051,  39.414
   588.6,0.000333,0.000269,0.002721,-0.000016,  39.418
   588.8,0.000333,0.000271,0.002785,-0.000051,  39.414
   589.0,0.000331,0.000265,0.002761,-0.000051,  39.417
   589.2,0.000323,0.000261,0.002680,-0.000029,  39.413
   589.4,0.000323,0.000259,0.002570,-0.000029,  39.417
   589.6,0.000323,0.000252,0.002546,-0.000064,  39.415
   589.8,0.000320,0.000241,0.002546,-0.000064,  39.419
   590.0,0.000318,0.000241,0.002565,-0.000029,  39.418
   590.2,0.000315,0.000240,0.002604,-0.000064,  39.417
   590.4,0.000310,0.000238,0.002559,-0.000029,  39.419
   590.6,0.000310,0.000240,0.002505,-0.000029,  39.420
   590.8,0.000307,0.000242,0.002420,-0.000064,  39.421
   591.0,0.000307,0.000240,0.002379,-0.000051,  39.422
   591.2,0.000307,0.000238,0.002364,-0.000029,  39.419
   591.4,0.000305,0.000235,0.002340,-0.000064,  39.419
   591.6,0.000302,0.000233,0.002348,-0.000051,  39.422
   591.8,0.000299,0.000235,0.002382,-0.000029,  39.415
   592.0,0.000297,0.000229,0.002442,-0.000064,  39.420
   592.2,0.000294,0.000235,0.002422,-0.000051,  39.418
   592.4,0.000292,0.000230,0.002346,-0.000029,  39.418
   592.6,0.000292,0.000235,0.002267,-0.000064,  39.416
   592.8,0.000292,0.000230,0.002257,-0.000051,  39.414
   593.0,0.000294,0.000225,0.002246,-0.000029,  39.414
   593.2,0.000292,0.000222,0.002261,-0.000064,  39.414
   593.4,0.000289,0.000222,0.002280,-0.000064,  39.415
   593.6,0.000292,0.000220,0.002299,-0.000042,  39.410
   593.8,0.000286,0.000218,0.002328,-0.000077,  39.413
   594.0,0.000284,0.000218,0.002277,-0.000077,  39.411
   594.2,0.000284,0.000220,0.002209,-0.000042,  39.414
   594.4,0.000281,0.000220,0.002090,-0.000077,  39.409
   594.6,0.000278,0.000220,0.002045,-0.000077,  39.407
   594.8,0.000278,0.000220,0.002030,-0.000042,  39.410
   595.0,0.000278,0.000220,0.002010,-0.000077,  39.412
   595.2,0.000278,0.000220,0.002014,-0.000077,  39.411
   595.4,0.000278,0.000214,0.002049,-0.000042,  39.407
   595.6,0.000272,0.000219,0.002079,-0.000077,  39.406
   595.8,0.000278,0.000220,0.002083,-0.000077,  39.403
   596.0,0.000273,0.000216,0.002093,-0.000042,  39.407
   596.2,0.000267,0.000216,0.002067,-0.000077,  39.404
   596.4,0.000267,0.000218,0.002057,-0.000077,  39.406
   596.6,0.000271,0.000217,0.002047,-0.000055,  39.406
   596.8,0.000268,0.000214,0.002032,-0.000090,  39.402
   597.0,0.000262,0.000214,0.001996,-0.000077,  39.406
   597.2,0.000264,0.000211,0.001971,-0.000055,  39.408
   597.4,0.000267,0.000211,0.001952,-0.000090,  39.406
   597.6,0.000267,0.000209,0.001975,-0.000077,  39.406
   597.8,0.000273,0.000209,0.002035,-0.000055,  39.404
   598.0,0.000276,0.000209,0.002109,-0.000090,  39.404
   598.2,0.000272,0.000214,0.002124,-0.000077,  39.403
   598.4,0.000272,0.000216,0.002118,-0.000042,  39.403
   598.6,0.000272,0.000222,0.002109,-0.000042,  39.402
   598.8,0.000272,0.000220,0.002064,-0.000077,  39.403
   599.0,0.000276,0.000216,0.002054,-0.000077,  39.403
   599.2,0.000273,0.000222,0.002044,-0.000042,  39.400
   599.4,0.000273,0.000226,0.002034,-0.000077,  39.399
   599.6,0.000277,0.000224,0.001864,-0.000042,  39.401
   599.8,0.000274,0.000223,0.001610,-0.000042,  39.400
   600.0,0.000274,0.000220,0.001268,-0.000077,  39.396
   600.2,0.000283,0.000216,0.001243,-0.000077,  39.400
   600.4,0.000283,0.000223,0.001348,-0.000042,  39.395
   600.6,0.000283,0.000224,0.001552,-0.000077,  39.393
   600.8,0.000283,0.000222,0.001572,-0.000077,  39.392
   601.0,0.000286,0.000226,0.001533,-0.000055,  39.390
   601.2,0.000286,0.000224,0.001465,-0.000090,  39.388
   601.4,0.000286,0.000226,0.001519,-0.000077,  39.392
   601.6,0.000289,0.000226,0.001618,-0.000055,  39.392
   601.8,0.000291,0.000228,0.001746,-0.000090,  39.389
   602.0,0.000289,0.000230,0.001771,-0.000077,  39.386
   602.2,0.000289,0.000230,0.001756,-0.000042,  39.387
   602.4,0.000291,0.000230,0.001698,-0.000077,  39.380
   602.6,0.000291,0.000231,0.001255,-0.000077,  39.382
   602.8,0.000291,0.000233,0.000605,-0.000042,  39.384
   603.0,0.000291,0.000230,-0.000268,-0.000077,  39.384
