Run Name,Run 1
Run Date,02:37:40 PM   04-05-10
Method Name,35%
Export Format Version, 1.00
Method ID, 1035
Points/Second, 5.00
Number of Records,   3186
Offset from Run Start Time,00:00:00
Run End Time,00:10:41
Time,Second
QuadTec 1, (280.0 nm), AU
QuadTec 2, (260.0 nm), AU
Gradient Pump,%B
QuadTec 3, (214.0 nm), AU
QuadTec 4, (405.0 nm), AU
Conductivity,mS/cm
Trace 6,<Not Available>
GP Pressure,<Not Selected>
Volume,<Not Selected>
Fraction,<Not Available>
Time,QuadTec 1,QuadTec 2,Gradient Pump,QuadTec 3,QuadTec 4,Conductivity
     0.0,0.001452,0.001248, 35,0.009886,0.001055,  35.339
     0.2,0.001452,0.001247, 35,0.009524,0.001069,  35.333
     0.4,0.001449,0.001248, 35,0.008976,0.001032,  35.331
     0.6,0.001455,0.001248, 35,0.008220,0.001055,  35.323
     0.8,0.001455,0.001247, 35,0.008202,0.001055,  35.318
     1.0,0.001449,0.001248, 35,0.008465,0.001055,  35.317
     1.2,0.001455,0.001251, 35,0.008997,0.001032,  35.317
     1.4,0.001455,0.001251, 35,0.009077,0.001055,  35.314
     1.6,0.001449,0.001248, 35,0.009077,0.001069,  35.313
     1.8,0.001455,0.001251, 35,0.009002,0.001069,  35.309
     2.0,0.001455,0.001249, 35,0.009094,0.001055,  35.311
     2.2,0.001455,0.001250, 35,0.009227,0.001069,  35.307
     2.4,0.001273,0.001250, 35,0.009406,0.001032,  35.311
     2.6,0.001392,0.001248, 35,0.009512,0.001055,  35.311
     2.8,0.001196,0.001250, 35,0.009610,0.001069,  35.312
     3.0,-0.000160,0.001251, 35,0.009696,0.001032,  35.309
     3.2,0.000000,0.001248, 35,0.009756,0.001069,  35.308
     3.4,0.000000,0.001247, 35,0.009822,0.001069,  35.308
     3.6,0.000000,0.000000, 35,0.009882,0.001032,  35.310
     3.8,0.000000,0.000000, 35,0.000000,0.001055,  35.313
     4.0,0.000000,0.000000, 35,0.000000,0.001069,  35.309
     4.2,0.000000,0.000000, 35,0.000000,0.001055,  35.310
     4.4,0.000000,0.000000, 35,0.000000,0.001101,  35.306
     4.6,0.000000,0.000000, 35,0.000000,-0.003167,  35.310
     4.8,0.000000,0.000000, 35,0.000000,0.000000,  35.310
     5.0,0.000000,0.000000, 35,0.000000,0.000000,  35.310
     5.2,0.000000,0.000000, 35,0.000000,0.000000,  35.308
     5.4,0.000000,0.000000, 35,0.000000,0.000000,  35.311
     5.6,0.000000,0.000000, 35,0.000000,0.000000,  35.310
     5.8,0.000000,0.000000, 35,0.000000,0.000000,  35.304
     6.0,0.000000,0.000000, 35,0.000000,0.000000,  35.313
     6.2,0.000000,0.000000, 35,0.000000,0.000000,  35.307
     6.4,0.000000,0.000000, 35,0.000000,0.000000,  35.306
     6.6,0.000000,0.000000, 35,0.000000,0.000000,  35.311
     6.8,0.000014,0.000000, 35,0.000000,0.000000,  35.310
     7.0,0.000021,0.000000, 35,0.000000,0.000000,  35.309
     7.2,0.000035,0.000000, 35,0.000000,0.000000,  35.312
     7.4,0.000031,0.000000, 35,0.000000,0.000000,  35.310
     7.6,0.000026,0.000000, 35,0.000000,0.000000,  35.312
     7.8,0.000025,0.000000, 35,0.000000,0.000000,  35.308
     8.0,0.000024,0.000000, 35,0.000000,0.000000,  35.310
     8.2,0.000029,-0.000002, 35,0.000000,0.000000,  35.310
     8.4,0.000040,-0.000017, 35,0.001904,0.000000,  35.306
     8.6,0.000039,-0.000020, 35,0.001826,0.000000,  35.309
     8.8,0.000044,-0.000020, 35,0.001756,0.000000,  35.309
     9.0,0.000050,-0.000018, 35,0.001697,0.000000,  35.310
     9.2,0.000049,-0.000015, 35,0.001652,-0.000077,  35.304
     9.4,0.000054,-0.000011, 35,0.001614,-0.000063,  35.307
     9.6,0.000066,-0.000001, 35,0.001582,-0.000100,  35.310
     9.8,0.000065,-0.000000, 35,0.001552,-0.000063,  35.309
    10.0,0.000070,0.000006, 35,0.001516,-0.000086,  35.309
    10.2,0.000078,0.000010, 35,0.001491,-0.000036,  35.306
    10.4,0.000075,0.000014, 35,0.001478,-0.000010,  35.310
    10.6,0.000075,0.000020, 35,0.001455,-0.000032,  35.305
    10.8,0.000078,0.000027, 35,0.001454,0.000017,  35.308
    11.0,0.000075,0.000031, 35,0.001442,0.000017,  35.308
    11.2,0.000075,0.000035, 35,0.001424,-0.000006,  35.304
    11.4,0.000078,0.000036, 35,0.001411,0.000044,  35.305
    11.6,0.000078,0.000040, 35,0.001387,0.000017,  35.307
    11.8,0.000083,0.000046, 35,0.001362,-0.000019,  35.307
    12.0,0.000077,0.000048, 35,0.001348,0.000044,  35.305
    12.2,0.000082,0.000052, 35,0.001244,0.000044,  35.307
    12.4,0.000085,0.000049, 35,0.001096,0.000021,  35.304
    12.6,0.000085,0.000049, 35,0.000919,0.000058,  35.302
    12.8,0.000094,0.000051, 35,0.000893,0.000058,  35.308
    13.0,0.000090,0.000053, 35,0.000914,0.000021,  35.306
    13.2,0.000093,0.000053, 35,0.001000,0.000044,  35.306
    13.4,0.000101,0.000060, 35,0.001053,0.000017,  35.306
    13.6,0.000100,0.000068, 35,0.001114,-0.000019,  35.307
    13.8,0.000106,0.000079, 35,0.001198,0.000031,  35.304
    14.0,0.000114,0.000080, 35,0.001227,0.000031,  35.307
    14.2,0.000116,0.000081, 35,0.001247,0.000008,  35.302
    14.4,0.000121,0.000080, 35,0.001242,0.000044,  35.304
    14.6,0.000129,0.000080, 35,0.001212,0.000058,  35.306
    14.8,0.000129,0.000081, 35,0.001159,0.000035,  35.303
    15.0,0.000131,0.000083, 35,0.001079,0.000071,  35.303
    15.2,0.000140,0.000087, 35,0.001061,0.000071,  35.305
    15.4,0.000134,0.000090, 35,0.001061,0.000048,  35.307
    15.6,0.000137,0.000088, 35,0.001081,0.000085,  35.306
    15.8,0.000141,0.000093, 35,0.001076,0.000071,  35.304
    16.0,0.000137,0.000103, 35,0.001069,0.000048,  35.309
    16.2,0.000143,0.000110, 35,0.001051,0.000098,  35.303
    16.4,0.000146,0.000107, 35,0.001064,0.000098,  35.306
    16.6,0.000142,0.000111, 35,0.001085,0.000098,  35.307
    16.8,0.000151,0.000109, 35,0.001124,0.000075,  35.303
    17.0,0.000153,0.000109, 35,0.001176,0.000062,  35.307
    17.2,0.000145,0.000104, 35,0.001158,0.000048,  35.307
    17.4,0.000137,0.000111, 35,0.001136,0.000012,  35.305
    17.6,0.000127,0.000116, 35,0.001091,-0.000002,  35.310
    17.8,0.000123,0.000116, 35,0.000930,0.000035,  35.304
    18.0,0.000137,0.000118, 35,0.000698,0.000012,  35.306
    18.2,0.000153,0.000118, 35,0.000405,0.000012,  35.307
    18.4,0.000152,0.000116, 35,0.000374,0.000035,  35.307
    18.6,0.000152,0.000118, 35,0.000451,0.000012,  35.311
    18.8,0.000147,0.000113, 35,0.000619,0.000012,  35.306
    19.0,0.000146,0.000112, 35,0.000691,0.000048,  35.309
    19.2,0.000146,0.000117, 35,0.000769,0.000025,  35.311
    19.4,0.000152,0.000118, 35,0.000857,0.000012,  35.307
    19.6,0.000149,0.000113, 35,0.000924,0.000048,  35.314
    19.8,0.000152,0.000120, 35,0.000971,0.000025,  35.313
    20.0,0.000155,0.000113, 35,0.001024,0.000012,  35.314
    20.2,0.000158,0.000109, 35,0.001070,0.000048,  35.314
    20.4,0.000160,0.000117, 35,0.001098,0.000025,  35.318
    20.6,0.000165,0.000121, 35,0.001123,0.000012,  35.319
    20.8,0.000170,0.000120, 35,0.001122,0.000048,  35.321
    21.0,0.000173,0.000127, 35,0.001090,0.000025,  35.317
    21.2,0.000170,0.000127, 35,0.001045,0.000012,  35.319
    21.4,0.000168,0.000126, 35,0.001053,0.000048,  35.323
    21.6,0.000164,0.000130, 35,0.001079,0.000025,  35.322
    21.8,0.000159,0.000130, 35,0.001130,0.000012,  35.326
    22.0,0.000163,0.000127, 35,0.001117,0.000048,  35.325
    22.2,0.000159,0.000132, 35,0.001066,0.000025,  35.324
    22.4,0.000159,0.000134, 35,0.000995,0.000012,  35.328
    22.6,0.000168,0.000133, 35,0.000989,0.000048,  35.323
    22.8,0.000165,0.000137, 35,0.000996,0.000025,  35.332
    23.0,0.000164,0.000136, 35,0.001005,0.000012,  35.334
    23.2,0.000172,0.000134, 35,0.000850,0.000048,  35.332
    23.4,0.000177,0.000137, 35,0.000629,0.000025,  35.335
    23.6,0.000167,0.000140, 35,0.000318,0.000025,  35.334
    23.8,0.000175,0.000137, 35,0.000274,0.000062,  35.340
    24.0,0.000174,0.000136, 35,0.000332,0.000039,  35.337
    24.2,0.000174,0.000136, 35,0.000487,0.000039,  35.344
    24.4,0.000174,0.000138, 35,0.000546,0.000062,  35.341
    24.6,0.000170,0.000142, 35,0.000600,0.000039,  35.343
    24.8,0.000176,0.000149, 35,0.000659,0.000039,  35.346
    25.0,0.000179,0.000151, 35,0.000723,0.000075,  35.343
    25.2,0.000176,0.000148, 35,0.000724,0.000089,  35.350
    25.4,0.000184,0.000150, 35,0.000699,0.000075,  35.359
    25.6,0.000187,0.000149, 35,0.000658,0.000052,  35.357
    25.8,0.000183,0.000151, 35,0.000697,0.000075,  35.363
    26.0,0.000189,0.000151, 35,0.000761,0.000039,  35.366
    26.2,0.000184,0.000149, 35,0.000851,0.000039,  35.366
    26.4,0.000178,0.000153, 35,0.000917,0.000075,  35.367
    26.6,0.000181,0.000151, 35,0.000984,0.000039,  35.369
    26.8,0.000181,0.000151, 35,0.001056,0.000039,  35.373
    27.0,0.000175,0.000147, 35,0.001030,0.000075,  35.373
    27.2,0.000175,0.000149, 35,0.000958,0.000039,  35.374
    27.4,0.000181,0.000151, 35,0.000838,0.000039,  35.376
    27.6,0.000177,0.000153, 35,0.000800,0.000075,  35.380
    27.8,0.000182,0.000153, 35,0.000793,0.000039,  35.379
    28.0,0.000193,0.000157, 35,0.000793,0.000039,  35.384
    28.2,0.000190,0.000156, 35,0.000809,0.000075,  35.381
    28.4,0.000190,0.000156, 35,0.000854,0.000039,  35.386
    28.6,0.000196,0.000155, 35,0.000907,0.000039,  35.387
    28.8,0.000196,0.000155, 35,0.000785,0.000062,  35.386
    29.0,0.000193,0.000159, 35,0.000584,0.000039,  35.391
    29.2,0.000193,0.000164, 35,0.000299,0.000039,  35.397
    29.4,0.000191,0.000164, 35,0.000191,0.000062,  35.398
    29.6,0.000193,0.000167, 35,0.000151,0.000039,  35.401
    29.8,0.000191,0.000170, 35,0.000157,0.000025,  35.400
    30.0,0.000188,0.000168, 35,0.000190,0.000048,  35.405
    30.2,0.000185,0.000170, 35,0.000249,0.000025,  35.406
    30.4,0.000182,0.000171, 35,0.000362,0.000012,  35.411
    30.6,0.000186,0.000173, 35,0.000460,0.000048,  35.411
    30.8,0.000182,0.000169, 35,0.000565,0.000025,  35.413
    31.0,0.000180,0.000166, 35,0.000683,0.000025,  35.412
    31.2,0.000180,0.000166, 35,0.000729,0.000062,  35.419
    31.4,0.000174,0.000163, 35,0.000755,0.000039,  35.419
    31.6,0.000186,0.000159, 35,0.000749,0.000039,  35.419
    31.8,0.000189,0.000156, 35,0.000788,0.000062,  35.423
    32.0,0.000186,0.000154, 35,0.000834,0.000039,  35.437
    32.2,0.000194,0.000162, 35,0.000898,0.000039,  35.435
    32.4,0.000197,0.000161, 35,0.000936,0.000062,  35.434
    32.6,0.000196,0.000162, 35,0.000944,0.000039,  35.441
    32.8,0.000202,0.000162, 35,0.000950,0.000025,  35.441
    33.0,0.000205,0.000162, 35,0.000962,0.000048,  35.447
    33.2,0.000201,0.000162, 35,0.000945,0.000025,  35.450
    33.4,0.000201,0.000164, 35,0.000938,0.000048,  35.449
    33.6,0.000199,0.000167, 35,0.000926,0.000085,  35.448
    33.8,0.000192,0.000166, 35,0.000907,0.000085,  35.449
    34.0,0.000198,0.000167, 35,0.000899,0.000098,  35.452
    34.2,0.000206,0.000165, 35,0.000874,0.000098,  35.452
    34.4,0.000200,0.000167, 35,0.000868,0.000098,  35.457
    34.6,0.000203,0.000166, 35,0.000868,0.000075,  35.459
    34.8,0.000206,0.000162, 35,0.000868,0.000112,  35.462
    35.0,0.000203,0.000162, 35,0.000854,0.000112,  35.458
    35.2,0.000203,0.000163, 35,0.000836,0.000075,  35.460
    35.4,0.000209,0.000165, 35,0.000823,0.000112,  35.457
    35.6,0.000205,0.000168, 35,0.000811,0.000112,  35.467
    35.8,0.000209,0.000175, 35,0.000803,0.000075,  35.463
    36.0,0.000215,0.000179, 35,0.000791,0.000112,  35.464
    36.2,0.000211,0.000178, 35,0.000760,0.000112,  35.464
    36.4,0.000209,0.000180, 35,0.000719,0.000075,  35.464
    36.6,0.000209,0.000180, 35,0.000665,0.000112,  35.472
    36.8,0.000203,0.000184, 35,0.000654,0.000112,  35.470
    37.0,0.000200,0.000187, 35,0.000679,0.000075,  35.473
    37.2,0.000201,0.000192, 35,0.000718,0.000112,  35.471
    37.4,0.000195,0.000194, 35,0.000752,0.000112,  35.472
    37.6,0.000204,0.000194, 35,0.000797,0.000075,  35.472
    37.8,0.000210,0.000198, 35,0.000855,0.000112,  35.475
    38.0,0.000212,0.000198, 35,0.000882,0.000112,  35.474
    38.2,0.000211,0.000197, 35,0.000895,0.000075,  35.475
    38.4,0.000222,0.000195, 35,0.000896,0.000112,  35.474
    38.6,0.000225,0.000192, 35,0.000883,0.000112,  35.474
    38.8,0.000224,0.000190, 35,0.000860,0.000075,  35.477
    39.0,0.000233,0.000195, 35,0.000808,0.000112,  35.486
    39.2,0.000238,0.000199, 35,0.000794,0.000112,  35.487
    39.4,0.000239,0.000200, 35,0.000782,0.000075,  35.485
    39.6,0.000251,0.000210, 35,0.000770,0.000112,  35.487
    39.8,0.000253,0.000214, 35,0.000791,0.000098,  35.485
    40.0,0.000250,0.000209, 35,0.000832,0.000075,  35.480
    40.2,0.000258,0.000214, 35,0.000897,0.000112,  35.486
    40.4,0.000253,0.000216, 35,0.000891,0.000112,  35.486
    40.6,0.000250,0.000211, 35,0.000865,0.000075,  35.485
    40.8,0.000261,0.000218, 35,0.000823,0.000075,  35.489
    41.0,0.000266,0.000221, 35,0.000726,0.000075,  35.490
    41.2,0.000265,0.000220, 35,0.000602,0.000052,  35.486
    41.4,0.000276,0.000220, 35,0.000451,0.000052,  35.487
    41.6,0.000281,0.000222, 35,0.000464,0.000089,  35.492
    41.8,0.000278,0.000234, 35,0.000531,0.000066,  35.490
    42.0,0.000286,0.000239, 35,0.000679,0.000066,  35.487
    42.2,0.000281,0.000245, 35,0.000672,0.000089,  35.487
    42.4,0.000275,0.000249, 35,0.000614,0.000052,  35.486
    42.6,0.000284,0.000255, 35,0.000511,0.000066,  35.486
    42.8,0.000281,0.000261, 35,0.000368,0.000116,  35.488
    43.0,0.000275,0.000262, 35,0.000425,0.000116,  35.489
    43.2,0.000284,0.000261, 35,0.000541,0.000116,  35.486
    43.4,0.000281,0.000261, 35,0.000697,0.000093,  35.488
    43.6,0.000278,0.000260, 35,0.000763,0.000116,  35.493
    43.8,0.000284,0.000271, 35,0.000820,0.000093,  35.492
    44.0,0.000284,0.000271, 35,0.000852,0.000093,  35.488
    44.2,0.000275,0.000264, 35,0.000853,0.000116,  35.491
    44.4,0.000276,0.000259, 35,0.000838,0.000079,  35.490
    44.6,0.000271,0.000257, 35,0.000785,0.000093,  35.492
    44.8,0.000265,0.000259, 35,0.000778,0.000129,  35.491
    45.0,0.000271,0.000256, 35,0.000766,0.000093,  35.488
    45.2,0.000274,0.000256, 35,0.000765,0.000093,  35.494
    45.4,0.000268,0.000250, 35,0.000766,0.000102,  35.491
    45.6,0.000274,0.000250, 35,0.000784,0.000066,  35.492
    45.8,0.000269,0.000244, 35,0.000797,0.000079,  35.488
    46.0,0.000262,0.000244, 35,0.000656,0.000116,  35.490
    46.2,0.000269,0.000242, 35,0.000425,0.000079,  35.489
    46.4,0.000269,0.000242, 35,0.000134,0.000079,  35.486
    46.6,0.000266,0.000242, 35,-0.000040,0.000116,  35.487
    46.8,0.000260,0.000240, 35,-0.000201,0.000079,  35.486
    47.0,0.000255,0.000240, 35,-0.000342,0.000079,  35.488
    47.2,0.000252,0.000242, 35,-0.000278,0.000116,  35.488
    47.4,0.000252,0.000237, 35,-0.000103,0.000079,  35.490
    47.6,0.000247,0.000241, 35,0.000175,0.000079,  35.486
    47.8,0.000242,0.000239, 35,0.000273,0.000116,  35.490
    48.0,0.000233,0.000234, 35,0.000344,0.000079,  35.482
    48.2,0.000231,0.000233, 35,0.000371,0.000079,  35.486
    48.4,0.000234,0.000229, 35,0.000455,0.000102,  35.483
    48.6,0.000231,0.000223, 35,0.000546,0.000066,  35.485
    48.8,0.000228,0.000220, 35,0.000638,0.000079,  35.485
    49.0,0.000232,0.000222, 35,0.000768,0.000102,  35.487
    49.2,0.000226,0.000221, 35,0.000917,0.000066,  35.488
    49.4,0.000223,0.000221, 35,0.001075,0.000079,  35.488
    49.6,0.000227,0.000221, 35,0.001121,0.000102,  35.483
    49.8,0.000218,0.000225, 35,0.001109,0.000066,  35.487
    50.0,0.000215,0.000224, 35,0.001038,0.000066,  35.487
    50.2,0.000216,0.000222, 35,0.001030,0.000089,  35.485
    50.4,0.000210,0.000218, 35,0.001017,0.000052,  35.483
    50.6,0.000210,0.000214, 35,0.000993,0.000052,  35.484
    50.8,0.000216,0.000212, 35,0.000975,0.000089,  35.488
    51.0,0.000213,0.000211, 35,0.000967,0.000039,  35.477
    51.2,0.000213,0.000209, 35,0.000948,0.000075,  35.480
    51.4,0.000219,0.000209, 35,0.000921,0.000112,  35.478
    51.6,0.000213,0.000206, 35,0.000889,0.000098,  35.481
    51.8,0.000213,0.000206, 35,0.000854,0.000098,  35.479
    52.0,0.000219,0.000204, 35,0.000809,0.000085,  35.481
    52.2,0.000213,0.000204, 35,0.000796,0.000085,  35.483
    52.4,0.000213,0.000199, 35,0.000790,0.000062,  35.479
    52.6,0.000219,0.000199, 35,0.000796,0.000085,  35.475
    52.8,0.000213,0.000197, 35,0.000796,0.000085,  35.480
    53.0,0.000210,0.000201, 35,0.000784,0.000062,  35.480
    53.2,0.000211,0.000202, 35,0.000783,0.000085,  35.454
    53.4,0.000208,0.000202, 35,0.000750,0.000085,  35.443
    53.6,0.000208,0.000202, 35,0.000692,0.000062,  35.439
    53.8,0.000211,0.000205, 35,0.000613,0.000062,  35.437
    54.0,0.000208,0.000204, 35,0.000289,0.000062,  35.432
    54.2,0.000208,0.000203, 35,-0.000180,0.000039,  35.430
    54.4,0.000214,0.000196, 35,-0.000791,0.000039,  35.433
    54.6,0.000210,0.000196, 35,-0.000796,0.000062,  35.428
    54.8,0.000208,0.000200, 35,-0.000570,0.000039,  35.434
    55.0,0.000214,0.000201, 35,-0.000108,0.000025,  35.431
    55.2,0.000210,0.000198, 35,0.000061,0.000048,  35.433
    55.4,0.000208,0.000198, 35,0.000203,0.000025,  35.434
    55.6,0.000214,0.000198, 35,0.000314,0.000012,  35.433
    55.8,0.000214,0.000196, 35,0.000386,0.000048,  35.440
    56.0,0.000211,0.000197, 35,0.000417,0.000025,  35.437
    56.2,0.000211,0.000197, 35,0.000416,0.000048,  35.426
    56.4,0.000206,0.000194, 35,0.000475,0.000085,  35.427
    56.6,0.000209,0.000200, 35,0.000552,0.000062,  35.436
    56.8,0.000206,0.000203, 35,0.000637,0.000085,  35.444
    57.0,0.000209,0.000202, 35,0.000637,0.000085,  35.444
    57.2,0.000198,0.000200, 35,0.000609,0.000062,  35.443
    57.4,0.000187,0.000202, 35,0.000549,0.000085,  35.443
    57.6,0.000178,0.000207, 35,0.000524,0.000071,  35.442
    57.8,0.000180,0.000201, 35,0.000511,0.000048,  35.443
    58.0,0.000198,0.000198, 35,0.000515,0.000085,  35.441
    58.2,0.000224,0.000198, 35,0.000583,0.000071,  35.444
    58.4,0.000236,0.000193, 35,0.000684,0.000048,  35.445
    58.6,0.000265,0.000181, 35,0.000827,0.000085,  35.443
    58.8,0.000292,0.000188, 35,0.001007,0.000108,  35.444
    59.0,0.000309,0.000207, 35,0.001218,0.000071,  35.442
    59.2,0.000335,0.000235, 35,0.001454,0.000058,  35.443
    59.4,0.000358,0.000254, 35,0.001632,0.000054,  35.441
    59.6,0.000408,0.000274, 35,0.001797,0.000004,  35.444
    59.8,0.000483,0.000307, 35,0.001940,0.000004,  35.443
    60.0,0.000568,0.000334, 35,0.002092,0.000027,  35.444
    60.2,0.000500,0.000355, 35,0.002243,-0.000010,  35.441
    60.4,0.000373,0.000378, 35,0.002371,-0.000010,  35.439
    60.6,0.000174,0.000418, 35,0.002500,0.000040,  35.444
    60.8,0.000106,0.000461, 35,0.002627,0.000031,  35.440
    61.0,0.000079,0.000512, 35,0.002739,0.000044,  35.443
    61.2,0.000079,0.000453, 35,0.002855,0.000094,  35.444
    61.4,0.000063,0.000344, 35,0.002924,0.000121,  35.441
    61.6,0.000069,0.000190, 35,0.002963,0.000085,  35.444
    61.8,0.000074,0.000126, 35,0.002971,0.000112,  35.443
    62.0,0.000071,0.000083, 35,0.002821,0.000112,  35.443
    62.2,0.000082,0.000057, 35,0.002590,0.000075,  35.441
    62.4,0.000087,0.000036, 35,0.002262,0.000098,  35.444
    62.6,0.000089,0.000024, 35,0.001899,0.000085,  35.440
    62.8,0.000099,0.000028, 35,0.001467,0.000035,  35.440
    63.0,0.000109,0.000042, 35,0.000969,0.000017,  35.444
    63.2,0.000123,0.000043, 35,0.000791,-0.000036,  35.438
    63.4,0.000146,0.000053, 35,0.000747,-0.000073,  35.443
    63.6,0.000176,0.000056, 35,0.000829,-0.000036,  35.439
    63.8,0.000185,0.000066, 35,0.000803,-0.000023,  35.442
    64.0,0.000198,0.000072, 35,0.000782,-0.000046,  35.439
    64.2,0.000211,0.000082, 35,0.000778,-0.000010,  35.439
    64.4,0.000213,0.000107, 35,0.000799,-0.000023,  35.440
    64.6,0.000215,0.000134, 35,0.000833,-0.000032,  35.438
    64.8,0.000222,0.000164, 35,0.000878,0.000017,  35.443
    65.0,0.000227,0.000183, 35,0.000762,0.000017,  35.438
    65.2,0.000234,0.000198, 35,0.000569,0.000008,  35.438
    65.4,0.000239,0.000214, 35,0.000297,0.000058,  35.441
    65.6,0.000247,0.000216, 35,0.000311,0.000058,  35.441
    65.8,0.000250,0.000221, 35,0.000428,0.000048,  35.439
    66.0,0.000250,0.000229, 35,0.000644,0.000098,  35.444
    66.2,0.000250,0.000230, 35,0.000684,0.000125,  35.439
    66.4,0.000244,0.000234, 35,0.000690,0.000102,  35.440
    66.6,0.000244,0.000241, 35,0.000644,0.000139,  35.441
    66.8,0.000250,0.000243, 35,0.000633,0.000125,  35.441
    67.0,0.000244,0.000237, 35,0.000616,0.000089,  35.441
    67.2,0.000241,0.000235, 35,0.000588,0.000125,  35.441
    67.4,0.000245,0.000238, 35,0.000589,0.000125,  35.440
    67.6,0.000239,0.000238, 35,0.000601,0.000089,  35.437
    67.8,0.000239,0.000246, 35,0.000618,0.000125,  35.439
    68.0,0.000245,0.000246, 35,0.000639,0.000125,  35.439
    68.2,0.000236,0.000244, 35,0.000665,0.000089,  35.436
    68.4,0.000233,0.000243, 35,0.000691,0.000125,  35.444
    68.6,0.000237,0.000245, 35,0.000724,0.000125,  35.440
    68.8,0.000231,0.000250, 35,0.000776,0.000075,  35.437
    69.0,0.000226,0.000256, 35,0.000827,0.000112,  35.438
    69.2,0.000232,0.000253, 35,0.000833,0.000112,  35.444
    69.4,0.000228,0.000250, 35,0.000813,0.000062,  35.438
    69.6,0.000232,0.000244, 35,0.000774,0.000098,  35.441
    69.8,0.000238,0.000241, 35,0.000708,0.000112,  35.441
    70.0,0.000232,0.000238, 35,0.000720,0.000112,  35.441
    70.2,0.000227,0.000241, 35,0.000734,0.000075,  35.441
    70.4,0.000222,0.000240, 35,0.000768,0.000112,  35.437
    70.6,0.000215,0.000245, 35,0.000665,0.000112,  35.440
    70.8,0.000224,0.000241, 35,0.000504,0.000075,  35.438
    71.0,0.000233,0.000234, 35,0.000289,0.000112,  35.437
    71.2,0.000229,0.000231, 35,0.000290,0.000112,  35.438
    71.4,0.000238,0.000226, 35,0.000362,0.000075,  35.438
    71.6,0.000240,0.000222, 35,0.000517,0.000112,  35.440
    71.8,0.000234,0.000226, 35,0.000556,0.000098,  35.434
    72.0,0.000240,0.000224, 35,0.000583,0.000075,  35.439
    72.2,0.000235,0.000228, 35,0.000594,0.000098,  35.436
    72.4,0.000229,0.000228, 35,0.000607,0.000071,  35.442
    72.6,0.000238,0.000230, 35,0.000619,0.000048,  35.436
    72.8,0.000235,0.000228, 35,0.000626,0.000085,  35.440
    73.0,0.000232,0.000227, 35,0.000652,0.000071,  35.437
    73.2,0.000238,0.000227, 35,0.000677,0.000048,  35.441
    73.4,0.000238,0.000227, 35,0.000704,0.000085,  35.442
    73.6,0.000240,0.000223, 35,0.000698,0.000071,  35.436
    73.8,0.000237,0.000226, 35,0.000671,0.000048,  35.439
    74.0,0.000243,0.000224, 35,0.000626,0.000085,  35.439
    74.2,0.000245,0.000222, 35,0.000599,0.000085,  35.441
    74.4,0.000245,0.000222, 35,0.000572,0.000062,  35.440
    74.6,0.000251,0.000226, 35,0.000532,0.000098,  35.440
    74.8,0.000251,0.000227, 35,0.000526,0.000098,  35.439
    75.0,0.000245,0.000228, 35,0.000528,0.000075,  35.442
    75.2,0.000251,0.000227, 35,0.000541,0.000112,  35.439
    75.4,0.000248,0.000227, 35,0.000541,0.000098,  35.439
    75.6,0.000239,0.000233, 35,0.000535,0.000075,  35.442
    75.8,0.000245,0.000231, 35,0.000522,0.000112,  35.440
    76.0,0.000248,0.000229, 35,0.000548,0.000098,  35.446
    76.2,0.000242,0.000228, 35,0.000594,0.000075,  35.440
    76.4,0.000248,0.000231, 35,0.000641,0.000112,  35.443
    76.6,0.000248,0.000228, 35,0.000382,0.000098,  35.445
    76.8,0.000242,0.000226, 35,-0.000025,0.000075,  35.440
    77.0,0.000245,0.000227, 35,-0.000587,0.000112,  35.442
    77.2,0.000243,0.000229, 35,-0.000580,0.000098,  35.447
    77.4,0.000239,0.000234, 35,-0.000361,0.000075,  35.441
    77.6,0.000243,0.000236, 35,0.000066,0.000112,  35.444
    77.8,0.000243,0.000237, 35,0.000196,0.000098,  35.447
    78.0,0.000239,0.000237, 35,0.000298,0.000075,  35.446
    78.2,0.000243,0.000236, 35,0.000344,0.000112,  35.446
    78.4,0.000240,0.000236, 35,0.000361,0.000098,  35.449
    78.6,0.000237,0.000235, 35,0.000419,0.000098,  35.451
    78.8,0.000240,0.000228, 35,0.000465,0.000075,  35.447
    79.0,0.000238,0.000226, 35,0.000504,0.000112,  35.446
    79.2,0.000234,0.000225, 35,0.000542,0.000098,  35.440
    79.4,0.000238,0.000229, 35,0.000563,0.000075,  35.446
    79.6,0.000238,0.000226, 35,0.000582,0.000098,  35.447
    79.8,0.000232,0.000222, 35,0.000583,0.000098,  35.447
    80.0,0.000235,0.000227, 35,0.000575,0.000075,  35.451
    80.2,0.000233,0.000227, 35,0.000554,0.000112,  35.458
    80.4,0.000227,0.000225, 35,0.000433,0.000098,  35.459
    80.6,0.000235,0.000227, 35,0.000277,0.000075,  35.459
    80.8,0.000235,0.000227, 35,0.000058,0.000112,  35.460
    81.0,0.000232,0.000225, 35,0.000053,0.000098,  35.461
    81.2,0.000238,0.000221, 35,0.000136,0.000075,  35.455
    81.4,0.000238,0.000222, 35,0.000291,0.000112,  35.458
    81.6,0.000240,0.000224, 35,0.000176,0.000098,  35.462
    81.8,0.000240,0.000224, 35,-0.000030,0.000075,  35.461
    82.0,0.000249,0.000228, 35,-0.000328,0.000112,  35.461
    82.2,0.000249,0.000230, 35,-0.000278,0.000098,  35.462
    82.4,0.000252,0.000230, 35,-0.000108,0.000075,  35.461
    82.6,0.000246,0.000228, 35,0.000182,0.000112,  35.468
    82.8,0.000244,0.000230, 35,0.000291,0.000098,  35.466
    83.0,0.000244,0.000230, 35,0.000363,0.000075,  35.463
    83.2,0.000241,0.000228, 35,0.000402,0.000112,  35.463
    83.4,0.000239,0.000228, 35,0.000462,0.000098,  35.469
    83.6,0.000239,0.000228, 35,0.000526,0.000075,  35.466
    83.8,0.000233,0.000224, 35,0.000584,0.000112,  35.466
    84.0,0.000239,0.000223, 35,0.000623,0.000098,  35.465
    84.2,0.000239,0.000221, 35,0.000657,0.000075,  35.464
    84.4,0.000233,0.000221, 35,0.000677,0.000112,  35.467
    84.6,0.000236,0.000226, 35,0.000688,0.000112,  35.477
    84.8,0.000239,0.000227, 35,0.000666,0.000075,  35.470
    85.0,0.000235,0.000229, 35,0.000619,0.000112,  35.465
    85.2,0.000244,0.000231, 35,0.000632,0.000098,  35.470
    85.4,0.000246,0.000228, 35,0.000646,0.000075,  35.466
    85.6,0.000243,0.000231, 35,0.000684,0.000112,  35.474
    85.8,0.000252,0.000228, 35,0.000672,0.000098,  35.470
    86.0,0.000251,0.000230, 35,0.000647,0.000075,  35.471
    86.2,0.000253,0.000231, 35,0.000607,0.000112,  35.472
    86.4,0.000253,0.000229, 35,0.000613,0.000112,  35.474
    86.6,0.000250,0.000225, 35,0.000628,0.000075,  35.476
    86.8,0.000258,0.000227, 35,0.000661,0.000112,  35.473
    87.0,0.000253,0.000229, 35,0.000701,0.000112,  35.472
    87.2,0.000247,0.000228, 35,0.000566,0.000112,  35.476
    87.4,0.000256,0.000238, 35,0.000377,0.000075,  35.476
    87.6,0.000253,0.000238, 35,0.000124,0.000112,  35.476
    87.8,0.000247,0.000234, 35,0.000092,0.000112,  35.479
    88.0,0.000256,0.000232, 35,0.000138,0.000075,  35.474
    88.2,0.000256,0.000234, 35,0.000267,0.000112,  35.473
    88.4,0.000250,0.000237, 35,0.000312,0.000112,  35.476
    88.6,0.000253,0.000237, 35,0.000344,0.000075,  35.474
    88.8,0.000251,0.000235, 35,0.000382,0.000112,  35.476
    89.0,0.000248,0.000237, 35,0.000434,0.000112,  35.475
    89.2,0.000245,0.000235, 35,0.000499,0.000075,  35.476
    89.4,0.000249,0.000237, 35,0.000566,0.000112,  35.481
    89.6,0.000245,0.000235, 35,0.000598,0.000098,  35.481
    89.8,0.000245,0.000238, 35,0.000606,0.000075,  35.479
    90.0,0.000251,0.000238, 35,0.000611,0.000112,  35.479
    90.2,0.000247,0.000240, 35,0.000644,0.000112,  35.478
    90.4,0.000253,0.000240, 35,0.000671,0.000075,  35.477
    90.6,0.000251,0.000236, 35,0.000711,0.000112,  35.482
    90.8,0.000248,0.000232, 35,0.000697,0.000098,  35.481
    91.0,0.000248,0.000233, 35,0.000644,0.000075,  35.480
    91.2,0.000245,0.000231, 35,0.000570,0.000112,  35.481
    91.4,0.000249,0.000232, 35,0.000395,0.000098,  35.479
    91.6,0.000249,0.000230, 35,0.000149,0.000075,  35.478
    91.8,0.000246,0.000233, 35,-0.000154,0.000112,  35.480
    92.0,0.000249,0.000234, 35,-0.000140,0.000098,  35.477
    92.2,0.000245,0.000235, 35,-0.000009,0.000075,  35.484
    92.4,0.000243,0.000236, 35,0.000257,0.000112,  35.484
    92.6,0.000243,0.000234, 35,0.000335,0.000098,  35.479
    92.8,0.000245,0.000236, 35,0.000386,0.000075,  35.484
    93.0,0.000245,0.000237, 35,0.000404,0.000112,  35.482
    93.2,0.000254,0.000240, 35,0.000435,0.000098,  35.480
    93.4,0.000254,0.000238, 35,0.000449,0.000075,  35.481
    93.6,0.000248,0.000234, 35,0.000455,0.000098,  35.484
    93.8,0.000254,0.000236, 35,0.000208,0.000121,  35.484
    94.0,0.000258,0.000237, 35,-0.000179,0.000098,  35.480
    94.2,0.000259,0.000237, 35,-0.000702,0.000098,  35.480
    94.4,0.000263,0.000234, 35,-0.000707,0.000098,  35.485
    94.6,0.000266,0.000228, 35,-0.000515,0.000075,  35.480
    94.8,0.000265,0.000235, 35,-0.000140,0.000112,  35.479
    95.0,0.000266,0.000237, 35,-0.000016,0.000098,  35.479
    95.2,0.000260,0.000235, 35,0.000080,0.000075,  35.482
    95.4,0.000254,0.000237, 35,0.000149,0.000112,  35.481
    95.6,0.000266,0.000243, 35,0.000227,0.000112,  35.482
    95.8,0.000271,0.000242, 35,0.000299,0.000075,  35.480
    96.0,0.000268,0.000244, 35,0.000364,0.000112,  35.483
    96.2,0.000273,0.000245, 35,0.000417,0.000112,  35.485
    96.4,0.000281,0.000249, 35,0.000463,0.000112,  35.480
    96.6,0.000286,0.000252, 35,0.000501,0.000075,  35.484
    96.8,0.000291,0.000252, 35,0.000526,0.000112,  35.483
    97.0,0.000299,0.000249, 35,0.000533,0.000112,  35.485
    97.2,0.000300,0.000254, 35,0.000538,0.000075,  35.483
    97.4,0.000308,0.000262, 35,0.000514,0.000112,  35.486
    97.6,0.000321,0.000262, 35,0.000514,0.000112,  35.485
    97.8,0.000330,0.000266, 35,0.000513,0.000075,  35.484
    98.0,0.000354,0.000270, 35,0.000511,0.000112,  35.482
    98.2,0.000367,0.000271, 35,0.000537,0.000112,  35.482
    98.4,0.000373,0.000281, 35,0.000577,0.000089,  35.481
    98.6,0.000390,0.000284, 35,0.000635,0.000125,  35.485
    98.8,0.000408,0.000293, 35,0.000647,0.000125,  35.481
    99.0,0.000419,0.000306, 35,0.000646,0.000102,  35.483
    99.2,0.000446,0.000319, 35,0.000632,0.000139,  35.485
    99.4,0.000464,0.000330, 35,0.000663,0.000125,  35.483
    99.6,0.000471,0.000345, 35,0.000708,0.000089,  35.482
    99.8,0.000487,0.000356, 35,0.000778,0.000139,  35.484
   100.0,0.000489,0.000369, 35,0.000680,0.000139,  35.484
   100.2,0.000494,0.000391, 35,0.000516,0.000102,  35.488
   100.4,0.000496,0.000408, 35,0.000284,0.000166,  35.486
   100.6,0.000499,0.000425, 35,0.000296,0.000166,  35.484
   100.8,0.000493,0.000438, 35,0.000384,0.000143,  35.479
   101.0,0.000501,0.000454, 35,0.000557,0.000193,  35.486
   101.2,0.000499,0.000467, 35,0.000634,0.000206,  35.486
   101.4,0.000493,0.000478, 35,0.000704,0.000197,  35.487
   101.6,0.000499,0.000494, 35,0.000762,0.000233,  35.485
   101.8,0.000501,0.000504, 35,0.000795,0.000247,  35.488
   102.0,0.000500,0.000510, 35,0.000832,0.000224,  35.487
   102.2,0.000512,0.000517, 35,0.000843,0.000274,  35.486
   102.4,0.000517,0.000523, 35,0.000883,0.000297,  35.486
   102.6,0.000518,0.000519, 35,0.000924,0.000260,  35.489
   102.8,0.000527,0.000513, 35,0.000982,0.000287,  35.490
   103.0,0.000527,0.000515, 35,0.001026,0.000324,  35.487
   103.2,0.000523,0.000513, 35,0.001048,0.000301,  35.487
   103.4,0.000530,0.000513, 35,0.001068,0.000301,  35.489
   103.6,0.000527,0.000511, 35,0.001061,0.000337,  35.489
   103.8,0.000523,0.000513, 35,0.001029,0.000314,  35.488
   104.0,0.000537,0.000515, 35,0.000977,0.000314,  35.487
   104.2,0.000547,0.000514, 35,0.000992,0.000350,  35.487
   104.4,0.000547,0.000518, 35,0.001025,0.000328,  35.488
   104.6,0.000552,0.000524, 35,0.001083,0.000328,  35.488
   104.8,0.000559,0.000524, 35,0.001083,0.000350,  35.488
   105.0,0.000558,0.000522, 35,0.001075,0.000314,  35.488
   105.2,0.000558,0.000515, 35,0.001043,0.000314,  35.488
   105.4,0.000564,0.000518, 35,0.000995,0.000324,  35.492
   105.6,0.000566,0.000520, 35,0.001020,0.000324,  35.489
   105.8,0.000574,0.000529, 35,0.001054,0.000287,  35.491
   106.0,0.000590,0.000542, 35,0.001101,0.000337,  35.489
   106.2,0.000589,0.000553, 35,0.001126,0.000337,  35.492
   106.4,0.000592,0.000577, 35,0.001128,0.000314,  35.495
   106.6,0.000595,0.000584, 35,0.001133,0.000314,  35.489
   106.8,0.000584,0.000590, 35,0.001114,0.000350,  35.491
   107.0,0.000576,0.000590, 35,0.001086,0.000328,  35.494
   107.2,0.000570,0.000591, 35,0.001046,0.000328,  35.491
   107.4,0.000556,0.000588, 35,0.000761,0.000364,  35.494
   107.6,0.000548,0.000586, 35,0.000346,0.000341,  35.496
   107.8,0.000544,0.000576, 35,-0.000189,0.000328,  35.496
   108.0,0.000528,0.000570, 35,-0.000222,0.000364,  35.485
   108.2,0.000520,0.000562, 35,-0.000068,0.000341,  35.488
   108.4,0.000518,0.000559, 35,0.000273,0.000341,  35.491
   108.6,0.000502,0.000552, 35,0.000358,0.000391,  35.489
   108.8,0.000492,0.000545, 35,0.000397,0.000368,  35.491
   109.0,0.000490,0.000546, 35,0.000408,0.000368,  35.489
   109.2,0.000480,0.000544, 35,0.000500,0.000404,  35.492
   109.4,0.000470,0.000539, 35,0.000605,0.000368,  35.494
   109.6,0.000462,0.000545, 35,0.000736,0.000368,  35.493
   109.8,0.000452,0.000536, 35,0.000654,0.000377,  35.492
   110.0,0.000444,0.000523, 35,0.000479,0.000341,  35.490
   110.2,0.000443,0.000503, 35,0.000196,0.000314,  35.488
   110.4,0.000437,0.000488, 35,0.000198,0.000337,  35.486
   110.6,0.000421,0.000477, 35,0.000308,0.000301,  35.490
   110.8,0.000419,0.000465, 35,0.000501,0.000287,  35.485
   111.0,0.000407,0.000452, 35,0.000548,0.000310,  35.488
   111.2,0.000390,0.000436, 35,0.000582,0.000274,  35.488
   111.4,0.000386,0.000422, 35,0.000589,0.000260,  35.490
   111.6,0.000373,0.000416, 35,0.000616,0.000283,  35.491
   111.8,0.000362,0.000413, 35,0.000638,0.000233,  35.485
   112.0,0.000366,0.000413, 35,0.000663,0.000233,  35.487
   112.2,0.000361,0.000408, 35,0.000541,0.000270,  35.488
   112.4,0.000352,0.000396, 35,0.000330,0.000220,  35.485
   112.6,0.000356,0.000389, 35,0.000046,0.000206,  35.484
   112.8,0.000350,0.000383, 35,0.000021,0.000243,  35.488
   113.0,0.000342,0.000375, 35,0.000092,0.000220,  35.488
   113.2,0.000343,0.000374, 35,0.000247,0.000206,  35.486
   113.4,0.000332,0.000371, 35,0.000306,0.000193,  35.484
   113.6,0.000326,0.000360, 35,0.000363,0.000170,  35.486
   113.8,0.000330,0.000353, 35,0.000422,0.000206,  35.482
   114.0,0.000330,0.000351, 35,0.000474,0.000193,  35.491
   114.2,0.000324,0.000350, 35,0.000494,0.000193,  35.486
   114.4,0.000321,0.000349, 35,0.000495,0.000156,  35.488
   114.6,0.000316,0.000347, 35,0.000489,0.000193,  35.489
   114.8,0.000308,0.000347, 35,0.000516,0.000179,  35.489
   115.0,0.000308,0.000341, 35,0.000548,0.000156,  35.489
   115.2,0.000311,0.000334, 35,0.000587,0.000193,  35.487
   115.4,0.000302,0.000333, 35,0.000588,0.000179,  35.488
   115.6,0.000300,0.000331, 35,0.000580,0.000143,  35.489
   115.8,0.000303,0.000325, 35,0.000548,0.000166,  35.492
   116.0,0.000300,0.000323, 35,0.000555,0.000152,  35.489
   116.2,0.000297,0.000318, 35,0.000574,0.000116,  35.484
   116.4,0.000301,0.000315, 35,0.000593,0.000139,  35.486
   116.6,0.000297,0.000308, 35,0.000626,0.000125,  35.487
   116.8,0.000301,0.000308, 35,0.000658,0.000089,  35.489
   117.0,0.000307,0.000299, 35,0.000691,0.000139,  35.485
   117.2,0.000303,0.000294, 35,0.000698,0.000139,  35.488
   117.4,0.000301,0.000296, 35,0.000703,0.000102,  35.488
   117.6,0.000301,0.000298, 35,0.000688,0.000152,  35.487
   117.8,0.000301,0.000296, 35,0.000518,0.000139,  35.487
   118.0,0.000303,0.000294, 35,0.000259,0.000089,  35.486
   118.2,0.000306,0.000293, 35,-0.000090,0.000125,  35.484
   118.4,0.000306,0.000291, 35,-0.000072,0.000112,  35.488
   118.6,0.000309,0.000293, 35,0.000076,0.000062,  35.486
   118.8,0.000315,0.000293, 35,0.000348,0.000098,  35.482
   119.0,0.000315,0.000287, 35,0.000426,0.000112,  35.486
   119.2,0.000314,0.000290, 35,0.000477,0.000075,  35.485
   119.4,0.000314,0.000290, 35,0.000501,0.000112,  35.482
   119.6,0.000314,0.000286, 35,0.000378,0.000098,  35.481
   119.8,0.000310,0.000288, 35,0.000171,0.000075,  35.481
   120.0,0.000321,0.000287, 35,-0.000127,0.000112,  35.481
   120.2,0.000327,0.000291, 35,-0.000225,0.000112,  35.483
   120.4,0.000324,0.000292, 35,-0.000265,0.000075,  35.484
   120.6,0.000335,0.000298, 35,-0.000267,0.000112,  35.484
   120.8,0.000338,0.000297, 35,-0.000487,0.000112,  35.485
   121.0,0.000337,0.000294, 35,-0.000784,0.000075,  35.481
   121.2,0.000345,0.000295, 35,-0.001176,0.000112,  35.486
   121.4,0.000345,0.000294, 35,-0.001145,0.000112,  35.487
   121.6,0.000344,0.000292, 35,-0.000948,0.000075,  35.485
   121.8,0.000356,0.000290, 35,-0.000584,0.000112,  35.484
   122.0,0.000356,0.000292, 35,-0.000309,0.000112,  35.484
   122.2,0.000357,0.000288, 35,-0.000006,0.000075,  35.486
   122.4,0.000368,0.000295, 35,0.000346,0.000112,  35.483
   122.6,0.000376,0.000299, 35,0.000545,0.000098,  35.486
   122.8,0.000378,0.000305, 35,0.000687,0.000075,  35.484
   123.0,0.000389,0.000309, 35,0.000781,0.000112,  35.480
   123.2,0.000391,0.000309, 35,0.000812,0.000098,  35.480
   123.4,0.000390,0.000314, 35,0.000782,0.000098,  35.483
   123.6,0.000402,0.000318, 35,0.000683,0.000075,  35.481
   123.8,0.000404,0.000316, 35,0.000524,0.000112,  35.479
   124.0,0.000403,0.000319, 35,0.000632,0.000098,  35.480
   124.2,0.000414,0.000329, 35,0.000848,0.000075,  35.479
   124.4,0.000419,0.000329, 35,0.001174,0.000098,  35.476
   124.6,0.000421,0.000327, 35,0.001347,0.000098,  35.481
   124.8,0.000437,0.000328, 35,0.001499,0.000075,  35.480
   125.0,0.000443,0.000332, 35,0.001625,0.000112,  35.479
   125.2,0.000444,0.000335, 35,0.001747,0.000098,  35.475
   125.4,0.000460,0.000337, 35,0.001870,0.000075,  35.477
   125.6,0.000466,0.000343, 35,0.001963,0.000112,  35.479
   125.8,0.000470,0.000347, 35,0.002037,0.000112,  35.480
   126.0,0.000486,0.000347, 35,0.002096,0.000075,  35.476
   126.2,0.000496,0.000357, 35,0.002130,0.000112,  35.476
   126.4,0.000503,0.000360, 35,0.002222,0.000098,  35.476
   126.6,0.000519,0.000364, 35,0.002322,0.000075,  35.479
   126.8,0.000532,0.000372, 35,0.002445,0.000112,  35.478
   127.0,0.000542,0.000382, 35,0.002551,0.000098,  35.480
   127.2,0.000547,0.000384, 35,0.002662,0.000075,  35.481
   127.4,0.000560,0.000386, 35,0.002767,0.000112,  35.480
   127.6,0.000568,0.000394, 35,0.002859,0.000098,  35.480
   127.8,0.000575,0.000400, 35,0.002961,0.000075,  35.479
   128.0,0.000594,0.000399, 35,0.003045,0.000112,  35.480
   128.2,0.000609,0.000401, 35,0.003170,0.000098,  35.478
   128.4,0.000627,0.000402, 35,0.003308,0.000075,  35.477
   128.6,0.000640,0.000408, 35,0.003465,0.000112,  35.480
   128.8,0.000658,0.000415, 35,0.003555,0.000098,  35.476
   129.0,0.000674,0.000418, 35,0.003612,0.000075,  35.479
   129.2,0.000681,0.000436, 35,0.003641,0.000112,  35.476
   129.4,0.000697,0.000447, 35,0.003757,0.000098,  35.474
   129.6,0.000715,0.000453, 35,0.003913,0.000075,  35.474
   129.8,0.000729,0.000462, 35,0.004101,0.000112,  35.474
   130.0,0.000753,0.000472, 35,0.004230,0.000098,  35.475
   130.2,0.000771,0.000484, 35,0.004346,0.000075,  35.474
   130.4,0.000780,0.000494, 35,0.004460,0.000112,  35.474
   130.6,0.000802,0.000503, 35,0.004615,0.000098,  35.473
   130.8,0.000819,0.000508, 35,0.004793,0.000075,  35.478
   131.0,0.000839,0.000516, 35,0.004980,0.000112,  35.473
   131.2,0.000865,0.000527, 35,0.005128,0.000098,  35.477
   131.4,0.000882,0.000534, 35,0.005247,0.000098,  35.473
   131.6,0.000906,0.000548, 35,0.005362,0.000075,  35.475
   131.8,0.000924,0.000558, 35,0.005449,0.000098,  35.475
   132.0,0.000941,0.000567, 35,0.005616,0.000085,  35.472
   132.2,0.000970,0.000579, 35,0.005803,0.000062,  35.473
   132.4,0.000991,0.000589, 35,0.006014,0.000085,  35.477
   132.6,0.001008,0.000597, 35,0.006200,0.000085,  35.473
   132.8,0.001037,0.000606, 35,0.006392,0.000062,  35.477
   133.0,0.001057,0.000616, 35,0.006583,0.000085,  35.472
   133.2,0.001072,0.000630, 35,0.006783,0.000085,  35.475
   133.4,0.001101,0.000635, 35,0.006980,0.000062,  35.475
   133.6,0.001121,0.000645, 35,0.007178,0.000085,  35.476
   133.8,0.001141,0.000655, 35,0.007238,0.000085,  35.475
   134.0,0.001172,0.000670, 35,0.007236,0.000062,  35.475
   134.2,0.001198,0.000686, 35,0.007157,0.000085,  35.475
   134.4,0.001220,0.000703, 35,0.007361,0.000085,  35.476
   134.6,0.001252,0.000720, 35,0.007670,0.000062,  35.477
   134.8,0.001275,0.000734, 35,0.008091,0.000098,  35.474
   135.0,0.001297,0.000745, 35,0.008394,0.000098,  35.478
   135.2,0.001331,0.000755, 35,0.008692,0.000075,  35.476
   135.4,0.001362,0.000765, 35,0.008994,0.000112,  35.476
   135.6,0.001385,0.000771, 35,0.009257,0.000098,  35.477
   135.8,0.001400,0.000790, 35,0.009500,0.000075,  35.474
   136.0,0.001426,0.000811, 35,0.009716,0.000112,  35.473
   136.2,0.001439,0.000824, 35,0.009940,0.000098,  35.477
   136.4,0.001459,0.000838, 35,0.010168,0.000075,  35.472
   136.6,0.001493,0.000851, 35,0.010383,0.000112,  35.478
   136.8,0.001521,0.000866, 35,0.010673,0.000098,  35.477
   137.0,0.001546,0.000881, 35,0.010984,0.000075,  35.477
   137.2,0.001583,0.000896, 35,0.011340,0.000112,  35.477
   137.4,0.001611,0.000909, 35,0.011663,0.000098,  35.480
   137.6,0.001636,0.000930, 35,0.011967,0.000075,  35.478
   137.8,0.001675,0.000948, 35,0.012276,0.000098,  35.482
   138.0,0.001706,0.000961, 35,0.012196,0.000085,  35.476
   138.2,0.001731,0.000983, 35,0.011922,0.000062,  35.478
   138.4,0.001770,0.001000, 35,0.011448,0.000071,  35.480
   138.6,0.001798,0.001014, 35,0.011702,0.000094,  35.482
   138.8,0.001826,0.001033, 35,0.012217,0.000071,  35.479
   139.0,0.001865,0.001049, 35,0.013008,0.000071,  35.482
   139.2,0.001899,0.001063, 35,0.013457,0.000121,  35.479
   139.4,0.001926,0.001083, 35,0.013860,0.000098,  35.482
   139.6,0.001963,0.001097, 35,0.014227,0.000098,  35.483
   139.8,0.001996,0.001114, 35,0.014566,0.000135,  35.485
   140.0,0.002030,0.001133, 35,0.014873,0.000112,  35.484
   140.2,0.002055,0.001159, 35,0.015148,0.000112,  35.485
   140.4,0.002090,0.001181, 35,0.015378,0.000148,  35.490
   140.6,0.002119,0.001198, 35,0.015703,0.000148,  35.484
   140.8,0.002155,0.001227, 35,0.016045,0.000112,  35.483
   141.0,0.002194,0.001250, 35,0.016388,0.000135,  35.487
   141.2,0.002224,0.001258, 35,0.016738,0.000121,  35.492
   141.4,0.002263,0.001276, 35,0.017088,0.000098,  35.489
   141.6,0.002294,0.001293, 35,0.017446,0.000085,  35.489
   141.8,0.002324,0.001310, 35,0.017783,0.000121,  35.493
   142.0,0.002366,0.001329, 35,0.018094,0.000098,  35.490
   142.2,0.002402,0.001345, 35,0.018409,0.000085,  35.493
   142.4,0.002432,0.001362, 35,0.018749,0.000121,  35.493
   142.6,0.002474,0.001376, 35,0.019101,0.000098,  35.495
   142.8,0.002508,0.001390, 35,0.019461,0.000098,  35.498
   143.0,0.002538,0.001404, 35,0.019820,0.000135,  35.493
   143.2,0.002577,0.001428, 35,0.020180,0.000112,  35.490
   143.4,0.002610,0.001444, 35,0.020545,0.000112,  35.495
   143.6,0.002640,0.001469, 35,0.020885,0.000148,  35.498
   143.8,0.002682,0.001483, 35,0.021210,0.000112,  35.493
   144.0,0.002716,0.001506, 35,0.021529,0.000112,  35.496
   144.2,0.002752,0.001529, 35,0.021896,0.000135,  35.491
   144.4,0.002783,0.001543, 35,0.022277,0.000112,  35.498
   144.6,0.002820,0.001567, 35,0.022679,0.000112,  35.496
   144.8,0.002851,0.001586, 35,0.023034,0.000148,  35.494
   145.0,0.002881,0.001603, 35,0.023374,0.000112,  35.497
   145.2,0.002907,0.001624, 35,0.023700,0.000112,  35.496
   145.4,0.002933,0.001643, 35,0.024055,0.000148,  35.497
   145.6,0.002966,0.001660, 35,0.024417,0.000112,  35.499
   145.8,0.003000,0.001682, 35,0.024793,0.000112,  35.498
   146.0,0.003036,0.001701, 35,0.025141,0.000148,  35.503
   146.2,0.003075,0.001720, 35,0.025482,0.000125,  35.501
   146.4,0.003107,0.001745, 35,0.025815,0.000125,  35.500
   146.6,0.003147,0.001766, 35,0.026165,0.000162,  35.501
   146.8,0.003183,0.001778, 35,0.026521,0.000139,  35.501
   147.0,0.003213,0.001799, 35,0.026876,0.000139,  35.500
   147.2,0.003252,0.001822, 35,0.027212,0.000162,  35.504
   147.4,0.003285,0.001841, 35,0.027546,0.000125,  35.502
   147.6,0.003321,0.001864, 35,0.027868,0.000125,  35.503
   147.8,0.003362,0.001888, 35,0.028190,0.000162,  35.501
   148.0,0.003395,0.001907, 35,0.028510,0.000112,  35.503
   148.2,0.003428,0.001932, 35,0.028824,0.000112,  35.500
   148.4,0.003459,0.001951, 35,0.029205,0.000148,  35.501
   148.6,0.003487,0.001974, 35,0.029612,0.000098,  35.503
   148.8,0.003523,0.001997, 35,0.030043,0.000098,  35.503
   149.0,0.003557,0.002011, 35,0.030384,0.000112,  35.508
   149.2,0.003585,0.002032, 35,0.030681,0.000075,  35.516
   149.4,0.003623,0.002053, 35,0.030943,0.000112,  35.518
   149.6,0.003665,0.002069, 35,0.031166,0.000112,  35.517
   149.8,0.003701,0.002088, 35,0.031485,0.000112,  35.520
   150.0,0.003727,0.002110, 35,0.031821,0.000075,  35.514
   150.2,0.003765,0.002129, 35,0.032170,0.000112,  35.518
   150.4,0.003806,0.002146, 35,0.032516,0.000112,  35.520
   150.6,0.003834,0.002163, 35,0.032863,0.000075,  35.519
   150.8,0.003873,0.002182, 35,0.033223,0.000112,  35.521
   151.0,0.003910,0.002203, 35,0.033550,0.000112,  35.522
   151.2,0.003934,0.002221, 35,0.033868,0.000075,  35.520
   151.4,0.003969,0.002238, 35,0.034177,0.000112,  35.519
   151.6,0.004005,0.002254, 35,0.034549,0.000098,  35.523
   151.8,0.004035,0.002270, 35,0.034950,0.000075,  35.520
   152.0,0.004075,0.002282, 35,0.035373,0.000112,  35.517
   152.2,0.004106,0.002301, 35,0.035770,0.000098,  35.523
   152.4,0.004140,0.002318, 35,0.036163,0.000075,  35.523
   152.6,0.004173,0.002332, 35,0.036550,0.000112,  35.520
   152.8,0.004206,0.002351, 35,0.036903,0.000098,  35.522
   153.0,0.004233,0.002370, 35,0.037242,0.000075,  35.520
   153.2,0.004266,0.002391, 35,0.037563,0.000112,  35.521
   153.4,0.004293,0.002406, 35,0.037892,0.000098,  35.521
   153.6,0.004324,0.002426, 35,0.038201,0.000075,  35.523
   153.8,0.004347,0.002450, 35,0.038519,0.000112,  35.519
   154.0,0.004373,0.002469, 35,0.038874,0.000112,  35.519
   154.2,0.004393,0.002488, 35,0.039250,0.000089,  35.520
   154.4,0.004420,0.002511, 35,0.039642,0.000125,  35.520
   154.6,0.004440,0.002530, 35,0.040006,0.000125,  35.522
   154.8,0.004465,0.002544, 35,0.040375,0.000102,  35.522
   155.0,0.004494,0.002555, 35,0.040738,0.000139,  35.525
   155.2,0.004527,0.002574, 35,0.041086,0.000125,  35.522
   155.4,0.004550,0.002587, 35,0.041419,0.000075,  35.527
   155.6,0.004584,0.002604, 35,0.041745,0.000112,  35.525
   155.8,0.004616,0.002622, 35,0.042102,0.000135,  35.527
   156.0,0.004641,0.002639, 35,0.042468,0.000098,  35.526
   156.2,0.004667,0.002658, 35,0.042847,0.000098,  35.524
   156.4,0.004698,0.002676, 35,0.043192,0.000148,  35.523
   156.6,0.004723,0.002691, 35,0.043534,0.000112,  35.526
   156.8,0.004749,0.002709, 35,0.043857,0.000098,  35.525
   157.0,0.004781,0.002728, 35,0.044189,0.000121,  35.525
   157.2,0.004803,0.002740, 35,0.044525,0.000098,  35.530
   157.4,0.004834,0.002761, 35,0.044854,0.000098,  35.529
   157.6,0.004868,0.002776, 35,0.045165,0.000135,  35.530
   157.8,0.004891,0.002788, 35,0.045468,0.000112,  35.528
   158.0,0.004917,0.002806, 35,0.045767,0.000112,  35.527
   158.2,0.004949,0.002821, 35,0.046038,0.000135,  35.527
   158.4,0.004974,0.002836, 35,0.046304,0.000112,  35.529
   158.6,0.005008,0.002854, 35,0.046543,0.000112,  35.528
   158.8,0.005043,0.002867, 35,0.046775,0.000135,  35.530
   159.0,0.005062,0.002882, 35,0.047059,0.000148,  35.531
   159.2,0.005094,0.002896, 35,0.047347,0.000125,  35.527
   159.4,0.005118,0.002909, 35,0.047650,0.000162,  35.528
   159.6,0.005137,0.002927, 35,0.047954,0.000162,  35.526
   159.8,0.005167,0.002949, 35,0.048265,0.000125,  35.526
   160.0,0.005193,0.002965, 35,0.048577,0.000125,  35.528
   160.2,0.005210,0.002983, 35,0.048729,0.000148,  35.527
   160.4,0.005237,0.003002, 35,0.048822,0.000112,  35.528
   160.6,0.005257,0.003013, 35,0.048834,0.000112,  35.524
   160.8,0.005275,0.003027, 35,0.049226,0.000162,  35.528
   161.0,0.005301,0.003036, 35,0.049787,0.000139,  35.529
   161.2,0.005322,0.003042, 35,0.050503,0.000152,  35.527
   161.4,0.005337,0.003049, 35,0.050902,0.000175,  35.528
   161.6,0.005366,0.003066, 35,0.051212,0.000139,  35.527
   161.8,0.005387,0.003085, 35,0.051450,0.000152,  35.528
   162.0,0.005404,0.003098, 35,0.051759,0.000175,  35.526
   162.2,0.005428,0.003104, 35,0.052054,0.000139,  35.526
   162.4,0.005449,0.003124, 35,0.052348,0.000152,  35.524
   162.6,0.005464,0.003139, 35,0.052353,0.000175,  35.527
   162.8,0.005474,0.003145, 35,0.052196,0.000139,  35.526
   163.0,0.005493,0.003159, 35,0.051899,0.000152,  35.529
   163.2,0.005503,0.003169, 35,0.052201,0.000189,  35.528
   163.4,0.005515,0.003183, 35,0.052706,0.000152,  35.527
   163.6,0.005537,0.003198, 35,0.053437,0.000152,  35.526
   163.8,0.005558,0.003212, 35,0.053850,0.000189,  35.530
   164.0,0.005570,0.003227, 35,0.054195,0.000152,  35.524
   164.2,0.005594,0.003235, 35,0.054492,0.000139,  35.521
   164.4,0.005607,0.003247, 35,0.054829,0.000162,  35.524
   164.6,0.005616,0.003255, 35,0.055144,0.000125,  35.524
   164.8,0.005638,0.003264, 35,0.055457,0.000125,  35.521
   165.0,0.005651,0.003271, 35,0.055758,0.000162,  35.523
   165.2,0.005660,0.003277, 35,0.056044,0.000125,  35.523
   165.4,0.005685,0.003294, 35,0.056321,0.000125,  35.523
   165.6,0.005700,0.003303, 35,0.056618,0.000162,  35.522
   165.8,0.005710,0.003313, 35,0.056927,0.000125,  35.520
   166.0,0.005734,0.003326, 35,0.057232,0.000139,  35.516
   166.2,0.005749,0.003334, 35,0.057498,0.000175,  35.518
   166.4,0.005761,0.003342, 35,0.057739,0.000139,  35.516
   166.6,0.005783,0.003347, 35,0.057956,0.000139,  35.516
   166.8,0.005799,0.003354, 35,0.058186,0.000162,  35.508
   167.0,0.005808,0.003366, 35,0.058401,0.000125,  35.513
   167.2,0.005827,0.003378, 35,0.058607,0.000125,  35.511
   167.4,0.005840,0.003390, 35,0.058810,0.000162,  35.506
   167.6,0.005853,0.003393, 35,0.059044,0.000162,  35.507
   167.8,0.005863,0.003404, 35,0.059274,0.000125,  35.508
   168.0,0.005880,0.003416, 35,0.059517,0.000162,  35.507
   168.2,0.005887,0.003421, 35,0.059756,0.000162,  35.504
   168.4,0.005888,0.003435, 35,0.059994,0.000125,  35.497
   168.6,0.005899,0.003445, 35,0.060227,0.000139,  35.496
   168.8,0.005903,0.003445, 35,0.060490,0.000162,  35.495
   169.0,0.005913,0.003455, 35,0.060760,0.000125,  35.496
   169.2,0.005927,0.003465, 35,0.061032,0.000125,  35.494
   169.4,0.005932,0.003466, 35,0.061258,0.000162,  35.496
   169.6,0.005942,0.003471, 35,0.061467,0.000125,  35.492
   169.8,0.005961,0.003475, 35,0.061645,0.000139,  35.492
   170.0,0.005965,0.003477, 35,0.061817,0.000175,  35.487
   170.2,0.005973,0.003483, 35,0.061975,0.000139,  35.490
   170.4,0.005989,0.003490, 35,0.062108,0.000152,  35.487
   170.6,0.005994,0.003496, 35,0.062297,0.000175,  35.488
   170.8,0.006002,0.003497, 35,0.062489,0.000139,  35.486
   171.0,0.006015,0.003505, 35,0.062704,0.000139,  35.485
   171.2,0.006021,0.003511, 35,0.062871,0.000162,  35.479
   171.4,0.006028,0.003512, 35,0.063018,0.000125,  35.485
   171.6,0.006028,0.003515, 35,0.063145,0.000125,  35.478
   171.8,0.006031,0.003519, 35,0.063305,0.000162,  35.481
   172.0,0.006039,0.003529, 35,0.063472,0.000125,  35.476
   172.2,0.006044,0.003535, 35,0.063641,0.000125,  35.479
   172.4,0.006054,0.003541, 35,0.063834,0.000162,  35.477
   172.6,0.006056,0.003542, 35,0.064033,0.000125,  35.474
   172.8,0.006067,0.003550, 35,0.064235,0.000125,  35.473
   173.0,0.006076,0.003558, 35,0.064429,0.000162,  35.473
   173.2,0.006075,0.003556, 35,0.064631,0.000112,  35.469
   173.4,0.006080,0.003562, 35,0.064826,0.000112,  35.473
   173.6,0.006083,0.003568, 35,0.064982,0.000148,  35.468
   173.8,0.006082,0.003574, 35,0.065105,0.000098,  35.470
   174.0,0.006084,0.003580, 35,0.065218,0.000098,  35.464
   174.2,0.006096,0.003584, 35,0.065383,0.000148,  35.465
   174.4,0.006095,0.003583, 35,0.065562,0.000112,  35.467
   174.6,0.006097,0.003587, 35,0.065745,0.000112,  35.464
   174.8,0.006103,0.003592, 35,0.065872,0.000148,  35.462
   175.0,0.006100,0.003593, 35,0.065982,0.000112,  35.462
   175.2,0.006097,0.003592, 35,0.066054,0.000148,  35.463
   175.4,0.006098,0.003596, 35,0.066167,0.000171,  35.462
   175.6,0.006095,0.003598, 35,0.066285,0.000148,  35.460
   175.8,0.006095,0.003592, 35,0.066415,0.000185,  35.456
   176.0,0.006101,0.003590, 35,0.066548,0.000171,  35.455
   176.2,0.006100,0.003590, 35,0.066644,0.000171,  35.452
   176.4,0.006103,0.003591, 35,0.066723,0.000148,  35.450
   176.6,0.006111,0.003587, 35,0.066786,0.000185,  35.450
   176.8,0.006108,0.003588, 35,0.066907,0.000135,  35.447
   177.0,0.006108,0.003591, 35,0.067039,0.000112,  35.444
   177.2,0.006109,0.003589, 35,0.067185,0.000098,  35.444
   177.4,0.006100,0.003587, 35,0.067103,0.000135,  35.444
   177.6,0.006100,0.003586, 35,0.066921,0.000112,  35.435
   177.8,0.006106,0.003588, 35,0.066616,0.000112,  35.441
   178.0,0.006097,0.003583, 35,0.066711,0.000135,  35.439
   178.2,0.006097,0.003588, 35,0.066945,0.000112,  35.435
   178.4,0.006106,0.003590, 35,0.067316,0.000112,  35.436
   178.6,0.006100,0.003590, 35,0.067465,0.000135,  35.431
   178.8,0.006097,0.003587, 35,0.067569,0.000112,  35.432
   179.0,0.006101,0.003585, 35,0.067625,0.000112,  35.430
   179.2,0.006097,0.003585, 35,0.067774,0.000135,  35.415
   179.4,0.006095,0.003583, 35,0.067941,0.000112,  35.418
   179.6,0.006098,0.003589, 35,0.068131,0.000112,  35.417
   179.8,0.006096,0.003589, 35,0.068251,0.000135,  35.419
   180.0,0.006093,0.003583, 35,0.068353,0.000112,  35.411
   180.2,0.006093,0.003583, 35,0.068424,0.000112,  35.410
   180.4,0.006091,0.003581, 35,0.068488,0.000148,  35.411
   180.6,0.006088,0.003582, 35,0.068543,0.000125,  35.405
   180.8,0.006085,0.003583, 35,0.068573,0.000125,  35.407
   181.0,0.006080,0.003580, 35,0.068637,0.000162,  35.409
   181.2,0.006072,0.003580, 35,0.068723,0.000125,  35.407
   181.4,0.006066,0.003577, 35,0.068808,0.000125,  35.405
   181.6,0.006067,0.003574, 35,0.068860,0.000148,  35.409
   181.8,0.006059,0.003574, 35,0.068908,0.000098,  35.411
   182.0,0.006053,0.003573, 35,0.068949,0.000098,  35.408
   182.2,0.006054,0.003566, 35,0.069008,0.000148,  35.405
   182.4,0.006043,0.003562, 35,0.069080,0.000125,  35.404
   182.6,0.006035,0.003563, 35,0.069146,0.000125,  35.405
   182.8,0.006033,0.003557, 35,0.069238,0.000162,  35.406
   183.0,0.006025,0.003557, 35,0.069337,0.000139,  35.401
   183.2,0.006022,0.003558, 35,0.069433,0.000152,  35.397
   183.4,0.006023,0.003550, 35,0.069492,0.000175,  35.400
   183.6,0.006014,0.003550, 35,0.069528,0.000139,  35.406
   183.8,0.006009,0.003542, 35,0.069545,0.000139,  35.406
   184.0,0.006008,0.003537, 35,0.069583,0.000162,  35.404
   184.2,0.005996,0.003535, 35,0.069633,0.000125,  35.406
   184.4,0.005989,0.003532, 35,0.069659,0.000125,  35.407
   184.6,0.005987,0.003526, 35,0.069697,0.000162,  35.407
   184.8,0.005976,0.003524, 35,0.069740,0.000162,  35.407
   185.0,0.005965,0.003525, 35,0.069763,0.000125,  35.406
   185.2,0.005952,0.003521, 35,0.069792,0.000162,  35.409
   185.4,0.005941,0.003512, 35,0.069837,0.000162,  35.408
   185.6,0.005939,0.003514, 35,0.069869,0.000125,  35.408
   185.8,0.005932,0.003512, 35,0.069902,0.000139,  35.406
   186.0,0.005920,0.003509, 35,0.069891,0.000162,  35.407
   186.2,0.005913,0.003507, 35,0.069859,0.000125,  35.409
   186.4,0.005903,0.003503, 35,0.069804,0.000125,  35.410
   186.6,0.005892,0.003500, 35,0.069778,0.000162,  35.411
   186.8,0.005887,0.003494, 35,0.069753,0.000125,  35.411
   187.0,0.005886,0.003488, 35,0.069736,0.000125,  35.411
   187.2,0.005872,0.003482, 35,0.069760,0.000162,  35.412
   187.4,0.005864,0.003478, 35,0.069800,0.000112,  35.410
   187.6,0.005860,0.003470, 35,0.069851,0.000112,  35.411
   187.8,0.005846,0.003465, 35,0.069846,0.000135,  35.411
   188.0,0.005838,0.003459, 35,0.069827,0.000098,  35.414
   188.2,0.005834,0.003457, 35,0.069778,0.000098,  35.412
   188.4,0.005826,0.003452, 35,0.069811,0.000135,  35.415
   188.6,0.005818,0.003445, 35,0.069869,0.000112,  35.414
   188.8,0.005811,0.003441, 35,0.069949,0.000112,  35.416
   189.0,0.005803,0.003435, 35,0.069909,0.000148,  35.412
   189.2,0.005795,0.003428, 35,0.069820,0.000112,  35.415
   189.4,0.005785,0.003424, 35,0.069675,0.000112,  35.413
   189.6,0.005777,0.003420, 35,0.069661,0.000148,  35.411
   189.8,0.005763,0.003413, 35,0.069686,0.000112,  35.415
   190.0,0.005753,0.003412, 35,0.069745,0.000112,  35.415
   190.2,0.005743,0.003404, 35,0.069702,0.000148,  35.422
   190.4,0.005727,0.003402, 35,0.069638,0.000112,  35.418
   190.6,0.005716,0.003395, 35,0.069549,0.000112,  35.419
   190.8,0.005710,0.003389, 35,0.069504,0.000148,  35.418
   191.0,0.005693,0.003377, 35,0.069469,0.000125,  35.419
   191.2,0.005683,0.003373, 35,0.069433,0.000125,  35.423
   191.4,0.005681,0.003369, 35,0.069381,0.000162,  35.418
   191.6,0.005667,0.003359, 35,0.069329,0.000139,  35.421
   191.8,0.005657,0.003354, 35,0.069260,0.000139,  35.423
   192.0,0.005650,0.003345, 35,0.069266,0.000162,  35.425
   192.2,0.005634,0.003339, 35,0.069312,0.000125,  35.427
   192.4,0.005623,0.003337, 35,0.069372,0.000125,  35.426
   192.6,0.005616,0.003329, 35,0.069313,0.000162,  35.426
   192.8,0.005600,0.003319, 35,0.069211,0.000125,  35.429
   193.0,0.005590,0.003313, 35,0.069054,0.000125,  35.430
   193.2,0.005588,0.003305, 35,0.068853,0.000162,  35.430
   193.4,0.005574,0.003299, 35,0.068864,0.000162,  35.431
   193.6,0.005561,0.003300, 35,0.068925,0.000125,  35.442
   193.8,0.005552,0.003288, 35,0.069034,0.000162,  35.439
   194.0,0.005535,0.003287, 35,0.069054,0.000162,  35.441
   194.2,0.005525,0.003284, 35,0.069042,0.000125,  35.444
   194.4,0.005515,0.003277, 35,0.069013,0.000139,  35.442
   194.6,0.005496,0.003267, 35,0.068931,0.000162,  35.445
   194.8,0.005483,0.003262, 35,0.068814,0.000125,  35.444
   195.0,0.005476,0.003252, 35,0.068656,0.000125,  35.445
   195.2,0.005461,0.003250, 35,0.068186,0.000162,  35.444
   195.4,0.005446,0.003237, 35,0.067539,0.000125,  35.447
   195.6,0.005444,0.003237, 35,0.066703,0.000125,  35.447
   195.8,0.005433,0.003227, 35,0.066617,0.000162,  35.450
   196.0,0.005417,0.003222, 35,0.066833,0.000112,  35.448
   196.2,0.005409,0.003212, 35,0.067314,0.000112,  35.449
   196.4,0.005401,0.003198, 35,0.067480,0.000148,  35.447
   196.6,0.005385,0.003193, 35,0.067623,0.000098,  35.449
   196.8,0.005375,0.003186, 35,0.067756,0.000098,  35.448
   197.0,0.005364,0.003174, 35,0.067825,0.000148,  35.452
   197.2,0.005353,0.003167, 35,0.067845,0.000112,  35.450
   197.4,0.005346,0.003161, 35,0.067819,0.000112,  35.449
   197.6,0.005338,0.003157, 35,0.067796,0.000148,  35.455
   197.8,0.005322,0.003151, 35,0.067770,0.000112,  35.452
   198.0,0.005315,0.003144, 35,0.067722,0.000112,  35.456
   198.2,0.005299,0.003139, 35,0.067725,0.000148,  35.455
   198.4,0.005282,0.003136, 35,0.067753,0.000112,  35.456
   198.6,0.005269,0.003127, 35,0.067817,0.000112,  35.455
   198.8,0.005256,0.003113, 35,0.067761,0.000148,  35.456
   199.0,0.005240,0.003105, 35,0.067650,0.000112,  35.452
   199.2,0.005227,0.003102, 35,0.067493,0.000112,  35.456
   199.4,0.005223,0.003090, 35,0.067436,0.000148,  35.459
   199.6,0.005207,0.003082, 35,0.067390,0.000112,  35.458
   199.8,0.005193,0.003079, 35,0.067361,0.000112,  35.456
   200.0,0.005188,0.003071, 35,0.067320,0.000148,  35.459
   200.2,0.005175,0.003063, 35,0.067275,0.000112,  35.461
   200.4,0.005158,0.003060, 35,0.067234,0.000112,  35.459
   200.6,0.005153,0.003052, 35,0.067170,0.000148,  35.461
   200.8,0.005145,0.003043, 35,0.067075,0.000112,  35.456
   201.0,0.005131,0.003040, 35,0.066977,0.000112,  35.464
   201.2,0.005121,0.003030, 35,0.066904,0.000148,  35.462
   201.4,0.005102,0.003021, 35,0.066824,0.000112,  35.463
   201.6,0.005092,0.003015, 35,0.066746,0.000112,  35.464
   201.8,0.005074,0.003008, 35,0.066698,0.000148,  35.466
   202.0,0.005058,0.003001, 35,0.066666,0.000148,  35.465
   202.2,0.005049,0.002994, 35,0.066654,0.000112,  35.463
   202.4,0.005043,0.002984, 35,0.066646,0.000148,  35.465
   202.6,0.005032,0.002973, 35,0.066635,0.000148,  35.468
   202.8,0.005010,0.002965, 35,0.066622,0.000112,  35.466
   203.0,0.005002,0.002955, 35,0.066617,0.000125,  35.467
   203.2,0.004986,0.002944, 35,0.066523,0.000162,  35.465
   203.4,0.004978,0.002947, 35,0.066382,0.000139,  35.467
   203.6,0.004968,0.002940, 35,0.066198,0.000139,  35.468
   203.8,0.004951,0.002928, 35,0.066080,0.000162,  35.469
   204.0,0.004944,0.002921, 35,0.065977,0.000125,  35.472
   204.2,0.004931,0.002913, 35,0.065888,0.000125,  35.470
   204.4,0.004915,0.002909, 35,0.065794,0.000162,  35.469
   204.6,0.004911,0.002904, 35,0.065680,0.000125,  35.472
   204.8,0.004898,0.002904, 35,0.065572,0.000125,  35.473
   205.0,0.004881,0.002896, 35,0.065531,0.000162,  35.472
   205.2,0.004875,0.002890, 35,0.065509,0.000125,  35.472
   205.4,0.004859,0.002880, 35,0.065505,0.000125,  35.474
   205.6,0.004849,0.002874, 35,0.065413,0.000162,  35.471
   205.8,0.004835,0.002864, 35,0.065294,0.000125,  35.473
   206.0,0.004833,0.002863, 35,0.065135,0.000125,  35.471
   206.2,0.004825,0.002856, 35,0.065027,0.000162,  35.475
   206.4,0.004809,0.002848, 35,0.064926,0.000125,  35.475
   206.6,0.004800,0.002843, 35,0.064844,0.000125,  35.474
   206.8,0.004787,0.002835, 35,0.064759,0.000162,  35.471
   207.0,0.004770,0.002828, 35,0.064674,0.000125,  35.474
   207.2,0.004763,0.002818, 35,0.064590,0.000125,  35.473
   207.4,0.004750,0.002812, 35,0.064500,0.000162,  35.475
   207.6,0.004731,0.002806, 35,0.064401,0.000125,  35.476
   207.8,0.004725,0.002799, 35,0.064300,0.000125,  35.481
   208.0,0.004712,0.002789, 35,0.064235,0.000162,  35.476
   208.2,0.004695,0.002783, 35,0.064185,0.000112,  35.472
   208.4,0.004680,0.002778, 35,0.064150,0.000148,  35.477
   208.6,0.004664,0.002768, 35,0.064076,0.000185,  35.475
   208.8,0.004645,0.002760, 35,0.063992,0.000148,  35.479
   209.0,0.004632,0.002748, 35,0.063898,0.000185,  35.477
   209.2,0.004620,0.002740, 35,0.063833,0.000198,  35.475
   209.4,0.004601,0.002732, 35,0.063786,0.000175,  35.481
   209.6,0.004591,0.002726, 35,0.063747,0.000212,  35.478
   209.8,0.004584,0.002717, 35,0.063642,0.000198,  35.482
   210.0,0.004568,0.002710, 35,0.063516,0.000162,  35.484
   210.2,0.004555,0.002706, 35,0.063358,0.000162,  35.487
   210.4,0.004548,0.002698, 35,0.063255,0.000162,  35.485
   210.6,0.004532,0.002688, 35,0.063162,0.000162,  35.480
   210.8,0.004521,0.002685, 35,0.063075,0.000125,  35.486
   211.0,0.004514,0.002677, 35,0.062998,0.000162,  35.480
   211.2,0.004498,0.002665, 35,0.062924,0.000162,  35.481
   211.4,0.004491,0.002660, 35,0.062865,0.000125,  35.480
   211.6,0.004484,0.002652, 35,0.062809,0.000139,  35.481
   211.8,0.004468,0.002643, 35,0.062686,0.000162,  35.482
   212.0,0.004458,0.002639, 35,0.062530,0.000125,  35.482
   212.2,0.004445,0.002633, 35,0.062336,0.000125,  35.483
   212.4,0.004428,0.002623, 35,0.062221,0.000162,  35.484
   212.6,0.004418,0.002624, 35,0.062121,0.000125,  35.486
   212.8,0.004414,0.002617, 35,0.062031,0.000125,  35.480
   213.0,0.004397,0.002610, 35,0.061951,0.000162,  35.482
   213.2,0.004384,0.002609, 35,0.061885,0.000125,  35.485
   213.4,0.004378,0.002602, 35,0.061832,0.000125,  35.481
   213.6,0.004361,0.002598, 35,0.061773,0.000162,  35.483
   213.8,0.004351,0.002588, 35,0.061699,0.000125,  35.482
   214.0,0.004347,0.002584, 35,0.061631,0.000125,  35.487
   214.2,0.004336,0.002578, 35,0.061540,0.000162,  35.487
   214.4,0.004328,0.002573, 35,0.061426,0.000125,  35.487
   214.6,0.004327,0.002563, 35,0.061301,0.000125,  35.483
   214.8,0.004319,0.002557, 35,0.061202,0.000162,  35.486
   215.0,0.004300,0.002552, 35,0.061106,0.000112,  35.487
   215.2,0.004296,0.002546, 35,0.061027,0.000135,  35.485
   215.4,0.004283,0.002542, 35,0.060931,0.000158,  35.484
   215.6,0.004267,0.002532, 35,0.060833,0.000121,  35.487
   215.8,0.004262,0.002526, 35,0.060728,0.000158,  35.486
   216.0,0.004249,0.002520, 35,0.060625,0.000171,  35.484
   216.2,0.004233,0.002511, 35,0.060532,0.000148,  35.484
   216.4,0.004225,0.002506, 35,0.060433,0.000185,  35.483
   216.6,0.004217,0.002502, 35,0.060353,0.000171,  35.485
   216.8,0.004204,0.002492, 35,0.060280,0.000148,  35.485
   217.0,0.004197,0.002488, 35,0.060209,0.000171,  35.480
   217.2,0.004187,0.002480, 35,0.060104,0.000144,  35.480
   217.4,0.004171,0.002471, 35,0.059967,0.000121,  35.481
   217.6,0.004167,0.002467, 35,0.059813,0.000171,  35.479
   217.8,0.004154,0.002460, 35,0.059724,0.000171,  35.481
   218.0,0.004140,0.002454, 35,0.059646,0.000148,  35.484
   218.2,0.004133,0.002449, 35,0.059588,0.000185,  35.482
   218.4,0.004123,0.002444, 35,0.059505,0.000171,  35.482
   218.6,0.004112,0.002444, 35,0.059414,0.000148,  35.483
   218.8,0.004107,0.002439, 35,0.059312,0.000185,  35.480
   219.0,0.004100,0.002435, 35,0.059216,0.000171,  35.476
   219.2,0.004086,0.002427, 35,0.059118,0.000171,  35.476
   219.4,0.004079,0.002420, 35,0.059027,0.000185,  35.482
   219.6,0.004066,0.002411, 35,0.058931,0.000185,  35.478
   219.8,0.004050,0.002403, 35,0.058797,0.000171,  35.480
   220.0,0.004045,0.002399, 35,0.058652,0.000185,  35.480
   220.2,0.004035,0.002391, 35,0.058477,0.000171,  35.476
   220.4,0.004019,0.002381, 35,0.058350,0.000171,  35.477
   220.6,0.004012,0.002382, 35,0.058229,0.000148,  35.475
   220.8,0.004002,0.002378, 35,0.058123,0.000185,  35.476
   221.0,0.003985,0.002372, 35,0.058050,0.000171,  35.477
   221.2,0.003978,0.002364, 35,0.058000,0.000148,  35.476
   221.4,0.003963,0.002362, 35,0.057963,0.000185,  35.475
   221.6,0.003946,0.002356, 35,0.057743,0.000171,  35.475
   221.8,0.003942,0.002351, 35,0.057430,0.000148,  35.474
   222.0,0.003929,0.002349, 35,0.057025,0.000185,  35.471
   222.2,0.003915,0.002341, 35,0.056891,0.000185,  35.467
   222.4,0.003914,0.002335, 35,0.056855,0.000148,  35.473
   222.6,0.003903,0.002325, 35,0.056896,0.000185,  35.465
   222.8,0.003898,0.002317, 35,0.056848,0.000171,  35.470
   223.0,0.003885,0.002316, 35,0.056805,0.000148,  35.467
   223.2,0.003885,0.002310, 35,0.056750,0.000185,  35.471
   223.4,0.003878,0.002304, 35,0.056663,0.000171,  35.464
   223.6,0.003870,0.002301, 35,0.056571,0.000148,  35.461
   223.8,0.003860,0.002298, 35,0.056437,0.000185,  35.465
   224.0,0.003850,0.002293, 35,0.056337,0.000171,  35.461
   224.2,0.003836,0.002288, 35,0.056256,0.000148,  35.461
   224.4,0.003829,0.002288, 35,0.056162,0.000185,  35.459
   224.6,0.003818,0.002278, 35,0.056083,0.000171,  35.459
   224.8,0.003805,0.002273, 35,0.056010,0.000148,  35.458
   225.0,0.003800,0.002265, 35,0.055936,0.000185,  35.455
   225.2,0.003787,0.002257, 35,0.055842,0.000171,  35.455
   225.4,0.003771,0.002249, 35,0.055754,0.000148,  35.460
   225.6,0.003767,0.002245, 35,0.055652,0.000185,  35.456
   225.8,0.003756,0.002236, 35,0.055528,0.000171,  35.454
   226.0,0.003740,0.002237, 35,0.055394,0.000148,  35.449
   226.2,0.003736,0.002234, 35,0.055257,0.000185,  35.450
   226.4,0.003726,0.002222, 35,0.055164,0.000171,  35.452
   226.6,0.003712,0.002218, 35,0.055085,0.000148,  35.449
   226.8,0.003704,0.002211, 35,0.055016,0.000185,  35.446
   227.0,0.003694,0.002203, 35,0.054942,0.000171,  35.450
   227.2,0.003680,0.002196, 35,0.054869,0.000148,  35.450
   227.4,0.003672,0.002195, 35,0.054800,0.000185,  35.449
   227.6,0.003668,0.002187, 35,0.054731,0.000171,  35.449
   227.8,0.003652,0.002181, 35,0.054614,0.000171,  35.448
   228.0,0.003644,0.002179, 35,0.054467,0.000185,  35.446
   228.2,0.003640,0.002173, 35,0.054323,0.000185,  35.447
   228.4,0.003623,0.002162, 35,0.054214,0.000171,  35.446
   228.6,0.003615,0.002156, 35,0.054106,0.000185,  35.450
   228.8,0.003616,0.002156, 35,0.054011,0.000171,  35.447
   229.0,0.003603,0.002152, 35,0.053902,0.000171,  35.449
   229.2,0.003595,0.002152, 35,0.053804,0.000148,  35.451
   229.4,0.003591,0.002150, 35,0.053694,0.000185,  35.450
   229.6,0.003579,0.002146, 35,0.053556,0.000171,  35.451
   229.8,0.003572,0.002142, 35,0.053413,0.000148,  35.449
   230.0,0.003567,0.002138, 35,0.053263,0.000171,  35.448
   230.2,0.003554,0.002134, 35,0.053137,0.000158,  35.450
   230.4,0.003544,0.002129, 35,0.053011,0.000135,  35.449
   230.6,0.003532,0.002121, 35,0.052886,0.000158,  35.450
   230.8,0.003516,0.002115, 35,0.052737,0.000158,  35.447
   231.0,0.003514,0.002111, 35,0.052581,0.000171,  35.451
   231.2,0.003506,0.002107, 35,0.052399,0.000158,  35.446
   231.4,0.003501,0.002099, 35,0.052177,0.000181,  35.447
   231.6,0.003490,0.002093, 35,0.051924,0.000194,  35.448
   231.8,0.003490,0.002086, 35,0.051649,0.000144,  35.445
   232.0,0.003485,0.002076, 35,0.051512,0.000167,  35.449
   232.2,0.003480,0.002073, 35,0.051431,0.000181,  35.448
   232.4,0.003475,0.002073, 35,0.051411,0.000131,  35.450
   232.6,0.003464,0.002065, 35,0.051349,0.000167,  35.444
   232.8,0.003450,0.002057, 35,0.051293,0.000181,  35.446
   233.0,0.003445,0.002055, 35,0.051238,0.000144,  35.448
   233.2,0.003441,0.002051, 35,0.051151,0.000181,  35.449
   233.4,0.003427,0.002047, 35,0.051040,0.000158,  35.448
   233.6,0.003420,0.002042, 35,0.050906,0.000158,  35.449
   233.8,0.003413,0.002039, 35,0.050812,0.000144,  35.447
   234.0,0.003399,0.002037, 35,0.050720,0.000121,  35.450
   234.2,0.003394,0.002033, 35,0.050629,0.000158,  35.449
   234.4,0.003390,0.002029, 35,0.050550,0.000144,  35.449
   234.6,0.003373,0.002028, 35,0.050479,0.000121,  35.450
   234.8,0.003365,0.002023, 35,0.050409,0.000171,  35.449
   235.0,0.003361,0.002014, 35,0.050280,0.000171,  35.451
   235.2,0.003345,0.002011, 35,0.050147,0.000148,  35.448
   235.4,0.003343,0.002007, 35,0.049991,0.000185,  35.449
   235.6,0.003341,0.001999, 35,0.049885,0.000171,  35.450
   235.8,0.003330,0.001991, 35,0.049809,0.000148,  35.455
   236.0,0.003323,0.001990, 35,0.049759,0.000185,  35.451
   236.2,0.003312,0.001980, 35,0.049665,0.000171,  35.453
   236.4,0.003301,0.001979, 35,0.049563,0.000148,  35.454
   236.6,0.003293,0.001978, 35,0.049459,0.000171,  35.454
   236.8,0.003289,0.001972, 35,0.049344,0.000158,  35.451
   237.0,0.003278,0.001973, 35,0.049204,0.000158,  35.451
   237.2,0.003268,0.001971, 35,0.049035,0.000171,  35.452
   237.4,0.003263,0.001965, 35,0.048858,0.000158,  35.452
   237.6,0.003255,0.001959, 35,0.048625,0.000158,  35.457
   237.8,0.003247,0.001953, 35,0.048372,0.000171,  35.452
   238.0,0.003248,0.001947, 35,0.048069,0.000158,  35.454
   238.2,0.003237,0.001939, 35,0.047852,0.000158,  35.451
   238.4,0.003234,0.001939, 35,0.047663,0.000135,  35.452
   238.6,0.003232,0.001933, 35,0.047495,0.000158,  35.455
   238.8,0.003219,0.001931, 35,0.047425,0.000158,  35.450
   239.0,0.003213,0.001928, 35,0.047422,0.000135,  35.448
   239.2,0.003209,0.001932, 35,0.047470,0.000121,  35.455
   239.4,0.003198,0.001930, 35,0.047451,0.000121,  35.455
   239.6,0.003193,0.001932, 35,0.047432,0.000098,  35.456
   239.8,0.003191,0.001927, 35,0.047400,0.000085,  35.455
   240.0,0.003180,0.001923, 35,0.047354,0.000121,  35.458
   240.2,0.003172,0.001918, 35,0.047307,0.000098,  35.456
   240.4,0.003171,0.001912, 35,0.047252,0.000085,  35.458
   240.6,0.003163,0.001908, 35,0.047145,0.000121,  35.456
   240.8,0.003155,0.001907, 35,0.047010,0.000098,  35.455
   241.0,0.003153,0.001906, 35,0.046855,0.000085,  35.457
   241.2,0.003143,0.001896, 35,0.046745,0.000121,  35.456
   241.4,0.003129,0.001891, 35,0.046630,0.000098,  35.460
   241.6,0.003128,0.001890, 35,0.046521,0.000121,  35.456
   241.8,0.003120,0.001884, 35,0.046379,0.000144,  35.461
   242.0,0.003106,0.001877, 35,0.046224,0.000121,  35.458
   242.2,0.003107,0.001882, 35,0.046062,0.000158,  35.458
   242.4,0.003099,0.001881, 35,0.045969,0.000158,  35.457
   242.6,0.003088,0.001873, 35,0.045893,0.000135,  35.463
   242.8,0.003089,0.001868, 35,0.045845,0.000121,  35.464
   243.0,0.003084,0.001866, 35,0.045720,0.000121,  35.461
   243.2,0.003075,0.001862, 35,0.045552,0.000098,  35.458
   243.4,0.003074,0.001856, 35,0.045355,0.000085,  35.462
   243.6,0.003068,0.001850, 35,0.045221,0.000121,  35.466
   243.8,0.003057,0.001847, 35,0.045106,0.000098,  35.466
   244.0,0.003061,0.001847, 35,0.045007,0.000085,  35.467
   244.2,0.003053,0.001840, 35,0.044924,0.000121,  35.469
   244.4,0.003039,0.001840, 35,0.044849,0.000098,  35.466
   244.6,0.003040,0.001835, 35,0.044795,0.000085,  35.464
   244.8,0.003030,0.001835, 35,0.044680,0.000121,  35.468
   245.0,0.003016,0.001828, 35,0.044535,0.000098,  35.463
   245.2,0.003011,0.001832, 35,0.044373,0.000098,  35.469
   245.4,0.003001,0.001832, 35,0.044249,0.000135,  35.466
   245.6,0.002989,0.001828, 35,0.044137,0.000135,  35.467
   245.8,0.002984,0.001824, 35,0.044026,0.000135,  35.471
   246.0,0.002983,0.001817, 35,0.043922,0.000135,  35.467
   246.2,0.002971,0.001813, 35,0.043829,0.000144,  35.469
   246.4,0.002966,0.001810, 35,0.043745,0.000158,  35.463
   246.6,0.002967,0.001808, 35,0.043664,0.000158,  35.472
   246.8,0.002956,0.001800, 35,0.043544,0.000158,  35.470
   247.0,0.002951,0.001800, 35,0.043420,0.000135,  35.473
   247.2,0.002949,0.001798, 35,0.043280,0.000158,  35.474
   247.4,0.002938,0.001794, 35,0.043134,0.000158,  35.474
   247.6,0.002939,0.001786, 35,0.042954,0.000135,  35.477
   247.8,0.002935,0.001784, 35,0.042771,0.000158,  35.475
   248.0,0.002923,0.001779, 35,0.042659,0.000158,  35.475
   248.2,0.002924,0.001778, 35,0.042580,0.000135,  35.477
   248.4,0.002922,0.001777, 35,0.042526,0.000158,  35.474
   248.6,0.002911,0.001773, 35,0.042437,0.000158,  35.473
   248.8,0.002909,0.001766, 35,0.042354,0.000135,  35.476
   249.0,0.002904,0.001763, 35,0.042270,0.000158,  35.475
   249.2,0.002893,0.001760, 35,0.042158,0.000158,  35.479
   249.4,0.002891,0.001754, 35,0.042035,0.000135,  35.477
   249.6,0.002883,0.001754, 35,0.041889,0.000158,  35.480
   249.8,0.002875,0.001752, 35,0.041790,0.000158,  35.478
   250.0,0.002867,0.001751, 35,0.041693,0.000135,  35.480
   250.2,0.002868,0.001750, 35,0.041616,0.000158,  35.479
   250.4,0.002865,0.001747, 35,0.041539,0.000158,  35.480
   250.6,0.002856,0.001745, 35,0.041461,0.000135,  35.479
   250.8,0.002857,0.001742, 35,0.041384,0.000144,  35.478
   251.0,0.002855,0.001739, 35,0.041262,0.000131,  35.477
   251.2,0.002846,0.001735, 35,0.041110,0.000108,  35.481
   251.4,0.002847,0.001730, 35,0.040928,0.000131,  35.482
   251.6,0.002839,0.001723, 35,0.040836,0.000131,  35.484
   251.8,0.002831,0.001726, 35,0.040768,0.000108,  35.481
   252.0,0.002832,0.001726, 35,0.040729,0.000144,  35.483
   252.2,0.002824,0.001722, 35,0.040631,0.000144,  35.482
   252.4,0.002813,0.001720, 35,0.040517,0.000144,  35.480
   252.6,0.002814,0.001720, 35,0.040393,0.000144,  35.480
   252.8,0.002811,0.001716, 35,0.040177,0.000154,  35.482
   253.0,0.002802,0.001716, 35,0.039902,0.000131,  35.485
   253.2,0.002803,0.001718, 35,0.039576,0.000131,  35.481
   253.4,0.002801,0.001712, 35,0.039453,0.000131,  35.483
   253.6,0.002792,0.001710, 35,0.039396,0.000108,  35.480
   253.8,0.002793,0.001711, 35,0.039405,0.000144,  35.486
   254.0,0.002785,0.001705, 35,0.039355,0.000144,  35.489
   254.2,0.002777,0.001706, 35,0.039300,0.000121,  35.486
   254.4,0.002778,0.001711, 35,0.039246,0.000158,  35.489
   254.6,0.002770,0.001708, 35,0.039188,0.000158,  35.486
   254.8,0.002761,0.001702, 35,0.039129,0.000135,  35.486
   255.0,0.002765,0.001698, 35,0.039062,0.000158,  35.489
   255.2,0.002757,0.001701, 35,0.038994,0.000158,  35.490
   255.4,0.002748,0.001699, 35,0.038909,0.000158,  35.487
   255.6,0.002752,0.001697, 35,0.038816,0.000171,  35.493
   255.8,0.002747,0.001697, 35,0.038716,0.000158,  35.490
   256.0,0.002738,0.001695, 35,0.038624,0.000158,  35.489
   256.2,0.002736,0.001687, 35,0.038534,0.000171,  35.490
   256.4,0.002728,0.001684, 35,0.038438,0.000158,  35.487
   256.6,0.002719,0.001675, 35,0.038342,0.000158,  35.491
   256.8,0.002723,0.001677, 35,0.038264,0.000135,  35.489
   257.0,0.002724,0.001677, 35,0.038176,0.000158,  35.489
   257.2,0.002715,0.001677, 35,0.038056,0.000158,  35.488
   257.4,0.002712,0.001671, 35,0.037925,0.000135,  35.488
   257.6,0.002705,0.001674, 35,0.037759,0.000135,  35.488
   257.8,0.002696,0.001674, 35,0.037648,0.000135,  35.492
   258.0,0.002694,0.001672, 35,0.037561,0.000112,  35.490
   258.2,0.002694,0.001668, 35,0.037485,0.000112,  35.490
   258.4,0.002686,0.001666, 35,0.037356,0.000135,  35.491
   258.6,0.002681,0.001660, 35,0.037205,0.000112,  35.493
   258.8,0.002679,0.001662, 35,0.037043,0.000112,  35.495
   259.0,0.002676,0.001662, 35,0.036953,0.000135,  35.495
   259.2,0.002674,0.001654, 35,0.036905,0.000112,  35.490
   259.4,0.002671,0.001653, 35,0.036888,0.000098,  35.493
   259.6,0.002669,0.001650, 35,0.036826,0.000121,  35.496
   259.8,0.002669,0.001653, 35,0.036756,0.000098,  35.492
   260.0,0.002664,0.001658, 35,0.036671,0.000085,  35.496
   260.2,0.002661,0.001656, 35,0.036565,0.000108,  35.495
   260.4,0.002652,0.001656, 35,0.036443,0.000085,  35.494
   260.6,0.002647,0.001656, 35,0.036299,0.000085,  35.495
   260.8,0.002648,0.001650, 35,0.036170,0.000108,  35.494
   261.0,0.002639,0.001646, 35,0.036028,0.000085,  35.496
   261.2,0.002637,0.001643, 35,0.035901,0.000085,  35.495
   261.4,0.002635,0.001638, 35,0.035824,0.000108,  35.492
   261.6,0.002627,0.001634, 35,0.035770,0.000085,  35.499
   261.8,0.002621,0.001638, 35,0.035738,0.000121,  35.495
   262.0,0.002622,0.001632, 35,0.035252,0.000144,  35.495
   262.2,0.002614,0.001633, 35,0.034563,0.000121,  35.498
   262.4,0.002609,0.001631, 35,0.033654,0.000158,  35.496
   262.6,0.002610,0.001624, 35,0.033548,0.000144,  35.496
   262.8,0.002601,0.001624, 35,0.033733,0.000121,  35.496
   263.0,0.002596,0.001625, 35,0.034211,0.000158,  35.497
   263.2,0.002599,0.001621, 35,0.034313,0.000144,  35.496
   263.4,0.002591,0.001613, 35,0.034358,0.000121,  35.495
   263.6,0.002594,0.001618, 35,0.034360,0.000158,  35.497
   263.8,0.002595,0.001616, 35,0.034368,0.000144,  35.499
   264.0,0.002589,0.001612, 35,0.034334,0.000121,  35.499
   264.2,0.002595,0.001612, 35,0.034283,0.000158,  35.499
   264.4,0.002595,0.001614, 35,0.034255,0.000144,  35.499
   264.6,0.002589,0.001607, 35,0.034226,0.000144,  35.498
   264.8,0.002586,0.001609, 35,0.034191,0.000144,  35.496
   265.0,0.002579,0.001611, 35,0.034160,0.000144,  35.497
   265.2,0.002570,0.001604, 35,0.034004,0.000131,  35.496
   265.4,0.002574,0.001603, 35,0.033790,0.000131,  35.499
   265.6,0.002574,0.001603, 35,0.033527,0.000131,  35.499
   265.8,0.002566,0.001605, 35,0.033440,0.000144,  35.503
   266.0,0.002567,0.001607, 35,0.033397,0.000121,  35.501
   266.2,0.002562,0.001607, 35,0.033404,0.000158,  35.500
   266.4,0.002553,0.001609, 35,0.033353,0.000158,  35.499
   266.6,0.002556,0.001607, 35,0.033302,0.000135,  35.502
   266.8,0.002549,0.001607, 35,0.033236,0.000158,  35.501
   267.0,0.002540,0.001607, 35,0.033007,0.000144,  35.499
   267.2,0.002544,0.001602, 35,0.032688,0.000121,  35.503
   267.4,0.002538,0.001601, 35,0.032287,0.000158,  35.504
   267.6,0.002532,0.001597, 35,0.032216,0.000144,  35.503
   267.8,0.002541,0.001595, 35,0.032274,0.000121,  35.501
   268.0,0.002538,0.001593, 35,0.032442,0.000158,  35.500
   268.2,0.002538,0.001594, 35,0.032439,0.000144,  35.504
   268.4,0.002532,0.001593, 35,0.032419,0.000121,  35.503
   268.6,0.002538,0.001589, 35,0.032382,0.000158,  35.502
   268.8,0.002533,0.001589, 35,0.032050,0.000158,  35.505
   269.0,0.002527,0.001592, 35,0.031560,0.000135,  35.504
   269.2,0.002528,0.001587, 35,0.030927,0.000158,  35.504
   269.4,0.002523,0.001585, 35,0.030847,0.000158,  35.505
   269.6,0.002517,0.001589, 35,0.030935,0.000135,  35.508
   269.8,0.002523,0.001592, 35,0.031232,0.000158,  35.506
   270.0,0.002520,0.001589, 35,0.031296,0.000158,  35.507
   270.2,0.002520,0.001589, 35,0.031325,0.000135,  35.507
   270.4,0.002523,0.001587, 35,0.031339,0.000158,  35.503
   270.6,0.002526,0.001589, 35,0.031334,0.000144,  35.504
   270.8,0.002521,0.001589, 35,0.031318,0.000121,  35.508
   271.0,0.002522,0.001584, 35,0.031287,0.000158,  35.504
   271.2,0.002521,0.001584, 35,0.031273,0.000158,  35.509
   271.4,0.002519,0.001584, 35,0.031266,0.000135,  35.507
   271.6,0.002509,0.001585, 35,0.031265,0.000158,  35.507
   271.8,0.002503,0.001581, 35,0.031214,0.000158,  35.509
   272.0,0.002503,0.001581, 35,0.031136,0.000135,  35.506
   272.2,0.002500,0.001581, 35,0.031022,0.000158,  35.510
   272.4,0.002503,0.001579, 35,0.030971,0.000158,  35.509
   272.6,0.002503,0.001582, 35,0.030936,0.000135,  35.511
   272.8,0.002497,0.001583, 35,0.030907,0.000158,  35.511
   273.0,0.002498,0.001578, 35,0.030905,0.000144,  35.512
   273.2,0.002496,0.001578, 35,0.030835,0.000144,  35.508
   273.4,0.002490,0.001573, 35,0.030748,0.000144,  35.507
   273.6,0.002490,0.001573, 35,0.030652,0.000158,  35.515
   273.8,0.002490,0.001569, 35,0.030591,0.000144,  35.510
   274.0,0.002479,0.001566, 35,0.030555,0.000144,  35.508
   274.2,0.002483,0.001559, 35,0.030533,0.000144,  35.512
   274.4,0.002477,0.001561, 35,0.030427,0.000144,  35.512
   274.6,0.002474,0.001567, 35,0.030302,0.000121,  35.507
   274.8,0.002469,0.001564, 35,0.030129,0.000158,  35.511
   275.0,0.002460,0.001562, 35,0.030020,0.000144,  35.509
   275.2,0.002466,0.001568, 35,0.029926,0.000121,  35.508
   275.4,0.002464,0.001566, 35,0.029838,0.000158,  35.507
   275.6,0.002455,0.001564, 35,0.029738,0.000144,  35.509
   275.8,0.002461,0.001566, 35,0.029617,0.000108,  35.508
   276.0,0.002461,0.001566, 35,0.029497,0.000144,  35.503
   276.2,0.002458,0.001565, 35,0.029456,0.000117,  35.505
   276.4,0.002458,0.001565, 35,0.029442,0.000081,  35.505
   276.6,0.002455,0.001563, 35,0.029464,0.000131,  35.504
   276.8,0.002453,0.001558, 35,0.029379,0.000117,  35.510
   277.0,0.002453,0.001561, 35,0.029270,0.000094,  35.509
   277.2,0.002456,0.001557, 35,0.029118,0.000131,  35.506
   277.4,0.002451,0.001555, 35,0.029023,0.000131,  35.506
   277.6,0.002445,0.001555, 35,0.028924,0.000108,  35.509
   277.8,0.002451,0.001560, 35,0.028836,0.000131,  35.505
   278.0,0.002448,0.001558, 35,0.028813,0.000131,  35.507
   278.2,0.002442,0.001554, 35,0.028820,0.000108,  35.507
   278.4,0.002448,0.001557, 35,0.028856,0.000131,  35.502
   278.6,0.002446,0.001555, 35,0.028728,0.000131,  35.506
   278.8,0.002440,0.001550, 35,0.028531,0.000108,  35.505
   279.0,0.002448,0.001557, 35,0.028263,0.000131,  35.502
   279.2,0.002446,0.001556, 35,0.028187,0.000131,  35.506
   279.4,0.002437,0.001554, 35,0.028165,0.000108,  35.507
   279.6,0.002443,0.001553, 35,0.028205,0.000131,  35.507
   279.8,0.002441,0.001554, 35,0.028170,0.000131,  35.507
   280.0,0.002432,0.001556, 35,0.028132,0.000108,  35.505
   280.2,0.002436,0.001554, 35,0.028087,0.000131,  35.509
   280.4,0.002436,0.001549, 35,0.028038,0.000131,  35.506
   280.6,0.002432,0.001554, 35,0.027986,0.000108,  35.506
   280.8,0.002436,0.001552, 35,0.027934,0.000131,  35.506
   281.0,0.002433,0.001546, 35,0.027898,0.000131,  35.511
   281.2,0.002430,0.001554, 35,0.027874,0.000108,  35.506
   281.4,0.002436,0.001561, 35,0.027851,0.000144,  35.509
   281.6,0.002433,0.001559, 35,0.027842,0.000144,  35.509
   281.8,0.002430,0.001555, 35,0.027808,0.000144,  35.507
   282.0,0.002433,0.001554, 35,0.027777,0.000144,  35.509
   282.2,0.002430,0.001554, 35,0.027733,0.000158,  35.507
   282.4,0.002427,0.001549, 35,0.027682,0.000144,  35.508
   282.6,0.002430,0.001554, 35,0.027624,0.000144,  35.508
   282.8,0.002430,0.001552, 35,0.027557,0.000144,  35.508
   283.0,0.002424,0.001550, 35,0.027505,0.000131,  35.507
   283.2,0.002425,0.001552, 35,0.027442,0.000108,  35.505
   283.4,0.002420,0.001550, 35,0.027390,0.000144,  35.509
   283.6,0.002412,0.001551, 35,0.027330,0.000144,  35.506
   283.8,0.002418,0.001553, 35,0.027246,0.000121,  35.508
   284.0,0.002418,0.001554, 35,0.027172,0.000158,  35.505
   284.2,0.002415,0.001552, 35,0.027100,0.000144,  35.508
   284.4,0.002415,0.001550, 35,0.027026,0.000121,  35.509
   284.6,0.002424,0.001551, 35,0.026953,0.000121,  35.508
   284.8,0.002424,0.001547, 35,0.026897,0.000108,  35.509
   285.0,0.002418,0.001547, 35,0.026840,0.000085,  35.509
   285.2,0.002424,0.001550, 35,0.026796,0.000085,  35.508
   285.4,0.002421,0.001551, 35,0.026724,0.000108,  35.508
   285.6,0.002424,0.001551, 35,0.026639,0.000085,  35.509
   285.8,0.002418,0.001552, 35,0.026550,0.000085,  35.508
   286.0,0.002418,0.001554, 35,0.026487,0.000108,  35.506
   286.2,0.002415,0.001556, 35,0.026442,0.000085,  35.509
   286.4,0.002418,0.001556, 35,0.026416,0.000085,  35.505
   286.6,0.002412,0.001558, 35,0.026372,0.000108,  35.508
   286.8,0.002406,0.001557, 35,0.026328,0.000085,  35.509
   287.0,0.002410,0.001555, 35,0.026284,0.000085,  35.506
   287.2,0.002405,0.001553, 35,0.026205,0.000108,  35.508
   287.4,0.002401,0.001555, 35,0.026115,0.000085,  35.507
   287.6,0.002407,0.001555, 35,0.026011,0.000085,  35.504
   287.8,0.002407,0.001552, 35,0.025864,0.000108,  35.507
   288.0,0.002404,0.001557, 35,0.025692,0.000085,  35.503
   288.2,0.002407,0.001555, 35,0.025496,0.000085,  35.506
   288.4,0.002407,0.001555, 35,0.025460,0.000108,  35.507
   288.6,0.002401,0.001553, 35,0.025491,0.000085,  35.507
   288.8,0.002407,0.001554, 35,0.025586,0.000085,  35.505
   289.0,0.002405,0.001551, 35,0.025606,0.000108,  35.504
   289.2,0.002399,0.001553, 35,0.025625,0.000085,  35.507
   289.4,0.002407,0.001555, 35,0.025637,0.000085,  35.504
   289.6,0.002405,0.001555, 35,0.025601,0.000108,  35.506
   289.8,0.002401,0.001559, 35,0.025548,0.000085,  35.506
   290.0,0.002404,0.001563, 35,0.025461,0.000085,  35.503
   290.2,0.002404,0.001559, 35,0.025408,0.000108,  35.507
   290.4,0.002400,0.001559, 35,0.025362,0.000108,  35.503
   290.6,0.002409,0.001559, 35,0.025310,0.000108,  35.507
   290.8,0.002415,0.001554, 35,0.025262,0.000108,  35.504
   291.0,0.002418,0.001554, 35,0.025188,0.000131,  35.508
   291.2,0.002418,0.001557, 35,0.025100,0.000131,  35.506
   291.4,0.002421,0.001558, 35,0.024998,0.000131,  35.504
   291.6,0.002418,0.001558, 35,0.024807,0.000144,  35.507
   291.8,0.002418,0.001560, 35,0.024566,0.000121,  35.502
   292.0,0.002415,0.001562, 35,0.024278,0.000158,  35.504
   292.2,0.002418,0.001562, 35,0.024255,0.000158,  35.502
   292.4,0.002415,0.001566, 35,0.024327,0.000135,  35.505
   292.6,0.002418,0.001562, 35,0.024506,0.000158,  35.507
   292.8,0.002421,0.001558, 35,0.024517,0.000158,  35.503
   293.0,0.002412,0.001560, 35,0.024481,0.000135,  35.506
   293.2,0.002416,0.001557, 35,0.024420,0.000158,  35.502
   293.4,0.002418,0.001557, 35,0.024411,0.000158,  35.502
   293.6,0.002410,0.001554, 35,0.024415,0.000135,  35.502
   293.8,0.002413,0.001562, 35,0.024427,0.000158,  35.503
   294.0,0.002413,0.001564, 35,0.024410,0.000158,  35.501
   294.2,0.002413,0.001564, 35,0.024392,0.000135,  35.500
   294.4,0.002416,0.001565, 35,0.024360,0.000158,  35.502
   294.6,0.002416,0.001567, 35,0.024323,0.000158,  35.502
   294.8,0.002416,0.001562, 35,0.024289,0.000135,  35.501
   295.0,0.002416,0.001561, 35,0.024237,0.000158,  35.504
   295.2,0.002416,0.001564, 35,0.024208,0.000158,  35.500
   295.4,0.002418,0.001563, 35,0.024210,0.000135,  35.500
   295.6,0.002415,0.001566, 35,0.024201,0.000158,  35.504
   295.8,0.002424,0.001568, 35,0.024151,0.000158,  35.505
   296.0,0.002424,0.001570, 35,0.024098,0.000135,  35.501
   296.2,0.002418,0.001567, 35,0.024024,0.000158,  35.501
   296.4,0.002424,0.001567, 35,0.023981,0.000158,  35.502
   296.6,0.002426,0.001568, 35,0.023956,0.000135,  35.505
   296.8,0.002420,0.001569, 35,0.023951,0.000144,  35.504
   297.0,0.002426,0.001565, 35,0.023914,0.000131,  35.506
   297.2,0.002426,0.001565, 35,0.023875,0.000108,  35.504
   297.4,0.002420,0.001569, 35,0.023830,0.000131,  35.505
   297.6,0.002424,0.001570, 35,0.023779,0.000131,  35.506
   297.8,0.002421,0.001573, 35,0.023731,0.000108,  35.508
   298.0,0.002415,0.001577, 35,0.023677,0.000131,  35.508
   298.2,0.002421,0.001578, 35,0.023664,0.000131,  35.503
   298.4,0.002424,0.001578, 35,0.023655,0.000108,  35.502
   298.6,0.002415,0.001580, 35,0.023671,0.000131,  35.507
   298.8,0.002418,0.001575, 35,0.023700,0.000131,  35.502
   299.0,0.002421,0.001575, 35,0.023663,0.000131,  35.506
   299.2,0.002415,0.001574, 35,0.023615,0.000131,  35.503
   299.4,0.002421,0.001574, 35,0.023547,0.000131,  35.503
   299.6,0.002420,0.001570, 35,0.023508,0.000131,  35.503
   299.8,0.002420,0.001575, 35,0.023489,0.000131,  35.505
   300.0,0.002420,0.001573, 35,0.023471,0.000131,  35.502
   300.2,0.002414,0.001577, 35,0.023412,0.000131,  35.505
   300.4,0.002420,0.001576, 35,0.023337,0.000108,  35.502
   300.6,0.002418,0.001576, 35,0.023248,0.000131,  35.504
   300.8,0.002418,0.001573, 35,0.023196,0.000131,  35.507
   301.0,0.002420,0.001579, 35,0.023151,0.000108,  35.504
   301.2,0.002431,0.001581, 35,0.023119,0.000131,  35.504
   301.4,0.002434,0.001581, 35,0.023068,0.000131,  35.508
   301.6,0.002430,0.001581, 35,0.023030,0.000108,  35.505
   301.8,0.002434,0.001584, 35,0.022997,0.000131,  35.506
   302.0,0.002436,0.001586, 35,0.022975,0.000131,  35.507
   302.2,0.002430,0.001585, 35,0.022970,0.000108,  35.506
   302.4,0.002436,0.001589, 35,0.022972,0.000131,  35.505
   302.6,0.002436,0.001591, 35,0.022617,0.000131,  35.503
   302.8,0.002439,0.001586, 35,0.022094,0.000108,  35.508
   303.0,0.002439,0.001589, 35,0.021399,0.000131,  35.505
   303.2,0.002436,0.001591, 35,0.021375,0.000131,  35.504
   303.4,0.002439,0.001585, 35,0.021592,0.000108,  35.504
   303.6,0.002439,0.001587, 35,0.022056,0.000131,  35.501
   303.8,0.002436,0.001588, 35,0.022196,0.000131,  35.502
   304.0,0.002439,0.001588, 35,0.022281,0.000108,  35.501
   304.2,0.002436,0.001589, 35,0.022330,0.000131,  35.502
   304.4,0.002447,0.001593, 35,0.022388,0.000131,  35.505
   304.6,0.002447,0.001591, 35,0.022431,0.000108,  35.502
   304.8,0.002441,0.001592, 35,0.022450,0.000131,  35.502
   305.0,0.002447,0.001592, 35,0.022439,0.000131,  35.503
   305.2,0.002449,0.001594, 35,0.022419,0.000108,  35.502
   305.4,0.002443,0.001601, 35,0.022366,0.000131,  35.503
   305.6,0.002449,0.001603, 35,0.022370,0.000131,  35.506
   305.8,0.002452,0.001605, 35,0.022392,0.000108,  35.504
   306.0,0.002448,0.001607, 35,0.022428,0.000144,  35.509
   306.2,0.002452,0.001611, 35,0.022265,0.000144,  35.503
   306.4,0.002452,0.001609, 35,0.022009,0.000121,  35.507
   306.6,0.002446,0.001605, 35,0.021663,0.000158,  35.504
   306.8,0.002449,0.001606, 35,0.021601,0.000144,  35.504
   307.0,0.002447,0.001611, 35,0.021637,0.000121,  35.507
   307.2,0.002441,0.001608, 35,0.021758,0.000144,  35.507
   307.4,0.002447,0.001605, 35,0.021986,0.000131,  35.506
   307.6,0.002447,0.001609, 35,0.022051,0.000131,  35.500
   307.8,0.002443,0.001610, 35,0.022102,0.000131,  35.503
   308.0,0.002452,0.001610, 35,0.022152,0.000131,  35.506
   308.2,0.002454,0.001612, 35,0.022134,0.000131,  35.505
   308.4,0.002451,0.001609, 35,0.022087,0.000131,  35.503
   308.6,0.002452,0.001609, 35,0.021998,0.000154,  35.507
   308.8,0.002452,0.001612, 35,0.021980,0.000140,  35.500
   309.0,0.002451,0.001612, 35,0.021988,0.000140,  35.504
   309.2,0.002457,0.001617, 35,0.022005,0.000104,  35.500
   309.4,0.002460,0.001612, 35,0.022007,0.000140,  35.506
   309.6,0.002456,0.001612, 35,0.022010,0.000140,  35.501
   309.8,0.002462,0.001614, 35,0.022006,0.000117,  35.506
   310.0,0.002465,0.001615, 35,0.021981,0.000154,  35.504
   310.2,0.002461,0.001617, 35,0.021946,0.000131,  35.504
   310.4,0.002467,0.001622, 35,0.021884,0.000131,  35.506
   310.6,0.002470,0.001622, 35,0.021873,0.000131,  35.501
   310.8,0.002464,0.001623, 35,0.021869,0.000108,  35.506
   311.0,0.002470,0.001624, 35,0.021885,0.000131,  35.503
   311.2,0.002470,0.001620, 35,0.021887,0.000131,  35.504
   311.4,0.002464,0.001622, 35,0.021888,0.000108,  35.507
   311.6,0.002470,0.001624, 35,0.021885,0.000131,  35.505
   311.8,0.002470,0.001623, 35,0.021860,0.000131,  35.508
   312.0,0.002470,0.001627, 35,0.021821,0.000108,  35.504
   312.2,0.002470,0.001624, 35,0.021780,0.000144,  35.512
   312.4,0.002470,0.001626, 35,0.021745,0.000144,  35.508
   312.6,0.002472,0.001628, 35,0.021686,0.000121,  35.505
   312.8,0.002472,0.001624, 35,0.021637,0.000158,  35.510
   313.0,0.002475,0.001624, 35,0.021638,0.000144,  35.508
   313.2,0.002478,0.001626, 35,0.021649,0.000121,  35.507
   313.4,0.002474,0.001624, 35,0.021686,0.000158,  35.506
   313.6,0.002478,0.001624, 35,0.021653,0.000144,  35.506
   313.8,0.002480,0.001627, 35,0.021591,0.000121,  35.507
   314.0,0.002474,0.001632, 35,0.021500,0.000158,  35.510
   314.2,0.002483,0.001625, 35,0.021467,0.000158,  35.510
   314.4,0.002483,0.001622, 35,0.021443,0.000135,  35.506
   314.6,0.002480,0.001623, 35,0.021436,0.000158,  35.507
   314.8,0.002490,0.001625, 35,0.021431,0.000144,  35.505
   315.0,0.002492,0.001624, 35,0.021434,0.000121,  35.509
   315.2,0.002491,0.001632, 35,0.021443,0.000158,  35.509
   315.4,0.002497,0.001634, 35,0.021411,0.000144,  35.506
   315.6,0.002502,0.001639, 35,0.021375,0.000121,  35.511
   315.8,0.002496,0.001637, 35,0.021320,0.000158,  35.509
   316.0,0.002496,0.001642, 35,0.021300,0.000144,  35.507
   316.2,0.002496,0.001642, 35,0.021289,0.000121,  35.508
   316.4,0.002499,0.001638, 35,0.021297,0.000158,  35.504
   316.6,0.002506,0.001640, 35,0.021312,0.000144,  35.508
   316.8,0.002509,0.001642, 35,0.021294,0.000144,  35.510
   317.0,0.002505,0.001639, 35,0.021280,0.000144,  35.506
   317.2,0.002504,0.001639, 35,0.021260,0.000158,  35.511
   317.4,0.002507,0.001638, 35,0.021240,0.000144,  35.508
   317.6,0.002503,0.001644, 35,0.021216,0.000144,  35.507
   317.8,0.002498,0.001646, 35,0.021196,0.000144,  35.507
   318.0,0.002498,0.001646, 35,0.021157,0.000144,  35.511
   318.2,0.002495,0.001648, 35,0.021124,0.000121,  35.506
   318.4,0.002501,0.001646, 35,0.021089,0.000158,  35.508
   318.6,0.002503,0.001646, 35,0.021097,0.000144,  35.508
   318.8,0.002500,0.001649, 35,0.021120,0.000121,  35.509
   319.0,0.002508,0.001651, 35,0.021170,0.000158,  35.507
   319.2,0.002505,0.001655, 35,0.021178,0.000144,  35.506
   319.4,0.002502,0.001652, 35,0.021173,0.000121,  35.506
   319.6,0.002500,0.001656, 35,0.021154,0.000158,  35.513
   319.8,0.002496,0.001656, 35,0.021011,0.000144,  35.514
   320.0,0.002502,0.001653, 35,0.020807,0.000144,  35.511
   320.2,0.002502,0.001653, 35,0.020550,0.000144,  35.508
   320.4,0.002496,0.001655, 35,0.020524,0.000154,  35.509
   320.6,0.002502,0.001655, 35,0.020580,0.000167,  35.507
   320.8,0.002497,0.001653, 35,0.020720,0.000131,  35.507
   321.0,0.002500,0.001658, 35,0.020777,0.000167,  35.507
   321.2,0.002494,0.001661, 35,0.020822,0.000181,  35.510
   321.4,0.002505,0.001662, 35,0.020873,0.000131,  35.502
   321.6,0.002508,0.001664, 35,0.020800,0.000167,  35.506
   321.8,0.002507,0.001667, 35,0.020662,0.000181,  35.506
   322.0,0.002513,0.001667, 35,0.020458,0.000131,  35.506
   322.2,0.002510,0.001666, 35,0.020453,0.000167,  35.506
   322.4,0.002507,0.001668, 35,0.020503,0.000181,  35.506
   322.6,0.002513,0.001670, 35,0.020621,0.000131,  35.504
   322.8,0.002513,0.001666, 35,0.020559,0.000167,  35.504
   323.0,0.002509,0.001666, 35,0.020409,0.000144,  35.502
   323.2,0.002518,0.001664, 35,0.020209,0.000144,  35.503
   323.4,0.002515,0.001661, 35,0.020218,0.000144,  35.503
   323.6,0.002509,0.001661, 35,0.020301,0.000121,  35.504
   323.8,0.002520,0.001668, 35,0.020464,0.000158,  35.502
   324.0,0.002520,0.001675, 35,0.020527,0.000144,  35.501
   324.2,0.002517,0.001675, 35,0.020572,0.000108,  35.504
   324.4,0.002523,0.001672, 35,0.020607,0.000144,  35.505
   324.6,0.002523,0.001678, 35,0.020505,0.000117,  35.507
   324.8,0.002520,0.001680, 35,0.020314,0.000094,  35.504
   325.0,0.002526,0.001678, 35,0.020052,0.000131,  35.504
   325.2,0.002528,0.001675, 35,0.020073,0.000131,  35.505
   325.4,0.002531,0.001677, 35,0.020187,0.000108,  35.507
   325.6,0.002528,0.001679, 35,0.020409,0.000144,  35.502
   325.8,0.002534,0.001677, 35,0.020459,0.000144,  35.506
   326.0,0.002531,0.001676, 35,0.020481,0.000144,  35.508
   326.2,0.002531,0.001681, 35,0.020466,0.000144,  35.505
   326.4,0.002531,0.001683, 35,0.020422,0.000158,  35.506
   326.6,0.002527,0.001685, 35,0.020439,0.000144,  35.506
   326.8,0.002533,0.001685, 35,0.020467,0.000144,  35.504
   327.0,0.002531,0.001685, 35,0.020508,0.000144,  35.507
   327.2,0.002533,0.001684, 35,0.020518,0.000144,  35.507
   327.4,0.002533,0.001680, 35,0.020532,0.000121,  35.503
   327.6,0.002537,0.001680, 35,0.020545,0.000144,  35.503
   327.8,0.002542,0.001678, 35,0.020615,0.000131,  35.506
   328.0,0.002536,0.001680, 35,0.020714,0.000108,  35.502
   328.2,0.002542,0.001679, 35,0.020846,0.000131,  35.503
   328.4,0.002544,0.001681, 35,0.020811,0.000131,  35.506
   328.6,0.002544,0.001685, 35,0.020708,0.000094,  35.505
   328.8,0.002550,0.001687, 35,0.020535,0.000131,  35.503
   329.0,0.002550,0.001692, 35,0.020481,0.000117,  35.507
   329.2,0.002546,0.001692, 35,0.020456,0.000094,  35.510
   329.4,0.002550,0.001688, 35,0.020463,0.000131,  35.505
   329.6,0.002550,0.001683, 35,0.020466,0.000131,  35.506
   329.8,0.002552,0.001686, 35,0.020483,0.000108,  35.508
   330.0,0.002552,0.001695, 35,0.020518,0.000131,  35.502
   330.2,0.002555,0.001692, 35,0.020506,0.000131,  35.508
   330.4,0.002555,0.001692, 35,0.020471,0.000108,  35.506
   330.6,0.002555,0.001697, 35,0.020410,0.000131,  35.510
   330.8,0.002555,0.001696, 35,0.020383,0.000131,  35.506
   331.0,0.002555,0.001694, 35,0.020362,0.000108,  35.507
   331.2,0.002552,0.001691, 35,0.020337,0.000131,  35.507
   331.4,0.002551,0.001693, 35,0.020338,0.000131,  35.507
   331.6,0.002553,0.001697, 35,0.020346,0.000108,  35.510
   331.8,0.002556,0.001700, 35,0.020361,0.000131,  35.508
   332.0,0.002558,0.001697, 35,0.020341,0.000131,  35.505
   332.2,0.002561,0.001699, 35,0.020297,0.000108,  35.504
   332.4,0.002563,0.001703, 35,0.020228,0.000131,  35.504
   332.6,0.002566,0.001699, 35,0.020168,0.000131,  35.510
   332.8,0.002566,0.001701, 35,0.020104,0.000108,  35.505
   333.0,0.002563,0.001702, 35,0.020029,0.000131,  35.505
   333.2,0.002556,0.001697, 35,0.020038,0.000131,  35.506
   333.4,0.002556,0.001702, 35,0.020094,0.000108,  35.504
   333.6,0.002558,0.001702, 35,0.020185,0.000131,  35.506
   333.8,0.002556,0.001699, 35,0.020194,0.000131,  35.505
   334.0,0.002556,0.001701, 35,0.020181,0.000108,  35.505
   334.2,0.002556,0.001704, 35,0.020153,0.000131,  35.501
   334.4,0.002551,0.001707, 35,0.020133,0.000131,  35.499
   334.6,0.002551,0.001702, 35,0.020099,0.000167,  35.500
   334.8,0.002551,0.001702, 35,0.020066,0.000117,  35.499
   335.0,0.002548,0.001704, 35,0.020019,0.000154,  35.504
   335.2,0.002548,0.001700, 35,0.019992,0.000140,  35.498
   335.4,0.002544,0.001702, 35,0.019959,0.000140,  35.495
   335.6,0.002547,0.001703, 35,0.019937,0.000140,  35.495
   335.8,0.002550,0.001702, 35,0.019917,0.000140,  35.496
   336.0,0.002552,0.001704, 35,0.019890,0.000140,  35.496
   336.2,0.002561,0.001706, 35,0.019875,0.000117,  35.491
   336.4,0.002563,0.001702, 35,0.019760,0.000154,  35.494
   336.6,0.002566,0.001701, 35,0.019592,0.000154,  35.490
   336.8,0.002569,0.001701, 35,0.019380,0.000117,  35.493
   337.0,0.002571,0.001701, 35,0.019376,0.000140,  35.493
   337.2,0.002565,0.001703, 35,0.019459,0.000140,  35.492
   337.4,0.002565,0.001710, 35,0.019623,0.000104,  35.494
   337.6,0.002568,0.001712, 35,0.019674,0.000140,  35.493
   337.8,0.002562,0.001713, 35,0.019723,0.000140,  35.489
   338.0,0.002565,0.001714, 35,0.019751,0.000104,  35.489
   338.2,0.002565,0.001713, 35,0.019780,0.000140,  35.490
   338.4,0.002565,0.001712, 35,0.019814,0.000140,  35.490
   338.6,0.002568,0.001709, 35,0.019834,0.000117,  35.494
   338.8,0.002565,0.001707, 35,0.019732,0.000154,  35.493
   339.0,0.002562,0.001705, 35,0.019562,0.000154,  35.489
   339.2,0.002570,0.001706, 35,0.019329,0.000131,  35.488
   339.4,0.002564,0.001710, 35,0.019360,0.000154,  35.489
   339.6,0.002564,0.001710, 35,0.019499,0.000154,  35.487
   339.8,0.002564,0.001708, 35,0.019735,0.000131,  35.490
   340.0,0.002568,0.001713, 35,0.019777,0.000154,  35.491
   340.2,0.002568,0.001715, 35,0.019769,0.000154,  35.485
   340.4,0.002564,0.001713, 35,0.019719,0.000131,  35.484
   340.6,0.002568,0.001709, 35,0.019727,0.000154,  35.490
   340.8,0.002570,0.001713, 35,0.019741,0.000154,  35.490
   341.0,0.002567,0.001713, 35,0.019750,0.000131,  35.491
   341.2,0.002575,0.001707, 35,0.019710,0.000154,  35.489
   341.4,0.002578,0.001709, 35,0.019659,0.000154,  35.487
   341.6,0.002569,0.001712, 35,0.019570,0.000131,  35.490
   341.8,0.002575,0.001711, 35,0.019538,0.000154,  35.490
   342.0,0.002578,0.001711, 35,0.019543,0.000154,  35.490
   342.2,0.002575,0.001716, 35,0.019557,0.000131,  35.484
   342.4,0.002581,0.001718, 35,0.019448,0.000154,  35.491
   342.6,0.002584,0.001719, 35,0.019291,0.000154,  35.489
   342.8,0.002584,0.001719, 35,0.019072,0.000131,  35.487
   343.0,0.002587,0.001719, 35,0.018811,0.000154,  35.491
   343.2,0.002589,0.001716, 35,0.018887,0.000154,  35.485
   343.4,0.002589,0.001716, 35,0.019060,0.000167,  35.489
   343.6,0.002589,0.001716, 35,0.019343,0.000117,  35.486
   343.8,0.002592,0.001718, 35,0.019421,0.000154,  35.490
   344.0,0.002592,0.001722, 35,0.019455,0.000154,  35.484
   344.2,0.002589,0.001719, 35,0.019440,0.000154,  35.486
   344.4,0.002594,0.001723, 35,0.019462,0.000154,  35.484
   344.6,0.002588,0.001727, 35,0.019476,0.000131,  35.491
   344.8,0.002588,0.001724, 35,0.019488,0.000131,  35.485
   345.0,0.002591,0.001726, 35,0.019531,0.000131,  35.485
   345.2,0.002585,0.001726, 35,0.019568,0.000108,  35.484
   345.4,0.002588,0.001727, 35,0.019624,0.000131,  35.489
   345.6,0.002588,0.001727, 35,0.019613,0.000131,  35.489
   345.8,0.002582,0.001731, 35,0.019592,0.000108,  35.482
   346.0,0.002588,0.001731, 35,0.019531,0.000131,  35.488
   346.2,0.002588,0.001734, 35,0.019539,0.000131,  35.490
   346.4,0.002588,0.001738, 35,0.019574,0.000108,  35.490
   346.6,0.002586,0.001734, 35,0.019634,0.000131,  35.491
   346.8,0.002586,0.001732, 35,0.019634,0.000131,  35.487
   347.0,0.002588,0.001734, 35,0.019608,0.000108,  35.483
   347.2,0.002588,0.001737, 35,0.019568,0.000131,  35.486
   347.4,0.002591,0.001737, 35,0.019539,0.000131,  35.488
   347.6,0.002593,0.001731, 35,0.019510,0.000108,  35.490
   347.8,0.002590,0.001731, 35,0.019468,0.000131,  35.486
   348.0,0.002591,0.001731, 35,0.019455,0.000131,  35.484
   348.2,0.002591,0.001731, 35,0.019450,0.000094,  35.488
   348.4,0.002587,0.001734, 35,0.019464,0.000131,  35.486
   348.6,0.002591,0.001732, 35,0.019478,0.000117,  35.489
   348.8,0.002588,0.001728, 35,0.019487,0.000117,  35.487
   349.0,0.002588,0.001724, 35,0.019496,0.000117,  35.490
   349.2,0.002592,0.001722, 35,0.019483,0.000140,  35.491
   349.4,0.002592,0.001724, 35,0.019444,0.000140,  35.489
   349.6,0.002586,0.001729, 35,0.019389,0.000104,  35.489
   349.8,0.002588,0.001731, 35,0.019406,0.000140,  35.493
   350.0,0.002591,0.001729, 35,0.019448,0.000140,  35.489
   350.2,0.002585,0.001729, 35,0.019510,0.000104,  35.485
   350.4,0.002588,0.001731, 35,0.019519,0.000140,  35.489
   350.6,0.002582,0.001728, 35,0.019519,0.000140,  35.493
   350.8,0.002585,0.001729, 35,0.019505,0.000104,  35.490
   351.0,0.002585,0.001731, 35,0.019471,0.000140,  35.491
   351.2,0.002579,0.001728, 35,0.019459,0.000140,  35.490
   351.4,0.002585,0.001730, 35,0.019453,0.000154,  35.491
   351.6,0.002582,0.001725, 35,0.019459,0.000104,  35.490
   351.8,0.002576,0.001728, 35,0.019453,0.000154,  35.494
   352.0,0.002582,0.001731, 35,0.019432,0.000154,  35.492
   352.2,0.002582,0.001726, 35,0.019412,0.000167,  35.490
   352.4,0.002574,0.001726, 35,0.019384,0.000167,  35.493
   352.6,0.002574,0.001731, 35,0.019331,0.000181,  35.493
   352.8,0.002574,0.001729, 35,0.019281,0.000131,  35.491
   353.0,0.002565,0.001734, 35,0.019268,0.000167,  35.494
   353.2,0.002571,0.001728, 35,0.019257,0.000167,  35.491
   353.4,0.002577,0.001729, 35,0.019271,0.000131,  35.496
   353.6,0.002574,0.001726, 35,0.019286,0.000154,  35.492
   353.8,0.002580,0.001728, 35,0.019296,0.000154,  35.493
   354.0,0.002577,0.001728, 35,0.019318,0.000131,  35.493
   354.2,0.002574,0.001728, 35,0.019297,0.000154,  35.493
   354.4,0.002580,0.001730, 35,0.019257,0.000154,  35.488
   354.6,0.002577,0.001730, 35,0.019192,0.000131,  35.491
   354.8,0.002577,0.001727, 35,0.019187,0.000154,  35.495
   355.0,0.002571,0.001729, 35,0.019210,0.000154,  35.493
   355.2,0.002577,0.001732, 35,0.019252,0.000131,  35.493
   355.4,0.002574,0.001727, 35,0.019238,0.000154,  35.494
   355.6,0.002571,0.001729, 35,0.019185,0.000154,  35.495
   355.8,0.002577,0.001727, 35,0.019128,0.000131,  35.497
   356.0,0.002574,0.001727, 35,0.019134,0.000154,  35.493
   356.2,0.002571,0.001730, 35,0.019150,0.000154,  35.494
   356.4,0.002577,0.001730, 35,0.019185,0.000131,  35.491
   356.6,0.002577,0.001726, 35,0.019166,0.000154,  35.498
   356.8,0.002574,0.001732, 35,0.019132,0.000154,  35.494
   357.0,0.002574,0.001732, 35,0.019072,0.000117,  35.496
   357.2,0.002574,0.001728, 35,0.019006,0.000140,  35.495
   357.4,0.002567,0.001730, 35,0.018931,0.000140,  35.494
   357.6,0.002571,0.001730, 35,0.018840,0.000104,  35.493
   357.8,0.002572,0.001725, 35,0.018834,0.000140,  35.495
   358.0,0.002566,0.001725, 35,0.018857,0.000154,  35.496
   358.2,0.002569,0.001725, 35,0.018924,0.000117,  35.494
   358.4,0.002562,0.001723, 35,0.018947,0.000167,  35.496
   358.6,0.002562,0.001720, 35,0.018977,0.000181,  35.498
   358.8,0.002564,0.001718, 35,0.018999,0.000131,  35.497
   359.0,0.002568,0.001714, 35,0.019001,0.000167,  35.496
   359.2,0.002568,0.001713, 35,0.018994,0.000167,  35.496
   359.4,0.002564,0.001719, 35,0.018974,0.000131,  35.494
   359.6,0.002568,0.001714, 35,0.018946,0.000154,  35.497
   359.8,0.002568,0.001716, 35,0.018952,0.000154,  35.496
   360.0,0.002562,0.001720, 35,0.018947,0.000154,  35.496
   360.2,0.002565,0.001716, 35,0.018949,0.000117,  35.496
   360.4,0.002559,0.001716, 35,0.018952,0.000154,  35.493
   360.6,0.002562,0.001711, 35,0.018968,0.000154,  35.497
   360.8,0.002562,0.001711, 35,0.018989,0.000154,  35.494
   361.0,0.002556,0.001713, 35,0.018964,0.000140,  35.491
   361.2,0.002564,0.001711, 35,0.018922,0.000140,  35.495
   361.4,0.002562,0.001717, 35,0.018858,0.000117,  35.493
   361.6,0.002556,0.001714, 35,0.018845,0.000154,  35.493
   361.8,0.002562,0.001714, 35,0.018845,0.000154,  35.492
   362.0,0.002559,0.001714, 35,0.018853,0.000131,  35.495
   362.2,0.002553,0.001708, 35,0.018835,0.000154,  35.493
   362.4,0.002559,0.001711, 35,0.018821,0.000154,  35.496
   362.6,0.002559,0.001715, 35,0.018788,0.000131,  35.493
   362.8,0.002559,0.001713, 35,0.018778,0.000154,  35.492
   363.0,0.002559,0.001714, 35,0.018778,0.000154,  35.493
   363.2,0.002559,0.001717, 35,0.018779,0.000131,  35.495
   363.4,0.002562,0.001714, 35,0.018787,0.000154,  35.493
   363.6,0.002554,0.001714, 35,0.018789,0.000154,  35.498
   363.8,0.002560,0.001709, 35,0.018802,0.000131,  35.494
   364.0,0.002551,0.001709, 35,0.018768,0.000154,  35.495
   364.2,0.002554,0.001707, 35,0.018708,0.000154,  35.494
   364.4,0.002551,0.001714, 35,0.018619,0.000131,  35.495
   364.6,0.002555,0.001716, 35,0.018615,0.000154,  35.493
   364.8,0.002557,0.001720, 35,0.018657,0.000154,  35.493
   365.0,0.002549,0.001720, 35,0.018721,0.000131,  35.494
   365.2,0.002552,0.001715, 35,0.018730,0.000154,  35.494
   365.4,0.002555,0.001715, 35,0.018722,0.000154,  35.493
   365.6,0.002546,0.001715, 35,0.018702,0.000131,  35.493
   365.8,0.002552,0.001711, 35,0.018572,0.000154,  35.495
   366.0,0.002552,0.001711, 35,0.018372,0.000154,  35.493
   366.2,0.002546,0.001715, 35,0.018106,0.000117,  35.495
   366.4,0.002550,0.001715, 35,0.018087,0.000140,  35.491
   366.6,0.002550,0.001713, 35,0.018169,0.000140,  35.495
   366.8,0.002544,0.001710, 35,0.018334,0.000117,  35.492
   367.0,0.002547,0.001713, 35,0.018384,0.000154,  35.489
   367.2,0.002542,0.001713, 35,0.018427,0.000154,  35.496
   367.4,0.002540,0.001710, 35,0.018460,0.000131,  35.493
   367.6,0.002542,0.001711, 35,0.018460,0.000154,  35.490
   367.8,0.002542,0.001710, 35,0.018440,0.000154,  35.491
   368.0,0.002536,0.001705, 35,0.018385,0.000167,  35.491
   368.2,0.002541,0.001703, 35,0.018322,0.000117,  35.491
   368.4,0.002544,0.001703, 35,0.018309,0.000154,  35.490
   368.6,0.002538,0.001707, 35,0.018290,0.000154,  35.493
   368.8,0.002540,0.001700, 35,0.018283,0.000154,  35.491
   369.0,0.002543,0.001704, 35,0.018272,0.000154,  35.490
   369.2,0.002540,0.001706, 35,0.018261,0.000131,  35.490
   369.4,0.002540,0.001706, 35,0.018256,0.000131,  35.492
   369.6,0.002543,0.001706, 35,0.018285,0.000131,  35.488
   369.8,0.002543,0.001706, 35,0.018327,0.000108,  35.490
   370.0,0.002543,0.001707, 35,0.018384,0.000094,  35.488
   370.2,0.002545,0.001705, 35,0.018371,0.000094,  35.492
   370.4,0.002545,0.001709, 35,0.018323,0.000071,  35.487
   370.6,0.002543,0.001707, 35,0.018253,0.000058,  35.490
   370.8,0.002545,0.001705, 35,0.018261,0.000094,  35.491
   371.0,0.002543,0.001705, 35,0.018283,0.000071,  35.490
   371.2,0.002540,0.001707, 35,0.018338,0.000094,  35.494
   371.4,0.002538,0.001702, 35,0.018346,0.000131,  35.488
   371.6,0.002532,0.001701, 35,0.018338,0.000108,  35.489
   371.8,0.002535,0.001703, 35,0.018311,0.000131,  35.493
   372.0,0.002533,0.001699, 35,0.018068,0.000131,  35.489
   372.2,0.002533,0.001699, 35,0.017720,0.000108,  35.490
   372.4,0.002521,0.001702, 35,0.017250,0.000131,  35.493
   372.6,0.002516,0.001698, 35,0.017226,0.000131,  35.491
   372.8,0.002514,0.001700, 35,0.017371,0.000094,  35.489
   373.0,0.002511,0.001698, 35,0.017692,0.000131,  35.490
   373.2,0.002515,0.001694, 35,0.017762,0.000117,  35.491
   373.4,0.002517,0.001694, 35,0.017783,0.000081,  35.489
   373.6,0.002517,0.001687, 35,0.017781,0.000131,  35.492
   373.8,0.002515,0.001683, 35,0.017802,0.000117,  35.496
   374.0,0.002517,0.001685, 35,0.017816,0.000094,  35.498
   374.2,0.002508,0.001687, 35,0.017835,0.000094,  35.497
   374.4,0.002506,0.001682, 35,0.017844,0.000094,  35.495
   374.6,0.002506,0.001680, 35,0.017852,0.000058,  35.498
   374.8,0.002503,0.001683, 35,0.017854,0.000081,  35.501
   375.0,0.002507,0.001683, 35,0.017896,0.000104,  35.506
   375.2,0.002504,0.001686, 35,0.017928,0.000067,  35.502
   375.4,0.002496,0.001689, 35,0.017984,0.000117,  35.506
   375.6,0.002493,0.001687, 35,0.018013,0.000117,  35.506
   375.8,0.002484,0.001687, 35,0.018042,0.000081,  35.506
   376.0,0.002484,0.001681, 35,0.018057,0.000117,  35.504
   376.2,0.002487,0.001674, 35,0.018066,0.000104,  35.505
   376.4,0.002481,0.001677, 35,0.018018,0.000104,  35.511
   376.6,0.002484,0.001673, 35,0.017934,0.000104,  35.511
   376.8,0.002482,0.001668, 35,0.017822,0.000104,  35.510
   377.0,0.002478,0.001668, 35,0.017783,0.000104,  35.511
   377.2,0.002482,0.001671, 35,0.017764,0.000104,  35.510
   377.4,0.002482,0.001670, 35,0.017765,0.000104,  35.508
   377.6,0.002476,0.001666, 35,0.017760,0.000104,  35.513
   377.8,0.002479,0.001668, 35,0.017762,0.000067,  35.512
   378.0,0.002474,0.001670, 35,0.017763,0.000117,  35.512
   378.2,0.002474,0.001671, 35,0.017750,0.000117,  35.515
   378.4,0.002474,0.001674, 35,0.017729,0.000081,  35.513
   378.6,0.002478,0.001677, 35,0.017688,0.000131,  35.515
   378.8,0.002478,0.001676, 35,0.017670,0.000117,  35.518
   379.0,0.002472,0.001674, 35,0.017657,0.000081,  35.515
   379.2,0.002475,0.001673, 35,0.017645,0.000131,  35.513
   379.4,0.002472,0.001669, 35,0.017538,0.000117,  35.515
   379.6,0.002464,0.001664, 35,0.017389,0.000081,  35.516
   379.8,0.002465,0.001666, 35,0.017198,0.000131,  35.519
   380.0,0.002465,0.001662, 35,0.017199,0.000117,  35.518
   380.2,0.002462,0.001662, 35,0.017270,0.000081,  35.516
   380.4,0.002462,0.001658, 35,0.017415,0.000131,  35.514
   380.6,0.002460,0.001652, 35,0.017463,0.000117,  35.518
   380.8,0.002460,0.001657, 35,0.017493,0.000081,  35.518
   381.0,0.002457,0.001655, 35,0.017501,0.000131,  35.521
   381.2,0.002457,0.001650, 35,0.017491,0.000117,  35.530
   381.4,0.002451,0.001655, 35,0.017472,0.000081,  35.527
   381.6,0.002451,0.001654, 35,0.017432,0.000131,  35.528
   381.8,0.002446,0.001652, 35,0.017389,0.000117,  35.526
   382.0,0.002446,0.001653, 35,0.017361,0.000094,  35.525
   382.2,0.002448,0.001655, 35,0.017333,0.000131,  35.527
   382.4,0.002452,0.001652, 35,0.017186,0.000131,  35.527
   382.6,0.002449,0.001652, 35,0.016988,0.000094,  35.529
   382.8,0.002441,0.001649, 35,0.016737,0.000131,  35.523
   383.0,0.002439,0.001644, 35,0.016743,0.000117,  35.527
   383.2,0.002436,0.001642, 35,0.016833,0.000081,  35.525
   383.4,0.002428,0.001643, 35,0.017018,0.000131,  35.526
   383.6,0.002429,0.001643, 35,0.017064,0.000117,  35.528
   383.8,0.002429,0.001643, 35,0.017073,0.000081,  35.527
   384.0,0.002423,0.001645, 35,0.017048,0.000117,  35.526
   384.2,0.002426,0.001645, 35,0.017063,0.000104,  35.525
   384.4,0.002426,0.001640, 35,0.017085,0.000104,  35.525
   384.6,0.002420,0.001631, 35,0.017111,0.000104,  35.526
   384.8,0.002426,0.001629, 35,0.017139,0.000104,  35.528
   385.0,0.002424,0.001634, 35,0.017149,0.000104,  35.527
   385.2,0.002421,0.001631, 35,0.017163,0.000104,  35.525
   385.4,0.002422,0.001627, 35,0.017171,0.000104,  35.527
   385.6,0.002413,0.001631, 35,0.017165,0.000104,  35.526
   385.8,0.002413,0.001629, 35,0.017153,0.000067,  35.522
   386.0,0.002405,0.001629, 35,0.017134,0.000117,  35.527
   386.2,0.002399,0.001629, 35,0.017102,0.000117,  35.522
   386.4,0.002405,0.001623, 35,0.017056,0.000081,  35.522
   386.6,0.002400,0.001626, 35,0.017008,0.000131,  35.523
   386.8,0.002394,0.001621, 35,0.016997,0.000117,  35.528
   387.0,0.002402,0.001621, 35,0.016999,0.000081,  35.521
   387.2,0.002402,0.001626, 35,0.017020,0.000117,  35.524
   387.4,0.002396,0.001621, 35,0.017036,0.000104,  35.523
   387.6,0.002402,0.001619, 35,0.017059,0.000067,  35.522
   387.8,0.002400,0.001617, 35,0.017094,0.000104,  35.525
   388.0,0.002400,0.001615, 35,0.017070,0.000104,  35.523
   388.2,0.002400,0.001617, 35,0.017028,0.000067,  35.519
   388.4,0.002403,0.001622, 35,0.016965,0.000104,  35.523
   388.6,0.002400,0.001617, 35,0.016946,0.000104,  35.522
   388.8,0.002400,0.001624, 35,0.016936,0.000104,  35.517
   389.0,0.002404,0.001625, 35,0.016950,0.000104,  35.511
   389.2,0.002401,0.001618, 35,0.016945,0.000127,  35.509
   389.4,0.002401,0.001617, 35,0.016927,0.000127,  35.508
   389.6,0.002401,0.001610, 35,0.016909,0.000104,  35.512
   389.8,0.002399,0.001610, 35,0.016884,0.000140,  35.512
   390.0,0.002399,0.001607, 35,0.016851,0.000140,  35.512
   390.2,0.002396,0.001603, 35,0.016804,0.000117,  35.510
   390.4,0.002389,0.001608, 35,0.016656,0.000154,  35.511
   390.6,0.002389,0.001612, 35,0.016448,0.000131,  35.509
   390.8,0.002389,0.001607, 35,0.016189,0.000131,  35.511
   391.0,0.002386,0.001605, 35,0.016171,0.000131,  35.507
   391.2,0.002383,0.001604, 35,0.016247,0.000094,  35.510
   391.4,0.002377,0.001608, 35,0.016424,0.000131,  35.510
   391.6,0.002377,0.001604, 35,0.016459,0.000117,  35.509
   391.8,0.002375,0.001598, 35,0.016473,0.000081,  35.507
   392.0,0.002366,0.001604, 35,0.016459,0.000131,  35.511
   392.2,0.002370,0.001602, 35,0.016494,0.000117,  35.511
   392.4,0.002364,0.001603, 35,0.016544,0.000081,  35.512
   392.6,0.002361,0.001601, 35,0.016599,0.000131,  35.514
   392.8,0.002356,0.001598, 35,0.016613,0.000117,  35.508
   393.0,0.002350,0.001598, 35,0.016602,0.000081,  35.511
   393.2,0.002353,0.001594, 35,0.016580,0.000131,  35.510
   393.4,0.002351,0.001594, 35,0.016527,0.000117,  35.510
   393.6,0.002342,0.001592, 35,0.016508,0.000117,  35.511
   393.8,0.002348,0.001591, 35,0.016483,0.000131,  35.505
   394.0,0.002346,0.001584, 35,0.016464,0.000117,  35.510
   394.2,0.002337,0.001583, 35,0.016454,0.000117,  35.508
   394.4,0.002340,0.001587, 35,0.016468,0.000104,  35.512
   394.6,0.002335,0.001585, 35,0.016483,0.000140,  35.511
   394.8,0.002333,0.001581, 35,0.016479,0.000127,  35.511
   395.0,0.002330,0.001578, 35,0.016466,0.000127,  35.509
   395.2,0.002329,0.001580, 35,0.016453,0.000104,  35.512
   395.4,0.002329,0.001582, 35,0.016136,0.000127,  35.511
   395.6,0.002320,0.001575, 35,0.015662,0.000127,  35.510
   395.8,0.002326,0.001576, 35,0.015028,0.000104,  35.512
   396.0,0.002329,0.001572, 35,0.014909,0.000140,  35.512
   396.2,0.002320,0.001566, 35,0.014969,0.000140,  35.515
   396.4,0.002323,0.001564, 35,0.015205,0.000117,  35.513
   396.6,0.002323,0.001564, 35,0.015342,0.000154,  35.513
   396.8,0.002315,0.001562, 35,0.015508,0.000154,  35.511
   397.0,0.002316,0.001564, 35,0.015721,0.000131,  35.516
   397.2,0.002313,0.001565, 35,0.015825,0.000154,  35.517
   397.4,0.002313,0.001562, 35,0.015893,0.000154,  35.515
   397.6,0.002313,0.001563, 35,0.015932,0.000154,  35.516
   397.8,0.002313,0.001561, 35,0.015967,0.000163,  35.515
   398.0,0.002313,0.001564, 35,0.015981,0.000163,  35.516
   398.2,0.002311,0.001565, 35,0.015970,0.000154,  35.515
   398.4,0.002305,0.001563, 35,0.015985,0.000154,  35.514
   398.6,0.002297,0.001565, 35,0.015986,0.000154,  35.516
   398.8,0.002294,0.001565, 35,0.015992,0.000131,  35.517
   399.0,0.002289,0.001561, 35,0.016015,0.000154,  35.527
   399.2,0.002283,0.001563, 35,0.016037,0.000154,  35.524
   399.4,0.002289,0.001559, 35,0.016073,0.000131,  35.523
   399.6,0.002286,0.001555, 35,0.016069,0.000154,  35.524
   399.8,0.002284,0.001555, 35,0.016050,0.000154,  35.525
   400.0,0.002281,0.001557, 35,0.016029,0.000131,  35.530
   400.2,0.002282,0.001555, 35,0.016018,0.000154,  35.527
   400.4,0.002276,0.001554, 35,0.016013,0.000154,  35.527
   400.6,0.002274,0.001555, 35,0.016014,0.000117,  35.526
   400.8,0.002271,0.001552, 35,0.016023,0.000140,  35.526
   401.0,0.002271,0.001547, 35,0.016038,0.000140,  35.529
   401.2,0.002268,0.001547, 35,0.016047,0.000104,  35.531
   401.4,0.002269,0.001540, 35,0.015892,0.000140,  35.534
   401.6,0.002269,0.001538, 35,0.015655,0.000104,  35.532
   401.8,0.002266,0.001539, 35,0.015330,0.000117,  35.534
   402.0,0.002272,0.001535, 35,0.015257,0.000117,  35.530
   402.2,0.002272,0.001531, 35,0.015278,0.000117,  35.533
   402.4,0.002266,0.001535, 35,0.015369,0.000117,  35.536
   402.6,0.002269,0.001535, 35,0.015559,0.000117,  35.535
   402.8,0.002267,0.001535, 35,0.015466,0.000140,  35.533
   403.0,0.002258,0.001535, 35,0.015317,0.000140,  35.533
   403.2,0.002259,0.001533, 35,0.015103,0.000140,  35.533
   403.4,0.002259,0.001534, 35,0.015078,0.000154,  35.534
   403.6,0.002248,0.001532, 35,0.015124,0.000154,  35.536
   403.8,0.002251,0.001530, 35,0.015220,0.000131,  35.536
   404.0,0.002251,0.001530, 35,0.015263,0.000154,  35.536
   404.2,0.002243,0.001529, 35,0.015304,0.000167,  35.538
   404.4,0.002246,0.001527, 35,0.015346,0.000131,  35.539
   404.6,0.002244,0.001523, 35,0.015376,0.000167,  35.536
   404.8,0.002235,0.001523, 35,0.015410,0.000167,  35.539
   405.0,0.002236,0.001520, 35,0.015438,0.000131,  35.540
   405.2,0.002236,0.001521, 35,0.015454,0.000154,  35.539
   405.4,0.002233,0.001521, 35,0.015468,0.000154,  35.539
   405.6,0.002237,0.001518, 35,0.015475,0.000131,  35.537
   405.8,0.002237,0.001514, 35,0.015382,0.000154,  35.539
   406.0,0.002237,0.001514, 35,0.015233,0.000131,  35.542
   406.2,0.002234,0.001518, 35,0.015031,0.000131,  35.537
   406.4,0.002232,0.001518, 35,0.015006,0.000131,  35.538
   406.6,0.002229,0.001518, 35,0.015052,0.000108,  35.539
   406.8,0.002227,0.001516, 35,0.015143,0.000131,  35.530
   407.0,0.002224,0.001516, 35,0.015166,0.000131,  35.534
   407.2,0.002215,0.001512, 35,0.015187,0.000108,  35.534
   407.4,0.002215,0.001509, 35,0.015202,0.000131,  35.537
   407.6,0.002209,0.001509, 35,0.015096,0.000131,  35.530
   407.8,0.002201,0.001506, 35,0.014927,0.000094,  35.531
   408.0,0.002204,0.001505, 35,0.014697,0.000131,  35.532
   408.2,0.002204,0.001505, 35,0.014672,0.000117,  35.531
   408.4,0.002198,0.001506, 35,0.014721,0.000117,  35.534
   408.6,0.002199,0.001501, 35,0.014849,0.000117,  35.532
   408.8,0.002194,0.001501, 35,0.014901,0.000140,  35.532
   409.0,0.002188,0.001499, 35,0.014970,0.000140,  35.529
   409.2,0.002194,0.001495, 35,0.015045,0.000104,  35.532
   409.4,0.002194,0.001491, 35,0.015075,0.000140,  35.526
   409.6,0.002188,0.001493, 35,0.015078,0.000140,  35.533
   409.8,0.002191,0.001501, 35,0.015070,0.000104,  35.531
   410.0,0.002189,0.001497, 35,0.015045,0.000140,  35.530
   410.2,0.002184,0.001497, 35,0.014998,0.000140,  35.532
   410.4,0.002179,0.001495, 35,0.014937,0.000104,  35.528
   410.6,0.002177,0.001492, 35,0.014924,0.000140,  35.532
   410.8,0.002174,0.001492, 35,0.014920,0.000140,  35.537
   411.0,0.002166,0.001492, 35,0.014940,0.000104,  35.538
   411.2,0.002172,0.001488, 35,0.014963,0.000140,  35.534
   411.4,0.002163,0.001486, 35,0.014965,0.000140,  35.538
   411.6,0.002161,0.001489, 35,0.014967,0.000140,  35.534
   411.8,0.002155,0.001490, 35,0.014968,0.000104,  35.535
   412.0,0.002147,0.001487, 35,0.014943,0.000140,  35.538
   412.2,0.002150,0.001485, 35,0.014897,0.000140,  35.535
   412.4,0.002145,0.001485, 35,0.014843,0.000140,  35.529
   412.6,0.002139,0.001481, 35,0.014790,0.000154,  35.537
   412.8,0.002145,0.001477, 35,0.014719,0.000154,  35.537
   413.0,0.002143,0.001475, 35,0.014656,0.000131,  35.532
   413.2,0.002134,0.001473, 35,0.014658,0.000154,  35.536
   413.4,0.002137,0.001471, 35,0.014688,0.000154,  35.534
   413.6,0.002135,0.001470, 35,0.014746,0.000117,  35.533
   413.8,0.002126,0.001466, 35,0.014741,0.000127,  35.533
   414.0,0.002127,0.001471, 35,0.014715,0.000127,  35.533
   414.2,0.002125,0.001467, 35,0.014668,0.000104,  35.534
   414.4,0.002122,0.001465, 35,0.014649,0.000140,  35.532
   414.6,0.002119,0.001464, 35,0.014624,0.000140,  35.529
   414.8,0.002120,0.001456, 35,0.014611,0.000104,  35.532
   415.0,0.002118,0.001450, 35,0.014429,0.000140,  35.527
   415.2,0.002115,0.001457, 35,0.014154,0.000140,  35.524
   415.4,0.002115,0.001457, 35,0.013797,0.000117,  35.526
   415.6,0.002113,0.001453, 35,0.013549,0.000154,  35.528
   415.8,0.002113,0.001452, 35,0.013310,0.000154,  35.528
   416.0,0.002113,0.001453, 35,0.013076,0.000131,  35.524
   416.2,0.002113,0.001449, 35,0.013097,0.000154,  35.525
   416.4,0.002110,0.001446, 35,0.013241,0.000154,  35.526
   416.6,0.002099,0.001444, 35,0.013522,0.000131,  35.523
   416.8,0.002100,0.001445, 35,0.013490,0.000154,  35.524
   417.0,0.002097,0.001445, 35,0.013346,0.000154,  35.523
   417.2,0.002086,0.001440, 35,0.013124,0.000131,  35.522
   417.4,0.002090,0.001442, 35,0.013208,0.000154,  35.523
   417.6,0.002083,0.001442, 35,0.013399,0.000167,  35.520
   417.8,0.002081,0.001436, 35,0.013703,0.000131,  35.523
   418.0,0.002076,0.001436, 35,0.013821,0.000167,  35.523
   418.2,0.002067,0.001436, 35,0.013897,0.000167,  35.521
   418.4,0.002068,0.001434, 35,0.013951,0.000131,  35.522
   418.6,0.002060,0.001430, 35,0.014021,0.000154,  35.521
   418.8,0.002052,0.001424, 35,0.014084,0.000154,  35.522
   419.0,0.002055,0.001421, 35,0.014139,0.000131,  35.522
   419.2,0.002053,0.001415, 35,0.014134,0.000154,  35.519
   419.4,0.002044,0.001417, 35,0.014095,0.000154,  35.520
   419.6,0.002048,0.001419, 35,0.014021,0.000131,  35.517
   419.8,0.002040,0.001417, 35,0.014010,0.000154,  35.521
   420.0,0.002037,0.001410, 35,0.014017,0.000154,  35.521
   420.2,0.002035,0.001408, 35,0.014027,0.000167,  35.520
   420.4,0.002038,0.001402, 35,0.014067,0.000117,  35.518
   420.6,0.002036,0.001399, 35,0.014070,0.000154,  35.516
   420.8,0.002027,0.001401, 35,0.014077,0.000154,  35.517
   421.0,0.002030,0.001396, 35,0.014073,0.000154,  35.515
   421.2,0.002028,0.001397, 35,0.014082,0.000154,  35.514
   421.4,0.002022,0.001391, 35,0.014085,0.000154,  35.516
   421.6,0.002028,0.001387, 35,0.014106,0.000131,  35.516
   421.8,0.002028,0.001388, 35,0.014088,0.000154,  35.511
   422.0,0.002019,0.001382, 35,0.014055,0.000154,  35.510
   422.2,0.002018,0.001387, 35,0.014002,0.000131,  35.504
   422.4,0.002015,0.001385, 35,0.013675,0.000154,  35.503
   422.6,0.002013,0.001387, 35,0.013212,0.000154,  35.503
   422.8,0.002015,0.001386, 35,0.012613,0.000131,  35.502
   423.0,0.002013,0.001384, 35,0.012434,0.000154,  35.498
   423.2,0.002004,0.001382, 35,0.012388,0.000154,  35.500
   423.4,0.002004,0.001382, 35,0.012484,0.000131,  35.500
   423.6,0.002004,0.001380, 35,0.012566,0.000154,  35.503
   423.8,0.001998,0.001377, 35,0.012708,0.000167,  35.498
   424.0,0.001998,0.001378, 35,0.012904,0.000131,  35.498
   424.2,0.001989,0.001377, 35,0.013016,0.000167,  35.496
   424.4,0.001992,0.001372, 35,0.013137,0.000167,  35.497
   424.6,0.001987,0.001373, 35,0.013246,0.000131,  35.495
   424.8,0.001993,0.001375, 35,0.013210,0.000154,  35.495
   425.0,0.001995,0.001371, 35,0.013109,0.000154,  35.495
   425.2,0.001993,0.001365, 35,0.012923,0.000131,  35.493
   425.4,0.001993,0.001365, 35,0.012918,0.000154,  35.491
   425.6,0.001990,0.001365, 35,0.012962,0.000154,  35.490
   425.8,0.001990,0.001365, 35,0.013069,0.000131,  35.492
   426.0,0.001988,0.001362, 35,0.013097,0.000154,  35.493
   426.2,0.001988,0.001362, 35,0.013110,0.000154,  35.489
   426.4,0.001983,0.001359, 35,0.013117,0.000140,  35.492
   426.6,0.001980,0.001351, 35,0.013145,0.000150,  35.490
   426.8,0.001980,0.001349, 35,0.013174,0.000150,  35.492
   427.0,0.001977,0.001347, 35,0.013204,0.000150,  35.490
   427.2,0.001972,0.001340, 35,0.012925,0.000150,  35.490
   427.4,0.001970,0.001338, 35,0.012496,0.000150,  35.491
   427.6,0.001961,0.001339, 35,0.011925,0.000127,  35.488
   427.8,0.001956,0.001339, 35,0.011894,0.000140,  35.488
   428.0,0.001953,0.001339, 35,0.012062,0.000140,  35.486
   428.2,0.001945,0.001345, 35,0.012424,0.000117,  35.485
   428.4,0.001948,0.001341, 35,0.012532,0.000154,  35.485
   428.6,0.001948,0.001340, 35,0.012613,0.000154,  35.487
   428.8,0.001942,0.001337, 35,0.012661,0.000131,  35.485
   429.0,0.001946,0.001332, 35,0.012717,0.000154,  35.484
   429.2,0.001943,0.001330, 35,0.012773,0.000154,  35.482
   429.4,0.001938,0.001335, 35,0.012808,0.000131,  35.483
   429.6,0.001936,0.001330, 35,0.012843,0.000154,  35.483
   429.8,0.001934,0.001333, 35,0.012873,0.000154,  35.481
   430.0,0.001931,0.001333, 35,0.012890,0.000167,  35.479
   430.2,0.001926,0.001331, 35,0.012911,0.000117,  35.474
   430.4,0.001924,0.001333, 35,0.012900,0.000154,  35.477
   430.6,0.001921,0.001330, 35,0.012862,0.000154,  35.481
   430.8,0.001916,0.001327, 35,0.012821,0.000154,  35.475
   431.0,0.001913,0.001331, 35,0.012836,0.000154,  35.478
   431.2,0.001908,0.001322, 35,0.012871,0.000167,  35.475
   431.4,0.001903,0.001324, 35,0.012926,0.000131,  35.474
   431.6,0.001900,0.001320, 35,0.012541,0.000167,  35.470
   431.8,0.001895,0.001317, 35,0.011952,0.000167,  35.471
   432.0,0.001888,0.001314, 35,0.011152,0.000131,  35.470
   432.2,0.001885,0.001312, 35,0.011094,0.000154,  35.472
   432.4,0.001882,0.001311, 35,0.011308,0.000154,  35.469
   432.6,0.001882,0.001311, 35,0.011795,0.000131,  35.473
   432.8,0.001882,0.001310, 35,0.011857,0.000154,  35.475
   433.0,0.001880,0.001305, 35,0.011856,0.000154,  35.472
   433.2,0.001877,0.001303, 35,0.011775,0.000131,  35.473
   433.4,0.001875,0.001304, 35,0.011831,0.000154,  35.471
   433.6,0.001866,0.001303, 35,0.011918,0.000154,  35.468
   433.8,0.001872,0.001295, 35,0.012034,0.000117,  35.469
   434.0,0.001870,0.001291, 35,0.012102,0.000140,  35.470
   434.2,0.001870,0.001292, 35,0.012157,0.000140,  35.474
   434.4,0.001861,0.001291, 35,0.012193,0.000117,  35.469
   434.6,0.001861,0.001284, 35,0.012235,0.000154,  35.473
   434.8,0.001861,0.001284, 35,0.012284,0.000154,  35.474
   435.0,0.001852,0.001287, 35,0.012325,0.000131,  35.471
   435.2,0.001853,0.001285, 35,0.012342,0.000154,  35.468
   435.4,0.001853,0.001285, 35,0.012352,0.000154,  35.475
   435.6,0.001847,0.001287, 35,0.012359,0.000131,  35.470
   435.8,0.001853,0.001285, 35,0.012347,0.000154,  35.473
   436.0,0.001851,0.001283, 35,0.012308,0.000154,  35.473
   436.2,0.001840,0.001277, 35,0.012262,0.000117,  35.469
   436.4,0.001840,0.001279, 35,0.012237,0.000140,  35.470
   436.6,0.001838,0.001283, 35,0.012210,0.000140,  35.468
   436.8,0.001827,0.001287, 35,0.012180,0.000117,  35.468
   437.0,0.001830,0.001287, 35,0.012190,0.000154,  35.471
   437.2,0.001828,0.001284, 35,0.012225,0.000154,  35.467
   437.4,0.001819,0.001279, 35,0.012280,0.000131,  35.469
   437.6,0.001820,0.001277, 35,0.012286,0.000154,  35.468
   437.8,0.001820,0.001275, 35,0.012261,0.000154,  35.463
   438.0,0.001811,0.001269, 35,0.012234,0.000131,  35.464
   438.2,0.001815,0.001264, 35,0.012175,0.000154,  35.464
   438.4,0.001815,0.001264, 35,0.012163,0.000154,  35.463
   438.6,0.001804,0.001263, 35,0.012146,0.000167,  35.463
   438.8,0.001802,0.001261, 35,0.012136,0.000117,  35.463
   439.0,0.001799,0.001259, 35,0.011985,0.000154,  35.460
   439.2,0.001791,0.001255, 35,0.011771,0.000154,  35.462
   439.4,0.001792,0.001253, 35,0.011484,0.000167,  35.463
   439.6,0.001789,0.001249, 35,0.011465,0.000167,  35.463
   439.8,0.001780,0.001249, 35,0.011528,0.000167,  35.464
   440.0,0.001781,0.001247, 35,0.011696,0.000131,  35.466
   440.2,0.001779,0.001245, 35,0.011750,0.000154,  35.461
   440.4,0.001770,0.001243, 35,0.011778,0.000154,  35.463
   440.6,0.001771,0.001239, 35,0.011788,0.000117,  35.467
   440.8,0.001769,0.001240, 35,0.011784,0.000140,  35.464
   441.0,0.001757,0.001234, 35,0.011772,0.000104,  35.466
   441.2,0.001761,0.001229, 35,0.011752,0.000117,  35.466
   441.4,0.001758,0.001223, 35,0.011728,0.000117,  35.465
   441.6,0.001750,0.001221, 35,0.011704,0.000081,  35.468
   441.8,0.001753,0.001217, 35,0.011685,0.000131,  35.467
   442.0,0.001751,0.001209, 35,0.011666,0.000117,  35.472
   442.2,0.001751,0.001210, 35,0.011635,0.000081,  35.473
   442.4,0.001745,0.001215, 35,0.011609,0.000131,  35.473
   442.6,0.001743,0.001210, 35,0.011598,0.000117,  35.469
   442.8,0.001737,0.001206, 35,0.011586,0.000117,  35.466
   443.0,0.001740,0.001208, 35,0.011575,0.000117,  35.471
   443.2,0.001732,0.001207, 35,0.011444,0.000127,  35.473
   443.4,0.001723,0.001209, 35,0.011270,0.000127,  35.476
   443.6,0.001727,0.001209, 35,0.011018,0.000104,  35.473
   443.8,0.001724,0.001209, 35,0.010987,0.000140,  35.473
   444.0,0.001715,0.001212, 35,0.011028,0.000140,  35.472
   444.2,0.001719,0.001208, 35,0.011149,0.000140,  35.477
   444.4,0.001716,0.001204, 35,0.010891,0.000163,  35.476
   444.6,0.001715,0.001204, 35,0.010493,0.000163,  35.473
   444.8,0.001714,0.001200, 35,0.009941,0.000177,  35.474
   445.0,0.001708,0.001199, 35,0.009930,0.000163,  35.475
   445.2,0.001705,0.001199, 35,0.010104,0.000163,  35.476
   445.4,0.001702,0.001196, 35,0.010489,0.000177,  35.477
   445.6,0.001704,0.001192, 35,0.010604,0.000163,  35.478
   445.8,0.001700,0.001193, 35,0.010679,0.000163,  35.480
   446.0,0.001694,0.001193, 35,0.010727,0.000140,  35.484
   446.2,0.001698,0.001193, 35,0.010789,0.000127,  35.486
   446.4,0.001699,0.001193, 35,0.010843,0.000127,  35.488
   446.6,0.001697,0.001190, 35,0.010879,0.000104,  35.486
   446.8,0.001693,0.001186, 35,0.010927,0.000127,  35.488
   447.0,0.001693,0.001181, 35,0.010969,0.000127,  35.490
   447.2,0.001687,0.001175, 35,0.011012,0.000140,  35.490
   447.4,0.001686,0.001169, 35,0.011051,0.000090,  35.490
   447.6,0.001682,0.001169, 35,0.010965,0.000127,  35.488
   447.8,0.001676,0.001173, 35,0.010809,0.000127,  35.494
   448.0,0.001682,0.001176, 35,0.010615,0.000127,  35.494
   448.2,0.001685,0.001177, 35,0.010590,0.000127,  35.495
   448.4,0.001682,0.001174, 35,0.010617,0.000127,  35.493
   448.6,0.001680,0.001175, 35,0.010699,0.000104,  35.494
   448.8,0.001680,0.001173, 35,0.010722,0.000140,  35.497
   449.0,0.001677,0.001169, 35,0.010756,0.000140,  35.498
   449.2,0.001672,0.001169, 35,0.010783,0.000104,  35.500
   449.4,0.001669,0.001166, 35,0.010605,0.000140,  35.499
   449.6,0.001669,0.001161, 35,0.010334,0.000140,  35.499
   449.8,0.001664,0.001165, 35,0.009962,0.000104,  35.498
   450.0,0.001664,0.001162, 35,0.009918,0.000140,  35.500
   450.2,0.001662,0.001158, 35,0.010004,0.000140,  35.502
   450.4,0.001662,0.001161, 35,0.010197,0.000117,  35.502
   450.6,0.001662,0.001163, 35,0.010260,0.000154,  35.504
   450.8,0.001650,0.001157, 35,0.010321,0.000154,  35.507
   451.0,0.001645,0.001154, 35,0.010363,0.000131,  35.511
   451.2,0.001643,0.001153, 35,0.010397,0.000154,  35.511
   451.4,0.001637,0.001154, 35,0.010418,0.000154,  35.507
   451.6,0.001638,0.001148, 35,0.010419,0.000131,  35.509
   451.8,0.001635,0.001144, 35,0.010460,0.000154,  35.507
   452.0,0.001635,0.001147, 35,0.010507,0.000154,  35.512
   452.2,0.001630,0.001145, 35,0.010551,0.000131,  35.509
   452.4,0.001625,0.001139, 35,0.010545,0.000154,  35.510
   452.6,0.001625,0.001141, 35,0.010518,0.000154,  35.510
   452.8,0.001616,0.001140, 35,0.010471,0.000117,  35.508
   453.0,0.001617,0.001139, 35,0.010446,0.000127,  35.509
   453.2,0.001615,0.001139, 35,0.010420,0.000127,  35.509
   453.4,0.001612,0.001136, 35,0.010400,0.000104,  35.515
   453.6,0.001613,0.001132, 35,0.010401,0.000140,  35.509
   453.8,0.001610,0.001135, 35,0.010410,0.000140,  35.510
   454.0,0.001608,0.001129, 35,0.010420,0.000104,  35.509
   454.2,0.001605,0.001122, 35,0.010435,0.000140,  35.511
   454.4,0.001603,0.001125, 35,0.010458,0.000140,  35.511
   454.6,0.001600,0.001123, 35,0.010475,0.000104,  35.513
   454.8,0.001598,0.001115, 35,0.010472,0.000140,  35.512
   455.0,0.001595,0.001119, 35,0.010474,0.000140,  35.514
   455.2,0.001586,0.001115, 35,0.010468,0.000104,  35.513
   455.4,0.001586,0.001113, 35,0.010456,0.000140,  35.513
   455.6,0.001589,0.001109, 35,0.010431,0.000140,  35.515
   455.8,0.001578,0.001112, 35,0.010404,0.000140,  35.518
   456.0,0.001581,0.001112, 35,0.010370,0.000104,  35.525
   456.2,0.001581,0.001108, 35,0.010340,0.000140,  35.520
   456.4,0.001570,0.001109, 35,0.010320,0.000140,  35.522
   456.6,0.001571,0.001109, 35,0.010300,0.000140,  35.525
   456.8,0.001568,0.001110, 35,0.010268,0.000140,  35.523
   457.0,0.001566,0.001106, 35,0.010230,0.000140,  35.522
   457.2,0.001569,0.001105, 35,0.010192,0.000104,  35.522
   457.4,0.001567,0.001100, 35,0.010120,0.000140,  35.523
   457.6,0.001564,0.001102, 35,0.010019,0.000140,  35.525
   457.8,0.001562,0.001098, 35,0.009893,0.000104,  35.525
   458.0,0.001562,0.001096, 35,0.009887,0.000140,  35.526
   458.2,0.001562,0.001097, 35,0.009915,0.000140,  35.524
   458.4,0.001556,0.001094, 35,0.009989,0.000104,  35.526
   458.6,0.001554,0.001089, 35,0.009977,0.000140,  35.525
   458.8,0.001551,0.001089, 35,0.009938,0.000140,  35.518
   459.0,0.001546,0.001087, 35,0.009874,0.000104,  35.525
   459.2,0.001544,0.001081, 35,0.009631,0.000140,  35.521
   459.4,0.001538,0.001083, 35,0.009293,0.000140,  35.523
   459.6,0.001535,0.001086, 35,0.008849,0.000140,  35.525
   459.8,0.001535,0.001079, 35,0.008813,0.000163,  35.520
   460.0,0.001535,0.001079, 35,0.008952,0.000163,  35.525
   460.2,0.001530,0.001075, 35,0.009239,0.000140,  35.525
   460.4,0.001525,0.001077, 35,0.009341,0.000140,  35.524
   460.6,0.001522,0.001078, 35,0.009435,0.000140,  35.527
   460.8,0.001514,0.001079, 35,0.009516,0.000104,  35.524
   461.0,0.001517,0.001079, 35,0.009572,0.000140,  35.524
   461.2,0.001517,0.001083, 35,0.009620,0.000140,  35.523
   461.4,0.001506,0.001083, 35,0.009649,0.000117,  35.522
   461.6,0.001512,0.001077, 35,0.009650,0.000154,  35.522
   461.8,0.001512,0.001073, 35,0.009625,0.000154,  35.526
   462.0,0.001503,0.001074, 35,0.009578,0.000131,  35.524
   462.2,0.001504,0.001070, 35,0.009572,0.000154,  35.525
   462.4,0.001503,0.001065, 35,0.009573,0.000154,  35.524
   462.6,0.001501,0.001069, 35,0.009568,0.000131,  35.526
   462.8,0.001500,0.001065, 35,0.009537,0.000154,  35.523
   463.0,0.001498,0.001063, 35,0.009492,0.000154,  35.523
   463.2,0.001498,0.001066, 35,0.009439,0.000131,  35.521
   463.4,0.001497,0.001060, 35,0.009420,0.000154,  35.526
   463.6,0.001491,0.001063, 35,0.009413,0.000167,  35.521
   463.8,0.001488,0.001065, 35,0.009414,0.000144,  35.523
   464.0,0.001489,0.001063, 35,0.009421,0.000181,  35.526
   464.2,0.001486,0.001060, 35,0.009430,0.000194,  35.521
   464.4,0.001478,0.001059, 35,0.009457,0.000158,  35.527
   464.6,0.001475,0.001055, 35,0.009473,0.000181,  35.527
   464.8,0.001475,0.001058, 35,0.009474,0.000181,  35.524
   465.0,0.001469,0.001054, 35,0.009463,0.000181,  35.520
   465.2,0.001473,0.001050, 35,0.009444,0.000144,  35.524
   465.4,0.001473,0.001054, 35,0.009247,0.000167,  35.523
   465.6,0.001467,0.001056, 35,0.008949,0.000167,  35.523
   465.8,0.001464,0.001052, 35,0.008559,0.000154,  35.523
   466.0,0.001464,0.001050, 35,0.008508,0.000154,  35.519
   466.2,0.001464,0.001046, 35,0.008587,0.000167,  35.523
   466.4,0.001462,0.001042, 35,0.008786,0.000131,  35.527
   466.6,0.001459,0.001045, 35,0.008861,0.000167,  35.524
   466.8,0.001454,0.001039, 35,0.008936,0.000167,  35.523
   467.0,0.001449,0.001042, 35,0.009005,0.000131,  35.525
   467.2,0.001446,0.001036, 35,0.008907,0.000154,  35.526
   467.4,0.001444,0.001034, 35,0.008717,0.000154,  35.522
   467.6,0.001441,0.001036, 35,0.008433,0.000131,  35.526
   467.8,0.001441,0.001032, 35,0.008420,0.000154,  35.522
   468.0,0.001441,0.001034, 35,0.008494,0.000154,  35.526
   468.2,0.001438,0.001030, 35,0.008653,0.000131,  35.526
   468.4,0.001436,0.001023, 35,0.008715,0.000154,  35.525
   468.6,0.001430,0.001028, 35,0.008768,0.000154,  35.525
   468.8,0.001431,0.001024, 35,0.008810,0.000131,  35.529
   469.0,0.001428,0.001021, 35,0.008559,0.000154,  35.527
   469.2,0.001426,0.001021, 35,0.008132,0.000154,  35.528
   469.4,0.001420,0.001023, 35,0.007565,0.000131,  35.524
   469.6,0.001415,0.001020, 35,0.007533,0.000154,  35.530
   469.8,0.001413,0.001018, 35,0.007691,0.000154,  35.531
   470.0,0.001404,0.001020, 35,0.008035,0.000131,  35.527
   470.2,0.001399,0.001017, 35,0.008177,0.000154,  35.527
   470.4,0.001399,0.001011, 35,0.008319,0.000154,  35.529
   470.6,0.001390,0.001009, 35,0.008459,0.000131,  35.529
   470.8,0.001397,0.001009, 35,0.008507,0.000154,  35.532
   471.0,0.001394,0.001008, 35,0.008497,0.000154,  35.525
   471.2,0.001395,0.001009, 35,0.008455,0.000131,  35.533
   471.4,0.001399,0.001003, 35,0.008469,0.000154,  35.529
   471.6,0.001399,0.001004, 35,0.008476,0.000154,  35.534
   471.8,0.001393,0.001006, 35,0.008483,0.000131,  35.532
   472.0,0.001393,0.001004, 35,0.008519,0.000154,  35.530
   472.2,0.001396,0.000999, 35,0.008567,0.000154,  35.532
   472.4,0.001385,0.000997, 35,0.008611,0.000131,  35.534
   472.6,0.001386,0.000991, 35,0.008612,0.000154,  35.534
   472.8,0.001386,0.000986, 35,0.008592,0.000154,  35.533
   473.0,0.001377,0.000986, 35,0.008545,0.000131,  35.531
   473.2,0.001380,0.000981, 35,0.008533,0.000154,  35.534
   473.4,0.001378,0.000979, 35,0.008527,0.000154,  35.529
   473.6,0.001369,0.000983, 35,0.008522,0.000154,  35.529
   473.8,0.001373,0.000978, 35,0.008523,0.000117,  35.535
   474.0,0.001370,0.000976, 35,0.008333,0.000140,  35.529
   474.2,0.001364,0.000975, 35,0.008069,0.000140,  35.534
   474.4,0.001373,0.000973, 35,0.007726,0.000140,  35.532
   474.6,0.001373,0.000970, 35,0.007695,0.000154,  35.537
   474.8,0.001364,0.000971, 35,0.007783,0.000154,  35.530
   475.0,0.001359,0.000971, 35,0.007983,0.000154,  35.531
   475.2,0.001359,0.000968, 35,0.008046,0.000163,  35.532
   475.4,0.001356,0.000968, 35,0.008105,0.000163,  35.533
   475.6,0.001349,0.000969, 35,0.008152,0.000140,  35.534
   475.8,0.001346,0.000971, 35,0.008187,0.000140,  35.534
   476.0,0.001344,0.000967, 35,0.008210,0.000140,  35.536
   476.2,0.001338,0.000962, 35,0.008231,0.000104,  35.532
   476.4,0.001336,0.000962, 35,0.008238,0.000140,  35.533
   476.6,0.001325,0.000961, 35,0.008221,0.000140,  35.532
   476.8,0.001322,0.000959, 35,0.008200,0.000117,  35.529
   477.0,0.001320,0.000955, 35,0.008195,0.000154,  35.536
   477.2,0.001311,0.000957, 35,0.008184,0.000154,  35.536
   477.4,0.001314,0.000957, 35,0.008178,0.000131,  35.534
   477.6,0.001314,0.000950, 35,0.008153,0.000154,  35.536
   477.8,0.001309,0.000950, 35,0.008107,0.000154,  35.537
   478.0,0.001312,0.000953, 35,0.008048,0.000131,  35.533
   478.2,0.001309,0.000945, 35,0.008002,0.000154,  35.533
   478.4,0.001309,0.000945, 35,0.007949,0.000154,  35.534
   478.6,0.001310,0.000946, 35,0.007896,0.000131,  35.536
   478.8,0.001308,0.000940, 35,0.007918,0.000154,  35.537
   479.0,0.001308,0.000945, 35,0.007973,0.000154,  35.536
   479.2,0.001305,0.000943, 35,0.008062,0.000131,  35.537
   479.4,0.001300,0.000941, 35,0.008079,0.000154,  35.534
   479.6,0.001297,0.000938, 35,0.008081,0.000154,  35.536
   479.8,0.001295,0.000938, 35,0.008068,0.000131,  35.539
   480.0,0.001290,0.000933, 35,0.008036,0.000154,  35.535
   480.2,0.001287,0.000931, 35,0.007972,0.000154,  35.538
   480.4,0.001285,0.000932, 35,0.007898,0.000117,  35.539
   480.6,0.001282,0.000926, 35,0.007866,0.000140,  35.532
   480.8,0.001282,0.000926, 35,0.007836,0.000140,  35.539
   481.0,0.001279,0.000927, 35,0.007824,0.000104,  35.537
   481.2,0.001277,0.000923, 35,0.007825,0.000140,  35.536
   481.4,0.001274,0.000926, 35,0.007833,0.000140,  35.535
   481.6,0.001274,0.000926, 35,0.007853,0.000104,  35.536
   481.8,0.001280,0.000922, 35,0.007842,0.000140,  35.535
   482.0,0.001278,0.000922, 35,0.007835,0.000140,  35.538
   482.2,0.001273,0.000923, 35,0.007810,0.000104,  35.533
   482.4,0.001276,0.000916, 35,0.007784,0.000140,  35.532
   482.6,0.001276,0.000919, 35,0.007759,0.000140,  35.534
   482.8,0.001268,0.000922, 35,0.007728,0.000140,  35.537
   483.0,0.001259,0.000917, 35,0.007703,0.000104,  35.532
   483.2,0.001259,0.000919, 35,0.007674,0.000140,  35.534
   483.4,0.001256,0.000921, 35,0.007656,0.000140,  35.531
   483.6,0.001254,0.000917, 35,0.007632,0.000140,  35.535
   483.8,0.001251,0.000919, 35,0.007601,0.000154,  35.536
   484.0,0.001249,0.000914, 35,0.007569,0.000154,  35.530
   484.2,0.001244,0.000910, 35,0.007534,0.000131,  35.531
   484.4,0.001241,0.000908, 35,0.007285,0.000154,  35.535
   484.6,0.001232,0.000909, 35,0.006936,0.000154,  35.533
   484.8,0.001230,0.000910, 35,0.006475,0.000117,  35.534
   485.0,0.001230,0.000903, 35,0.006458,0.000127,  35.530
   485.2,0.001221,0.000903, 35,0.006611,0.000127,  35.532
   485.4,0.001225,0.000902, 35,0.006941,0.000104,  35.527
   485.6,0.001222,0.000897, 35,0.006910,0.000140,  35.529
   485.8,0.001214,0.000896, 35,0.006792,0.000140,  35.525
   486.0,0.001214,0.000892, 35,0.006575,0.000104,  35.525
   486.2,0.001212,0.000892, 35,0.006616,0.000140,  35.524
   486.4,0.001212,0.000889, 35,0.006737,0.000140,  35.523
   486.6,0.001218,0.000889, 35,0.006948,0.000104,  35.524
   486.8,0.001215,0.000889, 35,0.007009,0.000140,  35.521
   487.0,0.001215,0.000884, 35,0.007036,0.000140,  35.522
   487.2,0.001207,0.000886, 35,0.007036,0.000117,  35.521
   487.4,0.001202,0.000882, 35,0.007070,0.000154,  35.522
   487.6,0.001199,0.000879, 35,0.007099,0.000154,  35.523
   487.8,0.001199,0.000880, 35,0.007134,0.000131,  35.523
   488.0,0.001203,0.000878, 35,0.007168,0.000154,  35.521
   488.2,0.001203,0.000880, 35,0.007191,0.000154,  35.522
   488.4,0.001200,0.000876, 35,0.007213,0.000131,  35.518
   488.6,0.001200,0.000871, 35,0.007201,0.000154,  35.520
   488.8,0.001200,0.000876, 35,0.007176,0.000154,  35.523
   489.0,0.001195,0.000874, 35,0.007130,0.000131,  35.516
   489.2,0.001190,0.000872, 35,0.007084,0.000154,  35.517
   489.4,0.001187,0.000868, 35,0.007032,0.000154,  35.520
   489.6,0.001185,0.000873, 35,0.006959,0.000131,  35.520
   489.8,0.001188,0.000872, 35,0.006953,0.000154,  35.520
   490.0,0.001183,0.000868, 35,0.006974,0.000154,  35.521
   490.2,0.001174,0.000873, 35,0.007020,0.000131,  35.522
   490.4,0.001175,0.000868, 35,0.007014,0.000154,  35.524
   490.6,0.001175,0.000864, 35,0.006996,0.000154,  35.522
   490.8,0.001169,0.000863, 35,0.006957,0.000131,  35.527
   491.0,0.001167,0.000859, 35,0.006918,0.000154,  35.522
   491.2,0.001167,0.000859, 35,0.006898,0.000154,  35.522
   491.4,0.001164,0.000859, 35,0.006866,0.000167,  35.521
   491.6,0.001162,0.000853, 35,0.006834,0.000117,  35.525
   491.8,0.001159,0.000851, 35,0.006841,0.000154,  35.521
   492.0,0.001156,0.000849, 35,0.006863,0.000154,  35.522
   492.2,0.001151,0.000847, 35,0.006894,0.000154,  35.520
   492.4,0.001151,0.000843, 35,0.006843,0.000154,  35.520
   492.6,0.001151,0.000843, 35,0.006771,0.000154,  35.523
   492.8,0.001151,0.000839, 35,0.006670,0.000154,  35.523
   493.0,0.001151,0.000844, 35,0.006633,0.000177,  35.524
   493.2,0.001151,0.000841, 35,0.006619,0.000177,  35.518
   493.4,0.001146,0.000846, 35,0.006619,0.000177,  35.522
   493.6,0.001146,0.000844, 35,0.006621,0.000177,  35.518
   493.8,0.001146,0.000841, 35,0.006615,0.000177,  35.519
   494.0,0.001144,0.000842, 35,0.006617,0.000190,  35.524
   494.2,0.001141,0.000840, 35,0.006606,0.000190,  35.525
   494.4,0.001138,0.000838, 35,0.006600,0.000190,  35.526
   494.6,0.001133,0.000834, 35,0.006588,0.000204,  35.526
   494.8,0.001131,0.000827, 35,0.006550,0.000190,  35.526
   495.0,0.001125,0.000826, 35,0.006486,0.000190,  35.519
   495.2,0.001131,0.000825, 35,0.006424,0.000204,  35.522
   495.4,0.001128,0.000820, 35,0.006418,0.000190,  35.526
   495.6,0.001128,0.000820, 35,0.006428,0.000190,  35.525
   495.8,0.001120,0.000824, 35,0.006456,0.000204,  35.525
   496.0,0.001114,0.000821, 35,0.006444,0.000190,  35.523
   496.2,0.001114,0.000821, 35,0.006432,0.000190,  35.523
   496.4,0.001106,0.000822, 35,0.006400,0.000204,  35.524
   496.6,0.001109,0.000813, 35,0.006403,0.000190,  35.521
   496.8,0.001107,0.000815, 35,0.006431,0.000190,  35.520
   497.0,0.001098,0.000815, 35,0.006467,0.000204,  35.521
   497.2,0.001102,0.000811, 35,0.006441,0.000190,  35.523
   497.4,0.001099,0.000809, 35,0.006382,0.000190,  35.519
   497.6,0.001090,0.000809, 35,0.006302,0.000204,  35.518
   497.8,0.001094,0.000810, 35,0.006278,0.000190,  35.521
   498.0,0.001094,0.000810, 35,0.006266,0.000190,  35.515
   498.2,0.001091,0.000809, 35,0.006274,0.000204,  35.517
   498.4,0.001092,0.000807, 35,0.006270,0.000190,  35.516
   498.6,0.001090,0.000811, 35,0.006272,0.000190,  35.513
   498.8,0.001090,0.000811, 35,0.006284,0.000204,  35.513
   499.0,0.001087,0.000806, 35,0.006273,0.000190,  35.520
   499.2,0.001087,0.000803, 35,0.006267,0.000190,  35.516
   499.4,0.001087,0.000804, 35,0.006253,0.000167,  35.514
   499.6,0.001087,0.000804, 35,0.006234,0.000154,  35.513
   499.8,0.001087,0.000797, 35,0.006215,0.000154,  35.513
   500.0,0.001085,0.000803, 35,0.006190,0.000167,  35.510
   500.2,0.001077,0.000805, 35,0.006166,0.000117,  35.513
   500.4,0.001074,0.000801, 35,0.006121,0.000154,  35.508
   500.6,0.001072,0.000801, 35,0.006068,0.000154,  35.510
   500.8,0.001067,0.000795, 35,0.006001,0.000154,  35.509
   501.0,0.001064,0.000793, 35,0.005971,0.000154,  35.507
   501.2,0.001062,0.000791, 35,0.005951,0.000154,  35.506
   501.4,0.001062,0.000789, 35,0.005940,0.000167,  35.504
   501.6,0.001062,0.000785, 35,0.005922,0.000190,  35.498
   501.8,0.001059,0.000785, 35,0.005910,0.000190,  35.491
   502.0,0.001054,0.000789, 35,0.005891,0.000204,  35.495
   502.2,0.001054,0.000782, 35,0.005769,0.000190,  35.494
   502.4,0.001048,0.000782, 35,0.005587,0.000190,  35.494
   502.6,0.001045,0.000782, 35,0.005358,0.000204,  35.494
   502.8,0.001039,0.000778, 35,0.005342,0.000190,  35.492
   503.0,0.001037,0.000779, 35,0.005421,0.000190,  35.489
   503.2,0.001034,0.000779, 35,0.005579,0.000204,  35.491
   503.4,0.001032,0.000777, 35,0.005601,0.000190,  35.490
   503.6,0.001029,0.000776, 35,0.005607,0.000190,  35.488
   503.8,0.001030,0.000783, 35,0.005579,0.000204,  35.491
   504.0,0.001025,0.000779, 35,0.005581,0.000190,  35.489
   504.2,0.001025,0.000775, 35,0.005595,0.000190,  35.484
   504.4,0.001022,0.000772, 35,0.005602,0.000204,  35.488
   504.6,0.001020,0.000768, 35,0.005604,0.000190,  35.485
   504.8,0.001020,0.000770, 35,0.005618,0.000190,  35.488
   505.0,0.001017,0.000764, 35,0.005619,0.000204,  35.484
   505.2,0.001012,0.000761, 35,0.005612,0.000190,  35.486
   505.4,0.001012,0.000766, 35,0.005588,0.000190,  35.482
   505.6,0.001003,0.000765, 35,0.005556,0.000167,  35.484
   505.8,0.001009,0.000763, 35,0.005544,0.000154,  35.482
   506.0,0.001009,0.000756, 35,0.005526,0.000154,  35.481
   506.2,0.001001,0.000754, 35,0.005519,0.000131,  35.479
   506.4,0.001002,0.000751, 35,0.005507,0.000154,  35.476
   506.6,0.001002,0.000749, 35,0.005483,0.000154,  35.477
   506.8,0.000999,0.000751, 35,0.005470,0.000117,  35.478
   507.0,0.001000,0.000748, 35,0.005491,0.000140,  35.470
   507.2,0.000998,0.000748, 35,0.005526,0.000140,  35.474
   507.4,0.000998,0.000751, 35,0.005580,0.000104,  35.476
   507.6,0.000998,0.000749, 35,0.005543,0.000140,  35.467
   507.8,0.000995,0.000749, 35,0.005484,0.000140,  35.469
   508.0,0.000992,0.000750, 35,0.005393,0.000104,  35.469
   508.2,0.000992,0.000748, 35,0.005374,0.000140,  35.470
   508.4,0.000995,0.000750, 35,0.005370,0.000140,  35.467
   508.6,0.000992,0.000747, 35,0.005396,0.000104,  35.468
   508.8,0.000992,0.000745, 35,0.005437,0.000127,  35.467
   509.0,0.000995,0.000747, 35,0.005414,0.000127,  35.464
   509.2,0.000992,0.000743, 35,0.005393,0.000140,  35.463
   509.4,0.000992,0.000739, 35,0.005354,0.000104,  35.465
   509.6,0.000995,0.000736, 35,0.005368,0.000140,  35.464
   509.8,0.000992,0.000730, 35,0.005397,0.000140,  35.462
   510.0,0.000990,0.000724, 35,0.005451,0.000140,  35.460
   510.2,0.000990,0.000724, 35,0.005438,0.000140,  35.457
   510.4,0.000987,0.000722, 35,0.005399,0.000140,  35.464
   510.6,0.000982,0.000720, 35,0.005333,0.000104,  35.463
   510.8,0.000982,0.000715, 35,0.005315,0.000140,  35.463
   511.0,0.000982,0.000720, 35,0.005303,0.000140,  35.458
   511.2,0.000980,0.000718, 35,0.005303,0.000104,  35.460
   511.4,0.000977,0.000720, 35,0.005291,0.000127,  35.457
   511.6,0.000977,0.000722, 35,0.005285,0.000127,  35.460
   511.8,0.000978,0.000722, 35,0.005273,0.000090,  35.460
   512.0,0.000978,0.000724, 35,0.005227,0.000113,  35.464
   512.2,0.000972,0.000724, 35,0.005161,0.000113,  35.459
   512.4,0.000972,0.000724, 35,0.005081,0.000090,  35.461
   512.6,0.000966,0.000728, 35,0.005069,0.000127,  35.459
   512.8,0.000963,0.000729, 35,0.005083,0.000127,  35.459
   513.0,0.000961,0.000727, 35,0.005117,0.000104,  35.460
   513.2,0.000962,0.000727, 35,0.005142,0.000127,  35.459
   513.4,0.000964,0.000729, 35,0.005179,0.000127,  35.458
   513.6,0.000962,0.000729, 35,0.005216,0.000104,  35.459
   513.8,0.000959,0.000722, 35,0.005172,0.000140,  35.455
   514.0,0.000962,0.000725, 35,0.005096,0.000140,  35.455
   514.2,0.000956,0.000725, 35,0.004993,0.000104,  35.458
   514.4,0.000958,0.000725, 35,0.004942,0.000140,  35.456
   514.6,0.000958,0.000725, 35,0.004898,0.000140,  35.457
   514.8,0.000950,0.000731, 35,0.004871,0.000117,  35.457
   515.0,0.000953,0.000729, 35,0.004861,0.000154,  35.456
   515.2,0.000950,0.000727, 35,0.004869,0.000154,  35.455
   515.4,0.000942,0.000726, 35,0.004898,0.000131,  35.455
   515.6,0.000943,0.000726, 35,0.004770,0.000154,  35.454
   515.8,0.000943,0.000721, 35,0.004580,0.000167,  35.453
   516.0,0.000934,0.000718, 35,0.004323,0.000131,  35.454
   516.2,0.000938,0.000715, 35,0.004303,0.000167,  35.452
   516.4,0.000938,0.000712, 35,0.004357,0.000181,  35.450
   516.6,0.000929,0.000713, 35,0.004494,0.000131,  35.451
   516.8,0.000930,0.000710, 35,0.004521,0.000167,  35.451
   517.0,0.000927,0.000708, 35,0.004534,0.000167,  35.452
   517.2,0.000925,0.000712, 35,0.004534,0.000131,  35.451
   517.4,0.000928,0.000709, 35,0.004515,0.000154,  35.447
   517.6,0.000926,0.000707, 35,0.004543,0.000154,  35.449
   517.8,0.000926,0.000711, 35,0.004583,0.000154,  35.452
   518.0,0.000926,0.000708, 35,0.004635,0.000117,  35.453
   518.2,0.000928,0.000706, 35,0.004684,0.000154,  35.451
   518.4,0.000926,0.000704, 35,0.004743,0.000154,  35.455
   518.6,0.000921,0.000698, 35,0.004804,0.000154,  35.453
   518.8,0.000921,0.000698, 35,0.004845,0.000154,  35.452
   519.0,0.000912,0.000701, 35,0.004886,0.000154,  35.450
   519.2,0.000907,0.000698, 35,0.004912,0.000131,  35.452
   519.4,0.000907,0.000697, 35,0.004938,0.000154,  35.450
   519.6,0.000901,0.000703, 35,0.004940,0.000154,  35.453
   519.8,0.000904,0.000703, 35,0.004934,0.000117,  35.452
   520.0,0.000902,0.000698, 35,0.004902,0.000140,  35.455
   520.2,0.000896,0.000695, 35,0.004850,0.000140,  35.456
   520.4,0.000899,0.000693, 35,0.004778,0.000104,  35.454
   520.6,0.000897,0.000688, 35,0.004740,0.000127,  35.449
   520.8,0.000888,0.000686, 35,0.004708,0.000127,  35.451
   521.0,0.000892,0.000688, 35,0.004688,0.000104,  35.455
   521.2,0.000889,0.000688, 35,0.004696,0.000127,  35.450
   521.4,0.000892,0.000691, 35,0.004718,0.000127,  35.452
   521.6,0.000892,0.000691, 35,0.004764,0.000104,  35.452
   521.8,0.000892,0.000689, 35,0.004766,0.000127,  35.453
   522.0,0.000892,0.000688, 35,0.004747,0.000127,  35.453
   522.2,0.000892,0.000683, 35,0.004715,0.000104,  35.455
   522.4,0.000886,0.000679, 35,0.004702,0.000140,  35.456
   522.6,0.000886,0.000679, 35,0.004677,0.000140,  35.455
   522.8,0.000883,0.000679, 35,0.004645,0.000140,  35.458
   523.0,0.000886,0.000672, 35,0.004620,0.000163,  35.461
   523.2,0.000884,0.000676, 35,0.004588,0.000163,  35.460
   523.4,0.000875,0.000678, 35,0.004549,0.000177,  35.457
   523.6,0.000876,0.000677, 35,0.004511,0.000163,  35.456
   523.8,0.000874,0.000677, 35,0.004467,0.000163,  35.463
   524.0,0.000868,0.000683, 35,0.004433,0.000177,  35.459
   524.2,0.000874,0.000683, 35,0.004434,0.000163,  35.460
   524.4,0.000876,0.000675, 35,0.004448,0.000163,  35.460
   524.6,0.000868,0.000675, 35,0.004493,0.000177,  35.461
   524.8,0.000868,0.000676, 35,0.004487,0.000163,  35.458
   525.0,0.000868,0.000668, 35,0.004461,0.000163,  35.463
   525.2,0.000860,0.000668, 35,0.004427,0.000140,  35.463
   525.4,0.000861,0.000664, 35,0.004397,0.000127,  35.463
   525.6,0.000861,0.000666, 35,0.004382,0.000127,  35.466
   525.8,0.000855,0.000665, 35,0.004353,0.000104,  35.466
   526.0,0.000861,0.000662, 35,0.004327,0.000127,  35.464
   526.2,0.000858,0.000662, 35,0.004317,0.000113,  35.467
   526.4,0.000847,0.000661, 35,0.004323,0.000127,  35.465
   526.6,0.000845,0.000656, 35,0.004331,0.000113,  35.467
   526.8,0.000843,0.000661, 35,0.004352,0.000150,  35.464
   527.0,0.000837,0.000658, 35,0.004373,0.000163,  35.468
   527.2,0.000840,0.000654, 35,0.004400,0.000163,  35.470
   527.4,0.000837,0.000651, 35,0.004340,0.000177,  35.469
   527.6,0.000837,0.000651, 35,0.004235,0.000177,  35.469
   527.8,0.000837,0.000648, 35,0.004084,0.000177,  35.467
   528.0,0.000831,0.000648, 35,0.003734,0.000177,  35.472
   528.2,0.000837,0.000650, 35,0.003278,0.000177,  35.471
   528.4,0.000834,0.000648, 35,0.002706,0.000177,  35.469
   528.6,0.000828,0.000643, 35,0.002688,0.000177,  35.476
   528.8,0.000834,0.000643, 35,0.002878,0.000177,  35.471
   529.0,0.000829,0.000646, 35,0.003293,0.000140,  35.472
   529.2,0.000823,0.000642, 35,0.003457,0.000140,  35.473
   529.4,0.000829,0.000640, 35,0.003590,0.000140,  35.474
   529.6,0.000827,0.000641, 35,0.003708,0.000104,  35.472
   529.8,0.000827,0.000642, 35,0.003787,0.000140,  35.476
   530.0,0.000821,0.000641, 35,0.003827,0.000140,  35.473
   530.2,0.000821,0.000639, 35,0.003845,0.000104,  35.471
   530.4,0.000819,0.000642, 35,0.003891,0.000140,  35.477
   530.6,0.000810,0.000640, 35,0.003914,0.000140,  35.482
   530.8,0.000816,0.000638, 35,0.003953,0.000104,  35.479
   531.0,0.000816,0.000636, 35,0.003979,0.000140,  35.479
   531.2,0.000813,0.000633, 35,0.003981,0.000140,  35.476
   531.4,0.000816,0.000637, 35,0.003988,0.000104,  35.478
   531.6,0.000814,0.000639, 35,0.004015,0.000140,  35.482
   531.8,0.000808,0.000638, 35,0.004054,0.000140,  35.481
   532.0,0.000811,0.000641, 35,0.004094,0.000104,  35.482
   532.2,0.000809,0.000640, 35,0.003814,0.000140,  35.481
   532.4,0.000803,0.000639, 35,0.003378,0.000140,  35.483
   532.6,0.000809,0.000641, 35,0.002784,0.000090,  35.482
   532.8,0.000806,0.000636, 35,0.002779,0.000113,  35.479
   533.0,0.000806,0.000633, 35,0.002976,0.000113,  35.483
   533.2,0.000806,0.000635, 35,0.003406,0.000090,  35.486
   533.4,0.000810,0.000636, 35,0.003518,0.000127,  35.484
   533.6,0.000810,0.000633, 35,0.003570,0.000127,  35.487
   533.8,0.000806,0.000633, 35,0.003576,0.000104,  35.485
   534.0,0.000812,0.000635, 35,0.003623,0.000140,  35.492
   534.2,0.000806,0.000635, 35,0.003665,0.000140,  35.488
   534.4,0.000809,0.000634, 35,0.003715,0.000117,  35.490
   534.6,0.000806,0.000632, 35,0.003750,0.000154,  35.489
   534.8,0.000797,0.000635, 35,0.003680,0.000154,  35.492
   535.0,0.000804,0.000635, 35,0.003576,0.000167,  35.492
   535.2,0.000798,0.000635, 35,0.003420,0.000117,  35.494
   535.4,0.000792,0.000637, 35,0.003440,0.000154,  35.490
   535.6,0.000796,0.000636, 35,0.003514,0.000154,  35.494
   535.8,0.000793,0.000632, 35,0.003652,0.000154,  35.495
   536.0,0.000796,0.000635, 35,0.003665,0.000154,  35.499
   536.2,0.000793,0.000631, 35,0.003645,0.000154,  35.499
   536.4,0.000797,0.000627, 35,0.003592,0.000131,  35.496
   536.6,0.000797,0.000627, 35,0.003599,0.000154,  35.496
   536.8,0.000788,0.000627, 35,0.003625,0.000154,  35.500
   537.0,0.000789,0.000627, 35,0.003653,0.000131,  35.499
   537.2,0.000783,0.000628, 35,0.003673,0.000154,  35.499
   537.4,0.000786,0.000628, 35,0.003694,0.000154,  35.499
   537.6,0.000783,0.000626, 35,0.003708,0.000131,  35.500
   537.8,0.000783,0.000622, 35,0.003630,0.000154,  35.500
   538.0,0.000783,0.000621, 35,0.003499,0.000154,  35.501
   538.2,0.000787,0.000623, 35,0.003317,0.000131,  35.499
   538.4,0.000784,0.000621, 35,0.003312,0.000154,  35.499
   538.6,0.000787,0.000623, 35,0.003384,0.000154,  35.500
   538.8,0.000781,0.000623, 35,0.003509,0.000131,  35.503
   539.0,0.000781,0.000621, 35,0.003542,0.000154,  35.504
   539.2,0.000781,0.000618, 35,0.003555,0.000167,  35.504
   539.4,0.000779,0.000621, 35,0.003542,0.000131,  35.506
   539.6,0.000774,0.000618, 35,0.003563,0.000167,  35.506
   539.8,0.000776,0.000616, 35,0.003589,0.000167,  35.504
   540.0,0.000768,0.000617, 35,0.003611,0.000131,  35.505
   540.2,0.000774,0.000613, 35,0.003455,0.000154,  35.506
   540.4,0.000774,0.000619, 35,0.003220,0.000154,  35.510
   540.6,0.000765,0.000618, 35,0.002894,0.000117,  35.508
   540.8,0.000769,0.000612, 35,0.002894,0.000140,  35.506
   541.0,0.000766,0.000616, 35,0.003012,0.000140,  35.507
   541.2,0.000757,0.000614, 35,0.003241,0.000104,  35.511
   541.4,0.000761,0.000614, 35,0.003313,0.000140,  35.511
   541.6,0.000758,0.000612, 35,0.003353,0.000140,  35.511
   541.8,0.000750,0.000613, 35,0.003361,0.000104,  35.505
   542.0,0.000756,0.000609, 35,0.003250,0.000140,  35.507
   542.2,0.000758,0.000608, 35,0.003062,0.000140,  35.510
   542.4,0.000750,0.000606, 35,0.002794,0.000104,  35.508
   542.6,0.000756,0.000599, 35,0.002788,0.000140,  35.511
   542.8,0.000758,0.000601, 35,0.002866,0.000140,  35.511
   543.0,0.000747,0.000596, 35,0.003035,0.000104,  35.508
   543.2,0.000751,0.000594, 35,0.003087,0.000140,  35.512
   543.4,0.000753,0.000589, 35,0.003128,0.000140,  35.513
   543.6,0.000745,0.000594, 35,0.003143,0.000140,  35.512
   543.8,0.000751,0.000596, 35,0.003156,0.000104,  35.509
   544.0,0.000751,0.000591, 35,0.003209,0.000140,  35.512
   544.2,0.000739,0.000591, 35,0.003270,0.000140,  35.513
   544.4,0.000740,0.000593, 35,0.003343,0.000140,  35.511
   544.6,0.000738,0.000593, 35,0.003377,0.000140,  35.515
   544.8,0.000732,0.000591, 35,0.003404,0.000140,  35.523
   545.0,0.000738,0.000591, 35,0.003418,0.000104,  35.523
   545.2,0.000735,0.000588, 35,0.003308,0.000140,  35.523
   545.4,0.000729,0.000586, 35,0.003131,0.000140,  35.523
   545.6,0.000735,0.000586, 35,0.002876,0.000117,  35.531
   545.8,0.000738,0.000586, 35,0.002863,0.000154,  35.530
   546.0,0.000729,0.000586, 35,0.002934,0.000154,  35.528
   546.2,0.000730,0.000591, 35,0.003077,0.000131,  35.532
   546.4,0.000730,0.000591, 35,0.003105,0.000154,  35.527
   546.6,0.000724,0.000589, 35,0.003113,0.000154,  35.530
   546.8,0.000725,0.000587, 35,0.003112,0.000131,  35.532
   547.0,0.000722,0.000590, 35,0.003133,0.000154,  35.534
   547.2,0.000724,0.000591, 35,0.003158,0.000154,  35.532
   547.4,0.000727,0.000587, 35,0.003178,0.000131,  35.531
   547.6,0.000727,0.000589, 35,0.003179,0.000154,  35.535
   547.8,0.000723,0.000587, 35,0.003173,0.000154,  35.533
   548.0,0.000729,0.000586, 35,0.003147,0.000131,  35.532
   548.2,0.000727,0.000582, 35,0.003147,0.000154,  35.535
   548.4,0.000718,0.000580, 35,0.003142,0.000154,  35.535
   548.6,0.000724,0.000583, 35,0.003142,0.000131,  35.537
   548.8,0.000719,0.000583, 35,0.003168,0.000154,  35.534
   549.0,0.000713,0.000579, 35,0.003183,0.000154,  35.535
   549.2,0.000719,0.000580, 35,0.003210,0.000131,  35.538
   549.4,0.000714,0.000583, 35,0.003223,0.000154,  35.538
   549.6,0.000714,0.000579, 35,0.003229,0.000154,  35.536
   549.8,0.000714,0.000582, 35,0.003217,0.000131,  35.536
   550.0,0.000717,0.000580, 35,0.003211,0.000154,  35.537
   550.2,0.000715,0.000579, 35,0.003191,0.000154,  35.536
   550.4,0.000706,0.000579, 35,0.003165,0.000131,  35.536
   550.6,0.000707,0.000574, 35,0.003016,0.000154,  35.536
   550.8,0.000707,0.000568, 35,0.002795,0.000154,  35.538
   551.0,0.000699,0.000571, 35,0.002509,0.000131,  35.535
   551.2,0.000705,0.000573, 35,0.002459,0.000154,  35.537
   551.4,0.000705,0.000564, 35,0.002509,0.000154,  35.542
   551.6,0.000696,0.000564, 35,0.002633,0.000131,  35.541
   551.8,0.000699,0.000566, 35,0.002680,0.000154,  35.541
   552.0,0.000699,0.000560, 35,0.002733,0.000140,  35.537
   552.2,0.000693,0.000564, 35,0.002787,0.000140,  35.542
   552.4,0.000697,0.000562, 35,0.002853,0.000090,  35.545
   552.6,0.000688,0.000559, 35,0.002866,0.000113,  35.541
   552.8,0.000686,0.000557, 35,0.002859,0.000113,  35.545
   553.0,0.000681,0.000555, 35,0.002832,0.000113,  35.543
   553.2,0.000681,0.000558, 35,0.002859,0.000127,  35.545
   553.4,0.000675,0.000557, 35,0.002900,0.000127,  35.541
   553.6,0.000682,0.000558, 35,0.002952,0.000104,  35.542
   553.8,0.000682,0.000556, 35,0.003023,0.000140,  35.545
   554.0,0.000675,0.000555, 35,0.003094,0.000140,  35.543
   554.2,0.000679,0.000553, 35,0.003185,0.000104,  35.542
   554.4,0.000679,0.000549, 35,0.002905,0.000140,  35.547
   554.6,0.000673,0.000553, 35,0.002442,0.000140,  35.545
   554.8,0.000676,0.000550, 35,0.001803,0.000104,  35.545
   555.0,0.000674,0.000550, 35,0.001769,0.000140,  35.550
   555.2,0.000665,0.000546, 35,0.001948,0.000140,  35.549
   555.4,0.000669,0.000547, 35,0.002340,0.000117,  35.548
   555.6,0.000666,0.000549, 35,0.002433,0.000154,  35.550
   555.8,0.000660,0.000547, 35,0.002486,0.000154,  35.547
   556.0,0.000666,0.000550, 35,0.002497,0.000131,  35.549
   556.2,0.000664,0.000547, 35,0.002563,0.000154,  35.549
   556.4,0.000666,0.000552, 35,0.002626,0.000154,  35.551
   556.6,0.000664,0.000548, 35,0.002705,0.000131,  35.552
   556.8,0.000661,0.000546, 35,0.002740,0.000154,  35.554
   557.0,0.000661,0.000542, 35,0.002761,0.000154,  35.555
   557.2,0.000661,0.000541, 35,0.002767,0.000131,  35.554
   557.4,0.000661,0.000537, 35,0.002781,0.000154,  35.554
   557.6,0.000664,0.000534, 35,0.002796,0.000154,  35.556
   557.8,0.000658,0.000534, 35,0.002809,0.000131,  35.554
   558.0,0.000661,0.000531, 35,0.002796,0.000154,  35.553
   558.2,0.000661,0.000532, 35,0.002757,0.000167,  35.554
   558.4,0.000661,0.000535, 35,0.002692,0.000131,  35.553
   558.6,0.000662,0.000538, 35,0.002654,0.000167,  35.556
   558.8,0.000663,0.000540, 35,0.002628,0.000167,  35.554
   559.0,0.000670,0.000542, 35,0.002596,0.000131,  35.550
   559.2,0.000675,0.000542, 35,0.002598,0.000154,  35.556
   559.4,0.000675,0.000544, 35,0.002631,0.000154,  35.557
   559.6,0.000672,0.000539, 35,0.002671,0.000131,  35.553
   559.8,0.000662,0.000535, 35,0.002672,0.000154,  35.557
   560.0,0.000659,0.000535, 35,0.002660,0.000154,  35.556
   560.2,0.000653,0.000537, 35,0.002634,0.000131,  35.559
   560.4,0.000650,0.000536, 35,0.002641,0.000154,  35.553
   560.6,0.000647,0.000533, 35,0.002655,0.000154,  35.559
   560.8,0.000638,0.000530, 35,0.002669,0.000131,  35.557
   561.0,0.000641,0.000530, 35,0.002695,0.000154,  35.557
   561.2,0.000644,0.000528, 35,0.002597,0.000154,  35.559
   561.4,0.000644,0.000531, 35,0.002442,0.000167,  35.561
   561.6,0.000644,0.000528, 35,0.002230,0.000117,  35.559
   561.8,0.000644,0.000528, 35,0.002192,0.000154,  35.555
   562.0,0.000644,0.000531, 35,0.002205,0.000154,  35.559
   562.2,0.000639,0.000524, 35,0.002283,0.000167,  35.562
   562.4,0.000641,0.000522, 35,0.002290,0.000167,  35.557
   562.6,0.000641,0.000525, 35,0.002295,0.000181,  35.561
   562.8,0.000641,0.000521, 35,0.002283,0.000131,  35.561
   563.0,0.000641,0.000520, 35,0.002298,0.000167,  35.557
   563.2,0.000639,0.000519, 35,0.002336,0.000167,  35.560
   563.4,0.000634,0.000523, 35,0.002382,0.000131,  35.559
   563.6,0.000631,0.000525, 35,0.002396,0.000154,  35.562
   563.8,0.000631,0.000520, 35,0.002402,0.000154,  35.560
   564.0,0.000629,0.000516, 35,0.002402,0.000131,  35.558
   564.2,0.000626,0.000515, 35,0.002391,0.000154,  35.562
   564.4,0.000626,0.000515, 35,0.002390,0.000154,  35.561
   564.6,0.000626,0.000515, 35,0.002371,0.000131,  35.560
   564.8,0.000626,0.000516, 35,0.002353,0.000154,  35.562
   565.0,0.000620,0.000513, 35,0.002347,0.000154,  35.561
   565.2,0.000629,0.000508, 35,0.002346,0.000117,  35.558
   565.4,0.000626,0.000508, 35,0.002361,0.000140,  35.558
   565.6,0.000626,0.000511, 35,0.002396,0.000140,  35.559
   565.8,0.000624,0.000511, 35,0.002444,0.000104,  35.561
   566.0,0.000618,0.000513, 35,0.002437,0.000140,  35.557
   566.2,0.000618,0.000509, 35,0.002391,0.000140,  35.558
   566.4,0.000612,0.000506, 35,0.002312,0.000104,  35.563
   566.6,0.000610,0.000507, 35,0.002306,0.000140,  35.562
   566.8,0.000612,0.000507, 35,0.002307,0.000140,  35.560
   567.0,0.000606,0.000502, 35,0.002322,0.000117,  35.560
   567.2,0.000612,0.000500, 35,0.002310,0.000154,  35.559
   567.4,0.000612,0.000501, 35,0.002303,0.000154,  35.561
   567.6,0.000604,0.000502, 35,0.002283,0.000117,  35.563
   567.8,0.000607,0.000506, 35,0.002108,0.000140,  35.562
   568.0,0.000607,0.000506, 35,0.001855,0.000140,  35.564
   568.2,0.000601,0.000502, 35,0.001519,0.000104,  35.563
   568.4,0.000607,0.000501, 35,0.001539,0.000140,  35.567
   568.6,0.000607,0.000499, 35,0.001689,0.000140,  35.563
   568.8,0.000601,0.000499, 35,0.001977,0.000104,  35.564
   569.0,0.000607,0.000495, 35,0.002043,0.000140,  35.562
   569.2,0.000607,0.000496, 35,0.002075,0.000140,  35.560
   569.4,0.000601,0.000500, 35,0.002060,0.000117,  35.561
   569.6,0.000605,0.000501, 35,0.002093,0.000154,  35.559
   569.8,0.000596,0.000501, 35,0.002121,0.000154,  35.562
   570.0,0.000596,0.000501, 35,0.002153,0.000167,  35.562
   570.2,0.000591,0.000501, 35,0.002181,0.000117,  35.562
   570.4,0.000585,0.000500, 35,0.002200,0.000154,  35.563
   570.6,0.000591,0.000497, 35,0.002207,0.000154,  35.561
   570.8,0.000591,0.000492, 35,0.002207,0.000154,  35.558
   571.0,0.000587,0.000494, 35,0.002222,0.000154,  35.562
   571.2,0.000594,0.000493, 35,0.002248,0.000154,  35.560
   571.4,0.000591,0.000491, 35,0.002275,0.000131,  35.560
   571.6,0.000591,0.000490, 35,0.002276,0.000154,  35.562
   571.8,0.000588,0.000486, 35,0.002266,0.000154,  35.565
   572.0,0.000587,0.000488, 35,0.002265,0.000131,  35.561
   572.2,0.000587,0.000491, 35,0.002252,0.000154,  35.559
   572.4,0.000583,0.000487, 35,0.002222,0.000154,  35.560
   572.6,0.000587,0.000492, 35,0.002195,0.000131,  35.558
   572.8,0.000587,0.000492, 35,0.002201,0.000154,  35.562
   573.0,0.000581,0.000483, 35,0.002197,0.000167,  35.558
   573.2,0.000584,0.000482, 35,0.002216,0.000131,  35.558
   573.4,0.000584,0.000482, 35,0.002222,0.000167,  35.561
   573.6,0.000584,0.000479, 35,0.002223,0.000181,  35.558
   573.8,0.000587,0.000483, 35,0.002222,0.000131,  35.557
   574.0,0.000584,0.000484, 35,0.002079,0.000167,  35.558
   574.2,0.000584,0.000483, 35,0.001860,0.000167,  35.556
   574.4,0.000584,0.000481, 35,0.001573,0.000131,  35.560
   574.6,0.000584,0.000483, 35,0.001568,0.000154,  35.557
   574.8,0.000584,0.000483, 35,0.001674,0.000154,  35.555
   575.0,0.000576,0.000487, 35,0.001884,0.000154,  35.554
   575.2,0.000579,0.000487, 35,0.001969,0.000163,  35.550
   575.4,0.000577,0.000487, 35,0.002034,0.000163,  35.556
   575.6,0.000568,0.000488, 35,0.002086,0.000177,  35.554
   575.8,0.000571,0.000490, 35,0.002191,0.000163,  35.555
   576.0,0.000571,0.000490, 35,0.002310,0.000163,  35.556
   576.2,0.000563,0.000488, 35,0.002442,0.000140,  35.555
   576.4,0.000569,0.000488, 35,0.002434,0.000140,  35.557
   576.6,0.000571,0.000488, 35,0.002356,0.000140,  35.559
   576.8,0.000563,0.000488, 35,0.002217,0.000104,  35.553
   577.0,0.000566,0.000485, 35,0.002159,0.000140,  35.555
   577.2,0.000569,0.000487, 35,0.002108,0.000140,  35.550
   577.4,0.000560,0.000490, 35,0.002074,0.000104,  35.552
   577.6,0.000566,0.000487, 35,0.002023,0.000140,  35.551
   577.8,0.000566,0.000486, 35,0.001983,0.000140,  35.550
   578.0,0.000560,0.000488, 35,0.001943,0.000104,  35.552
   578.2,0.000564,0.000490, 35,0.001908,0.000140,  35.550
   578.4,0.000564,0.000487, 35,0.001917,0.000140,  35.550
   578.6,0.000558,0.000491, 35,0.001944,0.000154,  35.549
   578.8,0.000561,0.000488, 35,0.001991,0.000104,  35.548
   579.0,0.000561,0.000485, 35,0.002039,0.000154,  35.546
   579.2,0.000555,0.000490, 35,0.002093,0.000154,  35.547
   579.4,0.000561,0.000485, 35,0.002160,0.000154,  35.544
   579.6,0.000564,0.000485, 35,0.002181,0.000154,  35.545
   579.8,0.000558,0.000484, 35,0.002188,0.000154,  35.544
   580.0,0.000566,0.000483, 35,0.002180,0.000117,  35.544
   580.2,0.000566,0.000482, 35,0.002116,0.000140,  35.544
   580.4,0.000560,0.000484, 35,0.002029,0.000140,  35.543
   580.6,0.000564,0.000486, 35,0.001915,0.000117,  35.545
   580.8,0.000564,0.000483, 35,0.001877,0.000154,  35.543
   581.0,0.000555,0.000483, 35,0.001860,0.000154,  35.542
   581.2,0.000556,0.000483, 35,0.001880,0.000117,  35.546
   581.4,0.000553,0.000481, 35,0.001875,0.000140,  35.545
   581.6,0.000547,0.000480, 35,0.001868,0.000140,  35.544
   581.8,0.000551,0.000477, 35,0.001866,0.000117,  35.539
   582.0,0.000548,0.000478, 35,0.001868,0.000154,  35.543
   582.2,0.000548,0.000477, 35,0.001882,0.000154,  35.544
   582.4,0.000552,0.000478, 35,0.001901,0.000131,  35.542
   582.6,0.000552,0.000475, 35,0.001889,0.000154,  35.541
   582.8,0.000552,0.000473, 35,0.001864,0.000154,  35.542
   583.0,0.000554,0.000470, 35,0.001830,0.000131,  35.539
   583.2,0.000557,0.000464, 35,0.001825,0.000154,  35.539
   583.4,0.000560,0.000464, 35,0.001843,0.000154,  35.539
   583.6,0.000551,0.000471, 35,0.001864,0.000131,  35.538
   583.8,0.000548,0.000469, 35,0.001838,0.000154,  35.538
   584.0,0.000551,0.000466, 35,0.001793,0.000154,  35.535
   584.2,0.000542,0.000466, 35,0.001727,0.000117,  35.538
   584.4,0.000546,0.000465, 35,0.001727,0.000127,  35.541
   584.6,0.000548,0.000465, 35,0.001747,0.000127,  35.534
   584.8,0.000542,0.000467, 35,0.001781,0.000104,  35.536
   585.0,0.000546,0.000465, 35,0.001776,0.000127,  35.538
   585.2,0.000546,0.000462, 35,0.001768,0.000127,  35.538
   585.4,0.000540,0.000466, 35,0.001742,0.000104,  35.535
   585.6,0.000541,0.000466, 35,0.001757,0.000127,  35.537
   585.8,0.000543,0.000462, 35,0.001783,0.000127,  35.535
   586.0,0.000537,0.000462, 35,0.001823,0.000104,  35.536
   586.2,0.000543,0.000462, 35,0.001831,0.000127,  35.534
   586.4,0.000543,0.000460, 35,0.001850,0.000127,  35.534
   586.6,0.000537,0.000458, 35,0.001845,0.000104,  35.536
   586.8,0.000541,0.000459, 35,0.001844,0.000140,  35.533
   587.0,0.000538,0.000459, 35,0.001792,0.000140,  35.528
   587.2,0.000536,0.000458, 35,0.001714,0.000140,  35.527
   587.4,0.000537,0.000458, 35,0.001621,0.000104,  35.533
   587.6,0.000534,0.000460, 35,0.001596,0.000140,  35.533
   587.8,0.000531,0.000459, 35,0.001597,0.000140,  35.529
   588.0,0.000531,0.000459, 35,0.001617,0.000140,  35.532
   588.2,0.000534,0.000462, 35,0.001625,0.000140,  35.529
   588.4,0.000531,0.000465, 35,0.001640,0.000140,  35.530
   588.6,0.000529,0.000469, 35,0.001666,0.000104,  35.532
   588.8,0.000529,0.000469, 35,0.001679,0.000140,  35.531
   589.0,0.000526,0.000467, 35,0.001691,0.000140,  35.526
   589.2,0.000521,0.000462, 35,0.001697,0.000104,  35.530
   589.4,0.000521,0.000456, 35,0.001699,0.000140,  35.532
   589.6,0.000521,0.000459, 35,0.001712,0.000140,  35.527
   589.8,0.000519,0.000455, 35,0.001713,0.000104,  35.529
   590.0,0.000519,0.000452, 35,0.001733,0.000140,  35.527
   590.2,0.000521,0.000454, 35,0.001748,0.000140,  35.529
   590.4,0.000519,0.000461, 35,0.001774,0.000104,  35.530
   590.6,0.000519,0.000456, 35,0.001689,0.000140,  35.527
   590.8,0.000518,0.000461, 35,0.001541,0.000140,  35.527
   591.0,0.000521,0.000461, 35,0.001333,0.000104,  35.529
   591.2,0.000521,0.000457, 35,0.001327,0.000127,  35.529
   591.4,0.000519,0.000459, 35,0.001393,0.000127,  35.530
   591.6,0.000519,0.000461, 35,0.001540,0.000090,  35.529
   591.8,0.000516,0.000456, 35,0.001578,0.000113,  35.526
   592.0,0.000516,0.000457, 35,0.001593,0.000113,  35.526
   592.2,0.000519,0.000454, 35,0.001600,0.000077,  35.526
   592.4,0.000519,0.000447, 35,0.001606,0.000113,  35.524
   592.6,0.000519,0.000450, 35,0.001593,0.000113,  35.528
   592.8,0.000521,0.000448, 35,0.001567,0.000090,  35.528
   593.0,0.000519,0.000443, 35,0.001529,0.000127,  35.526
   593.2,0.000519,0.000450, 35,0.001483,0.000127,  35.527
   593.4,0.000521,0.000450, 35,0.001422,0.000127,  35.525
   593.6,0.000519,0.000447, 35,0.001410,0.000150,  35.527
   593.8,0.000519,0.000447, 35,0.001428,0.000150,  35.526
   594.0,0.000521,0.000445, 35,0.001454,0.000150,  35.531
   594.2,0.000519,0.000443, 35,0.001469,0.000150,  35.528
   594.4,0.000519,0.000446, 35,0.001484,0.000150,  35.528
   594.6,0.000519,0.000447, 35,0.001505,0.000150,  35.528
   594.8,0.000516,0.000445, 35,0.001402,0.000150,  35.529
   595.0,0.000516,0.000446, 35,0.001240,0.000150,  35.529
   595.2,0.000516,0.000446, 35,0.001002,0.000150,  35.526
   595.4,0.000516,0.000443, 35,0.000721,0.000150,  35.523
   595.6,0.000513,0.000447, 35,0.000779,0.000150,  35.529
   595.8,0.000513,0.000447, 35,0.000911,0.000150,  35.525
   596.0,0.000513,0.000445, 35,0.001152,0.000150,  35.528
   596.2,0.000511,0.000448, 35,0.001225,0.000150,  35.526
   596.4,0.000511,0.000457, 35,0.001276,0.000163,  35.523
   596.6,0.000511,0.000451, 35,0.001294,0.000150,  35.523
   596.8,0.000513,0.000451, 35,0.001172,0.000150,  35.524
   597.0,0.000513,0.000451, 35,0.000959,0.000150,  35.521
   597.2,0.000513,0.000451, 35,0.000661,0.000163,  35.528
   597.4,0.000513,0.000444, 35,0.000624,0.000163,  35.526
   597.6,0.000507,0.000446, 35,0.000675,0.000163,  35.526
   597.8,0.000505,0.000446, 35,0.000809,0.000177,  35.527
   598.0,0.000507,0.000448, 35,0.000869,0.000163,  35.526
   598.2,0.000499,0.000446, 35,0.000941,0.000163,  35.528
   598.4,0.000500,0.000449, 35,0.001030,0.000177,  35.527
   598.6,0.000500,0.000446, 35,0.000960,0.000163,  35.527
   598.8,0.000491,0.000445, 35,0.000818,0.000163,  35.526
   599.0,0.000492,0.000445, 35,0.000604,0.000177,  35.523
   599.2,0.000492,0.000443, 35,0.000513,0.000163,  35.523
   599.4,0.000486,0.000439, 35,0.000442,0.000163,  35.525
   599.6,0.000492,0.000441, 35,0.000385,0.000177,  35.523
   599.8,0.000492,0.000441, 35,0.000199,0.000163,  35.520
   600.0,0.000492,0.000436, 35,-0.000053,0.000163,  35.524
   600.2,0.000496,0.000440, 35,-0.000374,0.000177,  35.526
   600.4,0.000493,0.000439, 35,-0.000295,0.000177,  35.528
   600.6,0.000493,0.000437, 35,-0.000045,0.000177,  35.526
   600.8,0.000490,0.000436, 35,0.000357,0.000177,  35.526
   601.0,0.000488,0.000434, 35,0.000559,0.000177,  35.525
   601.2,0.000488,0.000436, 35,0.000747,0.000177,  35.524
   601.4,0.000488,0.000435, 35,0.000927,0.000177,  35.523
   601.6,0.000488,0.000433, 35,0.000901,0.000177,  35.523
   601.8,0.000490,0.000434, 35,0.000771,0.000177,  35.521
   602.0,0.000488,0.000433, 35,0.000537,0.000154,  35.521
   602.2,0.000485,0.000435, 35,0.000465,0.000154,  35.517
   602.4,0.000485,0.000433, 35,0.000414,0.000154,  35.519
   602.6,0.000480,0.000430, 35,0.000382,0.000117,  35.517
   602.8,0.000481,0.000430, 35,0.000461,0.000140,  35.524
   603.0,0.000481,0.000432, 35,0.000622,0.000140,  35.518
   603.2,0.000475,0.000431, 35,0.000841,0.000104,  35.521
   603.4,0.000481,0.000424, 35,0.000939,0.000140,  35.522
   603.6,0.000481,0.000429, 35,0.001003,0.000140,  35.521
   603.8,0.000475,0.000427, 35,0.001042,0.000104,  35.516
   604.0,0.000481,0.000419, 35,0.001087,0.000127,  35.516
   604.2,0.000482,0.000426, 35,0.001127,0.000127,  35.521
   604.4,0.000480,0.000426, 35,0.001147,0.000104,  35.518
   604.6,0.000482,0.000425, 35,0.001168,0.000127,  35.518
   604.8,0.000482,0.000424, 35,0.001013,0.000113,  35.517
   605.0,0.000487,0.000422, 35,0.000793,0.000127,  35.519
   605.2,0.000483,0.000420, 35,0.000489,0.000077,  35.512
   605.4,0.000482,0.000421, 35,0.000469,0.000100,  35.516
   605.6,0.000485,0.000426, 35,0.000547,0.000100,  35.512
   605.8,0.000487,0.000425, 35,0.000720,0.000100,  35.516
   606.0,0.000484,0.000421, 35,0.000824,0.000113,  35.512
   606.2,0.000480,0.000428, 35,0.000936,0.000127,  35.510
   606.4,0.000484,0.000428, 35,0.001048,0.000104,  35.511
   606.6,0.000486,0.000432, 35,0.001115,0.000127,  35.509
   606.8,0.000480,0.000430, 35,0.001174,0.000127,  35.510
   607.0,0.000480,0.000432, 35,0.001213,0.000104,  35.507
   607.2,0.000483,0.000431, 35,0.001214,0.000127,  35.510
   607.4,0.000474,0.000431, 35,0.001194,0.000127,  35.511
   607.6,0.000474,0.000427, 35,0.001155,0.000104,  35.513
   607.8,0.000477,0.000427, 35,0.001156,0.000127,  35.508
   608.0,0.000468,0.000425, 35,0.001175,0.000127,  35.507
   608.2,0.000474,0.000423, 35,0.001213,0.000104,  35.506
   608.4,0.000474,0.000421, 35,0.001233,0.000127,  35.505
   608.6,0.000466,0.000421, 35,0.001258,0.000127,  35.508
   608.8,0.000469,0.000424, 35,0.001279,0.000104,  35.510
   609.0,0.000469,0.000423, 35,0.001306,0.000127,  35.507
   609.2,0.000466,0.000423, 35,0.001334,0.000127,  35.505
   609.4,0.000466,0.000424, 35,0.001374,0.000104,  35.507
   609.6,0.000466,0.000426, 35,0.001393,0.000127,  35.507
   609.8,0.000466,0.000426, 35,0.001388,0.000127,  35.506
   610.0,0.000464,0.000428, 35,0.001375,0.000104,  35.506
   610.2,0.000464,0.000422, 35,0.001231,0.000127,  35.509
   610.4,0.000461,0.000424, 35,0.001010,0.000127,  35.503
   610.6,0.000455,0.000425, 35,0.000722,0.000104,  35.505
   610.8,0.000461,0.000418, 35,0.000716,0.000127,  35.508
   611.0,0.000461,0.000422, 35,0.000820,0.000127,  35.509
   611.2,0.000455,0.000421, 35,0.001027,0.000127,  35.505
   611.4,0.000464,0.000419, 35,0.000706,0.000150,  35.506
   611.6,0.000464,0.000416, 35,0.000188,0.000150,  35.506
   611.8,0.000458,0.000417, 35,-0.000553,0.000150,  35.502
   612.0,0.000461,0.000418, 35,-0.000585,0.000150,  35.500
   612.2,0.000459,0.000419, 35,-0.000359,0.000150,  35.501
   612.4,0.000453,0.000420, 35,0.000117,0.000150,  35.503
   612.6,0.000461,0.000420, 35,0.000317,0.000150,  35.497
   612.8,0.000461,0.000422, 35,0.000499,0.000150,  35.502
   613.0,0.000455,0.000419, 35,0.000668,0.000150,  35.501
   613.2,0.000461,0.000417, 35,0.000766,0.000150,  35.500
   613.4,0.000461,0.000420, 35,0.000818,0.000150,  35.495
   613.6,0.000455,0.000424, 35,0.000842,0.000150,  35.494
   613.8,0.000461,0.000424, 35,0.000809,0.000150,  35.495
   614.0,0.000461,0.000419, 35,0.000822,0.000136,  35.494
   614.2,0.000453,0.000421, 35,0.000822,0.000150,  35.494
   614.4,0.000456,0.000419, 35,0.000814,0.000150,  35.495
   614.6,0.000459,0.000414, 35,0.000822,0.000136,  35.491
   614.8,0.000456,0.000414, 35,0.000853,0.000150,  35.493
   615.0,0.000462,0.000416, 35,0.000880,0.000150,  35.492
   615.2,0.000465,0.000414, 35,0.000912,0.000150,  35.496
   615.4,0.000456,0.000416, 35,0.000945,0.000163,  35.494
   615.6,0.000456,0.000417, 35,0.000989,0.000163,  35.493
   615.8,0.000459,0.000415, 35,0.001022,0.000150,  35.493
   616.0,0.000450,0.000415, 35,0.001055,0.000150,  35.493
   616.2,0.000456,0.000417, 35,0.001076,0.000150,  35.490
   616.4,0.000459,0.000414, 35,0.000993,0.000150,  35.494
   616.6,0.000450,0.000414, 35,0.000844,0.000150,  35.492
   616.8,0.000456,0.000417, 35,0.000638,0.000150,  35.488
   617.0,0.000456,0.000412, 35,0.000613,0.000150,  35.488
   617.2,0.000456,0.000415, 35,0.000644,0.000150,  35.484
   617.4,0.000456,0.000418, 35,0.000735,0.000163,  35.474
   617.6,0.000454,0.000414, 35,0.000793,0.000177,  35.474
   617.8,0.000454,0.000415, 35,0.000859,0.000177,  35.472
   618.0,0.000460,0.000418, 35,0.000943,0.000177,  35.473
   618.2,0.000460,0.000416, 35,0.000866,0.000163,  35.473
   618.4,0.000462,0.000412, 35,0.000699,0.000163,  35.472
   618.6,0.000462,0.000413, 35,0.000461,0.000140,  35.467
   618.8,0.000460,0.000415, 35,0.000483,0.000127,  35.470
   619.0,0.000462,0.000412, 35,0.000598,0.000127,  35.468
   619.2,0.000456,0.000411, 35,0.000805,0.000104,  35.468
   619.4,0.000454,0.000414, 35,0.000650,0.000127,  35.468
   619.6,0.000456,0.000412, 35,0.000365,0.000127,  35.469
   619.8,0.000450,0.000411, 35,-0.000067,0.000104,  35.464
   620.0,0.000454,0.000409, 35,-0.000370,0.000127,  35.464
   620.2,0.000451,0.000409, 35,-0.000684,0.000127,  35.464
   620.4,0.000452,0.000411, 35,-0.001011,0.000104,  35.465
   620.6,0.000456,0.000407, 35,-0.001031,0.000127,  35.464
   620.8,0.000456,0.000408, 35,-0.000896,0.000127,  35.465
   621.0,0.000450,0.000409, 35,-0.000626,0.000104,  35.464
   621.2,0.000453,0.000409, 35,-0.000426,0.000127,  35.458
   621.4,0.000456,0.000415, 35,-0.000182,0.000127,  35.457
   621.6,0.000450,0.000415, 35,0.000084,0.000104,  35.464
   621.8,0.000453,0.000415, 35,0.000252,0.000140,  35.462
   622.0,0.000450,0.000413, 35,0.000388,0.000140,  35.457
   622.2,0.000442,0.000416, 35,0.000486,0.000104,  35.461
   622.4,0.000437,0.000414, 35,0.000544,0.000140,  35.457
   622.6,0.000437,0.000409, 35,0.000634,0.000140,  35.459
   622.8,0.000437,0.000409, 35,0.000699,0.000140,  35.459
   623.0,0.000437,0.000404, 35,0.000751,0.000104,  35.460
   623.2,0.000439,0.000409, 35,0.000771,0.000140,  35.459
   623.4,0.000439,0.000409, 35,0.000783,0.000140,  35.466
   623.6,0.000437,0.000405, 35,0.000775,0.000140,  35.464
   623.8,0.000439,0.000411, 35,0.000763,0.000140,  35.460
   624.0,0.000437,0.000409, 35,0.000749,0.000140,  35.464
   624.2,0.000434,0.000409, 35,0.000721,0.000117,  35.461
   624.4,0.000437,0.000409, 35,0.000716,0.000154,  35.458
   624.6,0.000434,0.000405, 35,0.000729,0.000154,  35.459
   624.8,0.000434,0.000409, 35,0.000756,0.000131,  35.458
   625.0,0.000434,0.000405, 35,0.000769,0.000154,  35.458
   625.2,0.000428,0.000405, 35,0.000782,0.000154,  35.460
   625.4,0.000426,0.000405, 35,0.000789,0.000131,  35.457
   625.6,0.000428,0.000402, 35,0.000810,0.000154,  35.458
   625.8,0.000428,0.000402, 35,0.000823,0.000154,  35.457
   626.0,0.000434,0.000407, 35,0.000836,0.000131,  35.456
   626.2,0.000434,0.000402, 35,0.000857,0.000154,  35.459
   626.4,0.000434,0.000403, 35,0.000890,0.000154,  35.457
   626.6,0.000434,0.000403, 35,0.000923,0.000154,  35.456
   626.8,0.000434,0.000401, 35,0.000839,0.000177,  35.457
   627.0,0.000437,0.000400, 35,0.000698,0.000177,  35.458
   627.2,0.000434,0.000400, 35,0.000504,0.000177,  35.458
   627.4,0.000432,0.000397, 35,0.000511,0.000177,  35.460
   627.6,0.000432,0.000399, 35,0.000589,0.000177,  35.463
   627.8,0.000426,0.000401, 35,0.000744,0.000177,  35.462
   628.0,0.000423,0.000403, 35,0.000704,0.000177,  35.465
   628.2,0.000423,0.000403, 35,0.000588,0.000177,  35.466
   628.4,0.000419,0.000403, 35,0.000418,0.000177,  35.465
   628.6,0.000426,0.000401, 35,0.000417,0.000177,  35.469
   628.8,0.000426,0.000402, 35,0.000462,0.000177,  35.469
   629.0,0.000422,0.000402, 35,0.000554,0.000177,  35.470
   629.2,0.000426,0.000398, 35,0.000601,0.000177,  35.471
   629.4,0.000426,0.000398, 35,0.000659,0.000177,  35.473
   629.6,0.000419,0.000401, 35,0.000712,0.000177,  35.471
   629.8,0.000420,0.000403, 35,0.000772,0.000163,  35.469
   630.0,0.000420,0.000399, 35,0.000826,0.000163,  35.474
   630.2,0.000419,0.000393, 35,0.000885,0.000177,  35.471
   630.4,0.000426,0.000398, 35,0.000917,0.000163,  35.475
   630.6,0.000428,0.000398, 35,0.000931,0.000163,  35.473
   630.8,0.000431,0.000400, 35,0.000930,0.000177,  35.474
   631.0,0.000437,0.000397, 35,0.000910,0.000163,  35.476
   631.2,0.000439,0.000400, 35,0.000897,0.000163,  35.471
   631.4,0.000437,0.000402, 35,0.000883,0.000177,  35.472
   631.6,0.000434,0.000400, 35,0.000850,0.000163,  35.472
   631.8,0.000437,0.000402, 35,0.000871,0.000163,  35.468
   632.0,0.000434,0.000404, 35,0.000916,0.000163,  35.471
   632.2,0.000434,0.000399, 35,0.000981,0.000163,  35.469
   632.4,0.000437,0.000400, 35,0.000967,0.000163,  35.468
   632.6,0.000428,0.000403, 35,0.000929,0.000163,  35.468
   632.8,0.000428,0.000403, 35,0.000863,0.000177,  35.467
   633.0,0.000431,0.000405, 35,0.000842,0.000163,  35.470
   633.2,0.000422,0.000402, 35,0.000824,0.000163,  35.468
   633.4,0.000428,0.000406, 35,0.000817,0.000177,  35.466
   633.6,0.000428,0.000406, 35,0.000805,0.000163,  35.473
   633.8,0.000428,0.000402, 35,0.000805,0.000163,  35.467
   634.0,0.000432,0.000405, 35,0.000799,0.000177,  35.470
   634.2,0.000432,0.000401, 35,0.000820,0.000163,  35.467
   634.4,0.000432,0.000405, 35,0.000858,0.000163,  35.466
   634.6,0.000432,0.000405, 35,0.000910,0.000177,  35.465
   634.8,0.000429,0.000400, 35,0.000925,0.000163,  35.465
   635.0,0.000429,0.000400, 35,0.000931,0.000163,  35.468
   635.2,0.000423,0.000403, 35,0.000924,0.000177,  35.469
   635.4,0.000420,0.000398, 35,0.000905,0.000163,  35.469
   635.6,0.000418,0.000398, 35,0.000880,0.000163,  35.470
   635.8,0.000412,0.000398, 35,0.000852,0.000177,  35.469
   636.0,0.000415,0.000394, 35,0.000808,0.000163,  35.471
   636.2,0.000413,0.000397,N/A,0.000744,0.000163,  35.471
   636.4,0.000410,0.000395,N/A,0.000676,0.000177,  35.472
   636.6,0.000414,0.000386,N/A,0.000664,0.000163,  35.466
   636.8,0.000416,0.000388,N/A,0.000685,0.000163,  35.474
   637.0,0.000416,0.000385,N/A,0.000729,0.000163,  35.472
