Run Name,Group 7
Run Date,02:05:40 PM   02-03-11
Method Name,30%B-Isocrat
Export Format Version, 1.00
Method ID, 1173
Points/Second, 1.00
Number of Records,   3544
Offset from Run Start Time,00:00:00
Run End Time,00:59:05
Time,Second
QuadTec 1, (280.0 nm), AU
QuadTec 2, (260.0 nm), AU
Gradient Pump,<Not Selected>
QuadTec 3, (214.0 nm), AU
QuadTec 4, (405.0 nm), AU
Conductivity,mS/cm
Trace 6,<Not Available>
GP Pressure,<Not Selected>
Volume,<Not Selected>
Fraction,<Not Available>
Time,QuadTec 1,QuadTec 2,QuadTec 3,QuadTec 4,Conductivity
     0.0,0.000240,0.000719,-0.000282,0.000000,  26.541
     1.0,0.000000,0.000000,0.000000,0.000000,  26.533
     2.0,0.000000,0.000000,0.000000,0.000000,  26.525
     3.0,0.000000,0.000000,0.000000,0.000000,  26.521
     4.0,0.000000,0.000000,0.000000,0.000000,  26.521
     5.0,0.000025,0.000025,-0.000049,0.000049,  26.510
     6.0,0.000022,0.000037,-0.000136,0.000040,  26.507
     7.0,0.000019,0.000036,-0.000907,0.000018,  26.520
     8.0,0.000035,0.000033,-0.000400,0.000018,  26.527
     9.0,0.000038,0.000043,-0.000128,-0.000040,  26.528
    10.0,0.000013,0.000028,0.000069,-0.000031,  26.509
    11.0,-0.000049,-0.000013,0.000050,-0.000085,  26.504
    12.0,-0.000067,-0.000032,-0.000190,-0.000071,  26.504
    13.0,-0.000022,-0.000005,-0.001118,-0.000018,  26.504
    14.0,0.000010,0.000016,-0.000529,0.000009,  26.506
    15.0,0.000020,0.000031,-0.000472,0.000023,  26.508
    16.0,0.000038,0.000040,-0.000270,0.000000,  26.499
    17.0,0.000005,0.000036,-0.000683,-0.000062,  26.493
    18.0,-0.000011,0.000009,-0.000340,-0.000040,  26.492
    19.0,0.000007,0.000027,-0.000190,-0.000026,  26.491
    20.0,0.000018,0.000036,-0.000231,-0.000049,  26.490
    21.0,0.000026,0.000042,-0.000244,-0.000049,  26.495
    22.0,0.000026,0.000045,-0.000186,-0.000022,  26.502
    23.0,0.000031,0.000059,-0.000246,-0.000022,  26.507
    24.0,0.000014,0.000045,0.000024,-0.000062,  26.479
    25.0,-0.000044,0.000005,0.000029,-0.000089,  26.476
    26.0,-0.000065,-0.000021,-0.000090,-0.000129,  26.476
    27.0,-0.000026,-0.000005,-0.000125,-0.000075,  26.472
    28.0,0.000003,0.000022,-0.000149,-0.000049,  26.476
    29.0,0.000015,0.000039,-0.000265,-0.000035,  26.485
    30.0,0.000031,0.000048,-0.000143,-0.000057,  26.472
    31.0,0.000013,0.000043,-0.000110,-0.000022,  26.467
    32.0,-0.000013,0.000021,0.000025,-0.000084,  26.465
    33.0,0.000027,0.000033,-0.000187,-0.000093,  26.457
    34.0,0.000040,0.000042,-0.000192,-0.000044,  26.446
    35.0,0.000031,0.000043,-0.001159,-0.000044,  26.450
    36.0,0.000033,0.000050,-0.000411,-0.000008,  26.459
    37.0,0.000033,0.000054,-0.000129,-0.000022,  26.459
    38.0,0.000019,0.000037,-0.000236,-0.000071,  26.443
    39.0,-0.000044,0.000006,-0.000055,-0.000111,  26.438
    40.0,-0.000077,-0.000022,0.000009,-0.000151,  26.440
    41.0,-0.000035,0.000001,-0.000059,-0.000133,  26.439
    42.0,-0.000000,0.000024,-0.000034,-0.000093,  26.440
    43.0,0.000009,0.000025,-0.000137,-0.000057,  26.449
    44.0,0.000024,0.000036,-0.000040,-0.000066,  26.432
    45.0,0.000015,0.000047,-0.000065,-0.000071,  26.430
    46.0,-0.000021,0.000015,-0.000076,-0.000098,  26.428
    47.0,-0.000000,0.000016,-0.000293,-0.000107,  26.427
    48.0,0.000009,0.000023,-0.000187,-0.000057,  26.424
    49.0,0.000018,0.000037,-0.000338,-0.000093,  26.427
    50.0,0.000020,0.000035,-0.000676,-0.000057,  26.446
    51.0,0.000020,0.000043,-0.001365,-0.000057,  26.459
    52.0,0.000008,0.000047,-0.000653,-0.000107,  26.489
    53.0,0.000046,0.000098,0.000157,-0.000098,  26.507
    54.0,0.000250,0.000334,0.000966,0.000090,  26.436
    55.0,0.000366,0.000439,0.001854,0.000175,  26.419
    56.0,0.000383,0.000321,0.001713,0.000130,  26.413
    57.0,-0.000077,-0.000060,0.000316,-0.000116,  26.418
    58.0,-0.000088,-0.000068,0.000055,-0.000102,  26.412
    59.0,-0.000075,-0.000077,-0.000105,-0.000089,  26.407
    60.0,0.000014,-0.000075,0.000108,-0.000062,  26.402
    61.0,0.000210,0.000161,0.000234,0.000099,  26.402
    62.0,0.000216,0.000218,-0.000088,0.000050,  26.401
    63.0,0.000163,0.000168,-0.000081,-0.000013,  26.399
    64.0,0.000102,0.000133,-0.000484,-0.000017,  26.419
    65.0,0.000094,0.000122,-0.000269,-0.000017,  26.433
    66.0,0.000076,0.000105,-0.000092,-0.000053,  26.435
    67.0,0.000029,0.000071,-0.000013,-0.000071,  26.427
    68.0,-0.000032,0.000032,0.000093,-0.000174,  26.424
    69.0,-0.000032,0.000026,-0.000703,-0.000111,  26.427
    70.0,0.000006,0.000038,-0.000556,-0.000057,  26.432
    71.0,0.000031,0.000048,-0.000337,-0.000066,  26.443
    72.0,0.000035,0.000049,-0.000267,-0.000035,  26.426
    73.0,0.000034,0.000063,-0.000109,-0.000057,  26.424
    74.0,-0.000008,0.000037,-0.000042,-0.000120,  26.417
    75.0,-0.000005,0.000036,-0.000036,-0.000084,  26.413
    76.0,0.000025,0.000062,-0.000111,-0.000093,  26.399
    77.0,0.000033,0.000066,-0.000754,-0.000057,  26.397
    78.0,0.000036,0.000066,-0.000365,-0.000044,  26.405
    79.0,0.000044,0.000060,-0.000239,-0.000080,  26.409
    80.0,0.000039,0.000075,-0.000117,-0.000057,  26.394
    81.0,0.000009,0.000043,-0.000142,-0.000075,  26.380
    82.0,-0.000049,0.000012,0.000058,-0.000102,  26.369
    83.0,-0.000052,-0.000001,-0.000010,-0.000102,  26.360
    84.0,0.000003,0.000023,-0.000185,-0.000035,  26.352
    85.0,0.000035,0.000052,-0.000122,0.000005,  26.358
    86.0,0.000044,0.000066,-0.000446,-0.000008,  26.353
    87.0,0.000054,0.000084,-0.000398,-0.000008,  26.344
    88.0,0.000018,0.000085,-0.001326,-0.000049,  26.337
    89.0,0.000029,0.000081,-0.000399,-0.000049,  26.338
    90.0,0.000072,0.000103,-0.000240,-0.000008,  26.332
    91.0,0.000108,0.000134,-0.000039,-0.000017,  26.329
    92.0,0.000113,0.000147,-0.000009,-0.000017,  26.339
    93.0,0.000112,0.000147,0.000068,-0.000004,  26.349
    94.0,0.000117,0.000156,0.000069,-0.000004,  26.341
    95.0,0.000099,0.000158,-0.000367,-0.000080,  26.330
    96.0,0.000052,0.000134,0.000171,-0.000084,  26.327
    97.0,0.000075,0.000135,-0.000290,-0.000071,  26.324
    98.0,0.000127,0.000174,0.000008,-0.000026,  26.321
    99.0,0.000142,0.000182,0.000109,0.000005,  26.330
   100.0,0.000127,0.000169,-0.000015,0.000018,  26.331
   101.0,0.000120,0.000168,0.000144,-0.000017,  26.318
   102.0,0.000084,0.000140,0.000251,-0.000022,  26.320
   103.0,0.000056,0.000107,0.000168,-0.000022,  26.314
   104.0,0.000087,0.000125,0.000203,0.000005,  26.313
   105.0,0.000102,0.000139,0.000477,0.000018,  26.312
   106.0,0.000115,0.000145,0.000424,0.000045,  26.318
   107.0,0.000122,0.000152,0.000391,0.000032,  26.325
   108.0,0.000130,0.000148,0.000489,-0.000004,  26.328
   109.0,0.000115,0.000154,0.000838,-0.000080,  26.311
   110.0,0.000064,0.000110,0.001000,-0.000084,  26.301
   111.0,0.000048,0.000095,0.001039,-0.000133,  26.302
   112.0,0.000110,0.000126,0.001132,-0.000044,  26.301
   113.0,0.000145,0.000144,0.001203,-0.000031,  26.305
   114.0,0.000176,0.000164,0.001106,-0.000053,  26.316
   115.0,0.000207,0.000186,-0.000358,-0.000031,  26.301
   116.0,0.000210,0.000194,0.001283,-0.000057,  26.302
   117.0,0.000191,0.000176,0.001918,-0.000093,  26.298
   118.0,0.000250,0.000206,0.002312,-0.000044,  26.298
   119.0,0.000320,0.000251,0.002772,-0.000031,  26.301
   120.0,0.000360,0.000276,0.003182,-0.000017,  26.300
   121.0,0.000403,0.000299,0.003432,-0.000017,  26.307
   122.0,0.000465,0.000336,0.004055,-0.000053,  26.300
   123.0,0.000509,0.000364,0.004778,-0.000031,  26.294
   124.0,0.000486,0.000348,0.005454,-0.000098,  26.294
   125.0,0.000498,0.000357,0.006033,-0.000160,  26.293
   126.0,0.000616,0.000435,0.006778,-0.000071,  26.293
   127.0,0.000752,0.000512,0.006683,-0.000044,  26.297
   128.0,0.000852,0.000567,0.007108,-0.000044,  26.301
   129.0,0.000936,0.000629,0.008510,-0.000017,  26.292
   130.0,0.001027,0.000682,0.009638,-0.000066,  26.300
   131.0,0.001075,0.000703,0.010636,-0.000057,  26.298
   132.0,0.001229,0.000784,0.010935,-0.000017,  26.305
   133.0,0.001429,0.000896,0.013031,-0.000039,  26.314
   134.0,0.001515,0.000976,0.014395,0.000023,  26.316
   135.0,0.001654,0.001060,0.015567,0.000010,  26.316
   136.0,0.001810,0.001164,0.016892,-0.000013,  26.316
   137.0,0.001969,0.001267,0.017669,0.000023,  26.319
   138.0,0.002025,0.001304,0.019775,-0.000080,  26.316
   139.0,0.002104,0.001346,0.021143,-0.000044,  26.312
   140.0,0.002353,0.001461,0.022710,-0.000004,  26.311
   141.0,0.002616,0.001630,0.024642,-0.000013,  26.295
   142.0,0.002823,0.001753,0.026416,0.000050,  26.296
   143.0,0.003019,0.001879,0.027865,0.000086,  26.281
   144.0,0.003181,0.002015,0.030166,0.000014,  26.270
   145.0,0.003286,0.002086,0.031896,0.000023,  26.262
   146.0,0.003555,0.002244,0.033824,0.000077,  26.251
   147.0,0.003868,0.002436,0.036331,0.000090,  26.245
   148.0,0.004089,0.002553,0.038586,0.000090,  26.240
   149.0,0.004312,0.002661,0.040715,0.000068,  26.244
   150.0,0.004570,0.002813,0.043268,0.000090,  26.238
   151.0,0.004800,0.002969,0.044943,0.000090,  26.224
   152.0,0.004937,0.003078,0.048110,0.000001,  26.209
   153.0,0.005066,0.003145,0.050372,0.000036,  26.199
   154.0,0.005333,0.003283,0.052616,0.000050,  26.177
   155.0,0.005674,0.003460,0.055501,0.000063,  26.170
   156.0,0.005892,0.003577,0.057405,0.000036,  26.161
   157.0,0.006177,0.003733,0.060230,0.000001,  26.147
   158.0,0.006480,0.003879,0.063107,0.000036,  26.122
   159.0,0.006722,0.004062,0.064720,0.000050,  26.113
   160.0,0.006997,0.004171,0.067432,0.000001,  26.086
   161.0,0.007298,0.004358,0.071289,0.000036,  26.070
   162.0,0.007652,0.004542,0.073912,0.000010,  26.045
   163.0,0.007962,0.004706,0.076793,-0.000013,  26.026
   164.0,0.008316,0.004902,0.079545,0.000010,  26.003
   165.0,0.008711,0.005141,0.082555,0.000045,  25.970
   166.0,0.008998,0.005296,0.085641,0.000032,  25.944
   167.0,0.009193,0.005379,0.087983,-0.000022,  25.919
   168.0,0.009508,0.005502,0.090474,-0.000008,  25.890
   169.0,0.009913,0.005715,0.093326,0.000045,  25.860
   170.0,0.010258,0.005960,0.096074,0.000050,  25.838
   171.0,0.010664,0.006187,0.098344,0.000055,  25.819
   172.0,0.010977,0.006347,0.101313,0.000063,  25.796
   173.0,0.011147,0.006408,0.103971,-0.000039,  25.797
   174.0,0.011466,0.006586,0.106527,0.000010,  25.787
   175.0,0.011878,0.006761,0.109470,0.000050,  25.783
   176.0,0.012258,0.006971,0.112187,0.000055,  25.788
   177.0,0.012562,0.007150,0.114823,0.000117,  25.804
   178.0,0.012781,0.007294,0.117236,0.000117,  25.812
   179.0,0.013036,0.007428,0.119759,0.000068,  25.831
   180.0,0.013149,0.007457,0.121910,0.000010,  25.841
   181.0,0.013224,0.007461,0.123570,-0.000120,  25.862
   182.0,0.013416,0.007588,0.124889,-0.000044,  25.898
   183.0,0.013696,0.007724,0.126167,0.000050,  25.925
   184.0,0.013894,0.007829,0.127455,0.000055,  25.954
   185.0,0.014135,0.007961,0.128634,0.000090,  25.989
   186.0,0.014280,0.008043,0.130419,0.000104,  26.014
   187.0,0.014299,0.008046,0.131671,-0.000013,  26.036
   188.0,0.014377,0.008080,0.132627,0.000023,  26.071
   189.0,0.014558,0.008175,0.132243,0.000063,  26.097
   190.0,0.014690,0.008234,0.132988,0.000077,  26.117
   191.0,0.014808,0.008305,0.134666,0.000126,  26.137
   192.0,0.014906,0.008353,0.135545,0.000112,  26.158
   193.0,0.014972,0.008382,0.135941,0.000135,  26.163
   194.0,0.014958,0.008385,0.136203,0.000072,  26.169
   195.0,0.014945,0.008360,0.137089,0.000032,  26.180
   196.0,0.014966,0.008361,0.137544,0.000045,  26.186
   197.0,0.015009,0.008377,0.136975,0.000086,  26.194
   198.0,0.015006,0.008383,0.136598,0.000077,  26.194
   199.0,0.015077,0.008416,0.136935,0.000126,  26.201
   200.0,0.015091,0.008422,0.136087,0.000139,  26.190
   201.0,0.015001,0.008388,0.136494,0.000086,  26.193
   202.0,0.014970,0.008341,0.136288,0.000072,  26.194
   203.0,0.014968,0.008337,0.135800,0.000099,  26.192
   204.0,0.014923,0.008307,0.134836,0.000126,  26.192
   205.0,0.014912,0.008302,0.134830,0.000112,  26.197
   206.0,0.014873,0.008279,0.134056,0.000112,  26.203
   207.0,0.014807,0.008248,0.133462,0.000112,  26.199
   208.0,0.014666,0.008168,0.132702,0.000072,  26.188
   209.0,0.014537,0.008092,0.132569,0.000018,  26.189
   210.0,0.014473,0.008050,0.132254,0.000018,  26.183
   211.0,0.014354,0.007982,0.130566,0.000059,  26.186
   212.0,0.014238,0.007922,0.129215,0.000099,  26.187
   213.0,0.014212,0.007904,0.128370,0.000099,  26.190
   214.0,0.014127,0.007859,0.127509,0.000086,  26.183
   215.0,0.013977,0.007776,0.125798,0.000059,  26.182
   216.0,0.013843,0.007685,0.125326,0.000032,  26.182
   217.0,0.013715,0.007620,0.124192,0.000072,  26.177
   218.0,0.013550,0.007524,0.122444,0.000072,  26.183
   219.0,0.013431,0.007475,0.121317,0.000099,  26.179
   220.0,0.013314,0.007415,0.120058,0.000099,  26.188
   221.0,0.013170,0.007330,0.118239,0.000086,  26.190
   222.0,0.013004,0.007230,0.117044,0.000072,  26.179
   223.0,0.012817,0.007106,0.115743,-0.000008,  26.171
   224.0,0.012685,0.007023,0.114213,0.000005,  26.164
   225.0,0.012522,0.006937,0.112849,0.000010,  26.160
   226.0,0.012325,0.006838,0.111297,0.000059,  26.160
   227.0,0.012215,0.006787,0.110139,0.000059,  26.166
   228.0,0.012084,0.006723,0.108930,0.000072,  26.155
   229.0,0.011897,0.006633,0.106656,0.000045,  26.151
   230.0,0.011711,0.006517,0.104733,0.000005,  26.149
   231.0,0.011546,0.006438,0.103576,0.000032,  26.141
   232.0,0.011379,0.006324,0.101988,0.000045,  26.144
   233.0,0.011200,0.006236,0.100862,0.000072,  26.143
   234.0,0.011060,0.006157,0.099528,0.000072,  26.155
   235.0,0.010891,0.006055,0.098157,0.000072,  26.156
   236.0,0.010674,0.005942,0.096437,0.000059,  26.138
   237.0,0.010460,0.005846,0.095013,-0.000008,  26.134
   238.0,0.010305,0.005743,0.093760,-0.000049,  26.136
   239.0,0.010134,0.005635,0.091346,0.000018,  26.137
   240.0,0.009934,0.005542,0.089747,0.000068,  26.130
   241.0,0.009837,0.005470,0.088506,0.000072,  26.144
   242.0,0.009701,0.005399,0.087276,0.000094,  26.138
   243.0,0.009521,0.005302,0.085880,0.000068,  26.137
   244.0,0.009314,0.005183,0.084792,0.000014,  26.136
   245.0,0.009155,0.005080,0.083258,0.000054,  26.135
   246.0,0.008956,0.004982,0.081169,0.000045,  26.134
   247.0,0.008778,0.004904,0.079049,0.000081,  26.134
   248.0,0.008635,0.004835,0.078329,0.000068,  26.143
   249.0,0.008463,0.004743,0.076108,0.000045,  26.150
   250.0,0.008317,0.004641,0.074953,0.000081,  26.140
   251.0,0.008098,0.004522,0.073754,0.000000,  26.139
   252.0,0.007938,0.004435,0.072731,-0.000035,  26.141
   253.0,0.007799,0.004342,0.071693,0.000027,  26.136
   254.0,0.007613,0.004243,0.069598,0.000018,  26.139
   255.0,0.007495,0.004186,0.068158,0.000054,  26.143
   256.0,0.007378,0.004128,0.067061,0.000068,  26.139
   257.0,0.007208,0.004048,0.065801,0.000032,  26.140
   258.0,0.007041,0.003945,0.064650,0.000014,  26.140
   259.0,0.006925,0.003863,0.063280,0.000041,  26.132
   260.0,0.006752,0.003769,0.061504,0.000018,  26.132
   261.0,0.006595,0.003683,0.060085,0.000018,  26.130
   262.0,0.006486,0.003627,0.058292,0.000018,  26.138
   263.0,0.006332,0.003544,0.057670,0.000045,  26.142
   264.0,0.006170,0.003469,0.056527,0.000032,  26.145
   265.0,0.005982,0.003376,0.055307,-0.000035,  26.134
   266.0,0.005832,0.003295,0.054625,-0.000089,  26.136
   267.0,0.005731,0.003213,0.053104,-0.000035,  26.140
   268.0,0.005626,0.003139,0.051750,0.000005,  26.139
   269.0,0.005519,0.003091,0.050358,0.000005,  26.143
   270.0,0.005428,0.003043,0.049695,-0.000031,  26.140
   271.0,0.005316,0.002995,0.048783,0.000018,  26.132
   272.0,0.005164,0.002913,0.047962,-0.000035,  26.132
   273.0,0.005052,0.002845,0.047242,-0.000008,  26.137
   274.0,0.004928,0.002794,0.045459,0.000005,  26.139
   275.0,0.004795,0.002712,0.044271,0.000018,  26.137
   276.0,0.004707,0.002659,0.043516,0.000018,  26.142
   277.0,0.004600,0.002607,0.042692,0.000018,  26.145
   278.0,0.004503,0.002544,0.040772,0.000005,  26.142
   279.0,0.004349,0.002467,0.040476,-0.000035,  26.140
   280.0,0.004221,0.002379,0.040311,-0.000080,  26.136
   281.0,0.004125,0.002315,0.039693,-0.000129,  26.137
   282.0,0.004039,0.002273,0.038495,-0.000013,  26.136
   283.0,0.003965,0.002245,0.037607,-0.000022,  26.142
   284.0,0.003906,0.002215,0.036824,0.000005,  26.148
   285.0,0.003820,0.002180,0.036076,-0.000008,  26.133
   286.0,0.003729,0.002116,0.034660,-0.000049,  26.131
   287.0,0.003631,0.002051,0.034006,-0.000035,  26.134
   288.0,0.003551,0.002000,0.033406,0.000014,  26.127
   289.0,0.003442,0.001952,0.032718,0.000018,  26.124
   290.0,0.003372,0.001921,0.032114,0.000041,  26.130
   291.0,0.003294,0.001892,0.031430,0.000054,  26.129
   292.0,0.003220,0.001845,0.030554,0.000018,  26.130
   293.0,0.003096,0.001787,0.029722,0.000014,  26.121
   294.0,0.002989,0.001713,0.029610,-0.000067,  26.116
   295.0,0.002929,0.001663,0.029181,-0.000102,  26.114
   296.0,0.002879,0.001638,0.027920,0.000000,  26.121
   297.0,0.002833,0.001625,0.027541,0.000014,  26.121
   298.0,0.002787,0.001601,0.027206,0.000027,  26.127
   299.0,0.002742,0.001575,0.026746,0.000027,  26.120
   300.0,0.002641,0.001534,0.026110,-0.000049,  26.108
   301.0,0.002558,0.001478,0.024405,0.000000,  26.106
   302.0,0.002526,0.001461,0.024223,0.000014,  26.112
   303.0,0.002474,0.001431,0.024121,-0.000022,  26.105
   304.0,0.002430,0.001393,0.023801,0.000014,  26.109
   305.0,0.002373,0.001381,0.023443,0.000014,  26.121
   306.0,0.002319,0.001351,0.023158,0.000041,  26.122
   307.0,0.002251,0.001307,0.022683,-0.000013,  26.114
   308.0,0.002137,0.001248,0.022424,-0.000089,  26.107
   309.0,0.002075,0.001210,0.022118,-0.000107,  26.105
   310.0,0.002068,0.001198,0.021428,-0.000026,  26.102
   311.0,0.002048,0.001191,0.020855,-0.000008,  26.102
   312.0,0.002013,0.001191,0.020425,0.000027,  26.106
   313.0,0.002001,0.001173,0.020239,0.000027,  26.102
   314.0,0.001939,0.001156,0.019872,0.000000,  26.093
   315.0,0.001850,0.001101,0.019760,-0.000026,  26.099
   316.0,0.001840,0.001080,0.019390,-0.000035,  26.093
   317.0,0.001805,0.001080,0.018907,0.000014,  26.096
   318.0,0.001776,0.001066,0.018690,0.000027,  26.092
   319.0,0.001746,0.001043,0.017916,-0.000008,  26.104
   320.0,0.001721,0.001025,0.017908,0.000027,  26.102
   321.0,0.001670,0.001009,0.017769,0.000014,  26.093
   322.0,0.001569,0.000949,0.017567,-0.000062,  26.092
   323.0,0.001502,0.000904,0.017483,-0.000080,  26.092
   324.0,0.001519,0.000891,0.017160,-0.000049,  26.091
   325.0,0.001508,0.000903,0.016813,0.000014,  26.095
   326.0,0.001503,0.000904,0.016482,0.000027,  26.102
   327.0,0.001493,0.000905,0.016138,0.000005,  26.092
   328.0,0.001451,0.000893,0.016034,0.000027,  26.090
   329.0,0.001391,0.000847,0.015528,0.000000,  26.094
   330.0,0.001391,0.000836,0.015512,-0.000008,  26.099
   331.0,0.001379,0.000831,0.015207,0.000027,  26.102
   332.0,0.001358,0.000814,0.015187,0.000041,  26.101
   333.0,0.001331,0.000810,0.014954,0.000027,  26.108
   334.0,0.001316,0.000803,0.014818,0.000041,  26.112
   335.0,0.001285,0.000792,0.014644,-0.000008,  26.107
   336.0,0.001192,0.000747,0.014563,-0.000026,  26.112
   337.0,0.001138,0.000699,0.014435,-0.000080,  26.105
   338.0,0.001153,0.000698,0.013393,-0.000062,  26.103
   339.0,0.001164,0.000717,0.013406,0.000000,  26.109
   340.0,0.001165,0.000725,0.013585,0.000027,  26.114
   341.0,0.001161,0.000725,0.012717,0.000027,  26.116
   342.0,0.001152,0.000721,0.012919,0.000027,  26.111
   343.0,0.001075,0.000676,0.013279,-0.000062,  26.110
   344.0,0.001072,0.000665,0.013379,0.000014,  26.109
   345.0,0.001078,0.000669,0.013219,0.000000,  26.107
   346.0,0.001073,0.000673,0.012607,-0.000008,  26.110
   347.0,0.001071,0.000680,0.012288,0.000027,  26.110
   348.0,0.001061,0.000661,0.012659,0.000027,  26.122
   349.0,0.001040,0.000658,0.012772,-0.000022,  26.122
   350.0,0.000984,0.000625,0.012780,-0.000026,  26.110
   351.0,0.000909,0.000574,0.012847,-0.000067,  26.112
   352.0,0.000917,0.000574,0.012700,-0.000040,  26.119
   353.0,0.000950,0.000581,0.012535,0.000000,  26.117
   354.0,0.000958,0.000595,0.012240,-0.000022,  26.120
   355.0,0.000963,0.000606,0.012031,0.000014,  26.128
   356.0,0.000958,0.000612,0.011881,0.000014,  26.119
   357.0,0.000904,0.000588,0.012378,-0.000062,  26.109
   358.0,0.000889,0.000567,0.011834,-0.000013,  26.108
   359.0,0.000907,0.000582,0.011393,-0.000013,  26.115
   360.0,0.000915,0.000588,0.011913,0.000014,  26.118
   361.0,0.000920,0.000590,0.012000,0.000014,  26.122
   362.0,0.000912,0.000585,0.012064,0.000005,  26.123
   363.0,0.000907,0.000580,0.012015,-0.000022,  26.120
   364.0,0.000851,0.000558,0.012089,-0.000040,  26.114
   365.0,0.000786,0.000518,0.012077,-0.000116,  26.118
   366.0,0.000786,0.000499,0.012078,-0.000053,  26.120
   367.0,0.000827,0.000526,0.011576,-0.000026,  26.121
   368.0,0.000836,0.000540,0.011696,-0.000022,  26.121
   369.0,0.000855,0.000544,0.011845,0.000014,  26.126
   370.0,0.000858,0.000560,0.011944,-0.000022,  26.117
   371.0,0.000817,0.000531,0.012044,0.000000,  26.116
   372.0,0.000797,0.000507,0.011990,-0.000026,  26.110
   373.0,0.000820,0.000523,0.011949,-0.000035,  26.111
   374.0,0.000827,0.000532,0.012044,0.000014,  26.113
   375.0,0.000833,0.000544,0.011506,0.000036,  26.107
   376.0,0.000840,0.000535,0.010995,0.000014,  26.119
   377.0,0.000833,0.000533,0.011588,0.000000,  26.114
   378.0,0.000794,0.000520,0.011858,-0.000062,  26.100
   379.0,0.000713,0.000469,0.011915,-0.000085,  26.098
   380.0,0.000711,0.000451,0.011739,-0.000080,  26.097
   381.0,0.000763,0.000480,0.011851,-0.000062,  26.099
   382.0,0.000782,0.000504,0.011841,0.000000,  26.100
   383.0,0.000801,0.000520,0.012026,0.000014,  26.111
   384.0,0.000811,0.000532,0.012211,-0.000022,  26.103
   385.0,0.000783,0.000517,0.011904,-0.000013,  26.094
   386.0,0.000756,0.000477,0.011914,-0.000040,  26.096
   387.0,0.000784,0.000501,0.011993,0.000014,  26.088
   388.0,0.000797,0.000513,0.012227,0.000000,  26.088
   389.0,0.000799,0.000518,0.012248,-0.000008,  26.091
   390.0,0.000804,0.000520,0.010952,-0.000008,  26.090
   391.0,0.000810,0.000519,0.011842,-0.000008,  26.089
   392.0,0.000794,0.000527,0.011530,-0.000049,  26.078
   393.0,0.000730,0.000479,0.012349,-0.000102,  26.069
   394.0,0.000696,0.000449,0.012422,-0.000151,  26.070
   395.0,0.000744,0.000476,0.011873,-0.000062,  26.070
   396.0,0.000777,0.000494,0.012284,-0.000022,  26.075
   397.0,0.000790,0.000511,0.012506,-0.000022,  26.078
   398.0,0.000798,0.000511,0.012433,0.000014,  26.072
   399.0,0.000769,0.000514,0.012756,0.000000,  26.067
   400.0,0.000741,0.000482,0.012702,-0.000049,  26.072
   401.0,0.000762,0.000483,0.012744,0.000014,  26.070
   402.0,0.000780,0.000497,0.012871,0.000000,  26.072
   403.0,0.000790,0.000506,0.012978,0.000014,  26.077
   404.0,0.000796,0.000506,0.012989,0.000000,  26.083
   405.0,0.000804,0.000511,0.012994,-0.000022,  26.086
   406.0,0.000785,0.000523,0.013095,0.000000,  26.073
   407.0,0.000712,0.000489,0.013280,-0.000116,  26.073
   408.0,0.000690,0.000454,0.013288,-0.000129,  26.070
   409.0,0.000746,0.000471,0.013222,-0.000026,  26.079
   410.0,0.000780,0.000501,0.012921,-0.000013,  26.073
   411.0,0.000798,0.000517,0.013324,-0.000022,  26.091
   412.0,0.000827,0.000530,0.013271,0.000014,  26.081
   413.0,0.000816,0.000535,0.013509,-0.000035,  26.076
   414.0,0.000769,0.000499,0.013613,-0.000040,  26.077
   415.0,0.000801,0.000516,0.013685,-0.000013,  26.077
   416.0,0.000823,0.000530,0.013236,-0.000022,  26.075
   417.0,0.000828,0.000533,0.012209,0.000027,  26.074
   418.0,0.000847,0.000547,0.013009,0.000014,  26.084
   419.0,0.000845,0.000543,0.013801,-0.000022,  26.094
   420.0,0.000846,0.000556,0.013348,0.000014,  26.081
   421.0,0.000788,0.000521,0.013897,-0.000040,  26.077
   422.0,0.000741,0.000475,0.014184,-0.000080,  26.071
   423.0,0.000793,0.000501,0.013613,-0.000053,  26.068
   424.0,0.000834,0.000533,0.014302,-0.000035,  26.066
   425.0,0.000851,0.000548,0.013584,0.000027,  26.067
   426.0,0.000873,0.000560,0.014262,0.000014,  26.067
   427.0,0.000870,0.000570,0.014533,-0.000022,  26.062
   428.0,0.000818,0.000530,0.014958,-0.000026,  26.062
   429.0,0.000833,0.000516,0.014419,-0.000013,  26.064
   430.0,0.000872,0.000550,0.014265,0.000014,  26.069
   431.0,0.000886,0.000566,0.013162,0.000041,  26.065
   432.0,0.000895,0.000576,0.014248,0.000018,  26.076
   433.0,0.000889,0.000574,0.014912,0.000041,  26.082
   434.0,0.000883,0.000583,0.015307,0.000027,  26.083
   435.0,0.000838,0.000556,0.015560,-0.000075,  26.073
   436.0,0.000795,0.000516,0.015773,-0.000080,  26.079
   437.0,0.000826,0.000516,0.015562,-0.000026,  26.078
   438.0,0.000882,0.000563,0.015577,-0.000035,  26.080
   439.0,0.000902,0.000577,0.015299,0.000027,  26.088
   440.0,0.000929,0.000586,0.015302,0.000005,  26.091
   441.0,0.000926,0.000596,0.015186,-0.000008,  26.080
   442.0,0.000890,0.000564,0.015853,-0.000075,  26.082
   443.0,0.000893,0.000553,0.016190,-0.000035,  26.078
   444.0,0.000915,0.000573,0.016225,-0.000022,  26.079
   445.0,0.000922,0.000574,0.016320,-0.000035,  26.076
   446.0,0.000927,0.000585,0.016500,-0.000022,  26.086
   447.0,0.000935,0.000580,0.016527,-0.000008,  26.094
   448.0,0.000941,0.000594,0.016693,-0.000044,  26.098
   449.0,0.000892,0.000555,0.016824,-0.000075,  26.090
   450.0,0.000831,0.000502,0.016984,-0.000156,  26.091
   451.0,0.000844,0.000502,0.016805,-0.000102,  26.089
   452.0,0.000900,0.000541,0.016880,-0.000026,  26.089
   453.0,0.000922,0.000565,0.017020,-0.000013,  26.089
   454.0,0.000960,0.000582,0.017186,-0.000049,  26.094
   455.0,0.000973,0.000589,0.017274,0.000000,  26.081
   456.0,0.000934,0.000574,0.017403,-0.000053,  26.076
   457.0,0.000933,0.000570,0.017337,-0.000075,  26.078
   458.0,0.000972,0.000595,0.017602,0.000014,  26.082
   459.0,0.001004,0.000624,0.017644,-0.000008,  26.078
   460.0,0.001008,0.000623,0.017776,0.000027,  26.080
   461.0,0.001021,0.000629,0.017305,0.000014,  26.091
   462.0,0.001026,0.000635,0.017467,-0.000008,  26.087
   463.0,0.000987,0.000626,0.017993,-0.000013,  26.075
   464.0,0.000939,0.000583,0.018504,-0.000094,  26.071
   465.0,0.000926,0.000561,0.018304,-0.000102,  26.072
   466.0,0.000993,0.000607,0.018407,-0.000026,  26.066
   467.0,0.001029,0.000627,0.017964,-0.000035,  26.070
   468.0,0.001051,0.000646,0.018562,0.000014,  26.081
   469.0,0.001067,0.000661,0.018813,0.000014,  26.063
   470.0,0.001034,0.000651,0.018985,-0.000049,  26.062
   471.0,0.001016,0.000617,0.019013,-0.000026,  26.063
   472.0,0.001049,0.000636,0.019221,0.000000,  26.059
   473.0,0.001074,0.000655,0.019456,-0.000022,  26.059
   474.0,0.001081,0.000663,0.019661,-0.000022,  26.059
   475.0,0.001087,0.000662,0.019686,-0.000044,  26.064
   476.0,0.001097,0.000678,0.019774,-0.000008,  26.067
   477.0,0.001080,0.000665,0.019702,-0.000049,  26.056
   478.0,0.001019,0.000631,0.019934,-0.000089,  26.052
   479.0,0.001000,0.000605,0.020081,-0.000089,  26.051
   480.0,0.001070,0.000627,0.019984,-0.000026,  26.046
   481.0,0.001101,0.000651,0.020046,-0.000035,  26.049
   482.0,0.001127,0.000679,0.020396,0.000014,  26.057
   483.0,0.001143,0.000700,0.020604,0.000014,  26.046
   484.0,0.001125,0.000687,0.020658,0.000014,  26.046
   485.0,0.001099,0.000656,0.020474,-0.000026,  26.042
   486.0,0.001138,0.000684,0.020415,-0.000022,  26.037
   487.0,0.001161,0.000693,0.019751,0.000014,  26.041
   488.0,0.001166,0.000700,0.019931,0.000014,  26.053
   489.0,0.001171,0.000703,0.020569,-0.000022,  26.052
   490.0,0.001180,0.000713,0.021009,0.000049,  26.058
   491.0,0.001171,0.000708,0.021285,0.000009,  26.053
   492.0,0.001104,0.000670,0.021601,-0.000094,  26.049
   493.0,0.001076,0.000652,0.021616,-0.000107,  26.051
   494.0,0.001135,0.000679,0.021650,-0.000075,  26.052
   495.0,0.001186,0.000714,0.021589,0.000000,  26.052
   496.0,0.001212,0.000734,0.021842,0.000000,  26.055
   497.0,0.001230,0.000744,0.022053,-0.000022,  26.048
   498.0,0.001212,0.000747,0.022388,0.000014,  26.035
   499.0,0.001181,0.000713,0.022549,-0.000004,  26.034
   500.0,0.001218,0.000720,0.022487,0.000036,  26.034
   501.0,0.001238,0.000735,0.022550,0.000049,  26.033
   502.0,0.001248,0.000745,0.022628,0.000049,  26.033
   503.0,0.001261,0.000762,0.022695,0.000049,  26.036
   504.0,0.001263,0.000764,0.022959,0.000049,  26.045
   505.0,0.001261,0.000770,0.023019,0.000014,  26.047
   506.0,0.001190,0.000723,0.022938,-0.000053,  26.033
   507.0,0.001152,0.000681,0.023204,-0.000120,  26.029
   508.0,0.001208,0.000704,0.023224,-0.000062,  26.028
   509.0,0.001258,0.000745,0.023355,0.000000,  26.026
   510.0,0.001289,0.000769,0.023194,0.000014,  26.035
   511.0,0.001309,0.000782,0.023688,-0.000022,  26.031
   512.0,0.001307,0.000796,0.023795,0.000000,  26.023
   513.0,0.001271,0.000769,0.024054,-0.000075,  26.020
   514.0,0.001303,0.000775,0.023972,0.000014,  26.023
   515.0,0.001337,0.000794,0.024229,0.000014,  26.024
   516.0,0.001352,0.000806,0.024432,0.000005,  26.028
   517.0,0.001349,0.000810,0.024451,0.000036,  26.035
   518.0,0.001362,0.000817,0.024653,0.000049,  26.040
   519.0,0.001356,0.000826,0.024827,0.000036,  26.043
   520.0,0.001308,0.000786,0.025141,-0.000018,  26.031
   521.0,0.001257,0.000748,0.025210,-0.000071,  26.027
   522.0,0.001295,0.000771,0.025289,0.000009,  26.032
   523.0,0.001355,0.000793,0.024956,0.000023,  26.030
   524.0,0.001385,0.000826,0.024770,0.000063,  26.038
   525.0,0.001397,0.000845,0.023800,0.000063,  26.040
   526.0,0.001398,0.000852,0.024954,0.000063,  26.039
   527.0,0.001371,0.000820,0.025643,0.000009,  26.041
   528.0,0.001389,0.000827,0.025769,0.000049,  26.036
   529.0,0.001422,0.000840,0.024782,0.000063,  26.038
   530.0,0.001435,0.000859,0.025208,0.000063,  26.039
   531.0,0.001449,0.000855,0.025797,0.000049,  26.048
   532.0,0.001447,0.000850,0.025991,0.000063,  26.054
   533.0,0.001453,0.000862,0.026250,0.000036,  26.055
   534.0,0.001403,0.000840,0.026610,-0.000031,  26.043
   535.0,0.001337,0.000790,0.026075,-0.000058,  26.038
   536.0,0.001368,0.000790,0.026570,-0.000004,  26.035
   537.0,0.001420,0.000830,0.026549,0.000000,  26.033
   538.0,0.001458,0.000853,0.026394,-0.000022,  26.036
   539.0,0.001481,0.000871,0.026344,0.000014,  26.039
   540.0,0.001483,0.000886,0.026142,0.000000,  26.019
   541.0,0.001443,0.000854,0.027127,0.000009,  26.018
   542.0,0.001460,0.000855,0.027226,0.000023,  26.014
   543.0,0.001488,0.000874,0.027130,0.000049,  26.017
   544.0,0.001500,0.000885,0.026858,0.000049,  26.019
   545.0,0.001516,0.000892,0.027545,0.000063,  26.025
   546.0,0.001529,0.000903,0.027857,0.000063,  26.043
   547.0,0.001543,0.000908,0.028210,0.000063,  26.048
   548.0,0.001493,0.000884,0.028400,-0.000026,  26.033
   549.0,0.001426,0.000840,0.028607,-0.000058,  26.043
   550.0,0.001442,0.000833,0.028520,-0.000031,  26.047
   551.0,0.001499,0.000864,0.028597,0.000036,  26.049
   552.0,0.001532,0.000887,0.028435,0.000063,  26.056
   553.0,0.001563,0.000912,0.028750,0.000063,  26.068
   554.0,0.001576,0.000930,0.028949,0.000049,  26.061
   555.0,0.001548,0.000918,0.029063,0.000023,  26.061
   556.0,0.001540,0.000895,0.029085,0.000023,  26.064
   557.0,0.001568,0.000918,0.029237,0.000049,  26.067
   558.0,0.001588,0.000928,0.029422,0.000049,  26.070
   559.0,0.001597,0.000944,0.029516,0.000076,  26.075
   560.0,0.001610,0.000943,0.029522,0.000076,  26.084
   561.0,0.001614,0.000944,0.029036,0.000076,  26.084
   562.0,0.001585,0.000950,0.027959,0.000023,  26.078
   563.0,0.001525,0.000895,0.029298,-0.000044,  26.075
   564.0,0.001523,0.000888,0.029944,-0.000031,  26.073
   565.0,0.001585,0.000929,0.030001,0.000036,  26.074
   566.0,0.001614,0.000951,0.029902,0.000014,  26.073
   567.0,0.001642,0.000968,0.030105,-0.000008,  26.081
   568.0,0.001651,0.000988,0.030412,0.000027,  26.074
   569.0,0.001634,0.000972,0.029838,-0.000013,  26.075
   570.0,0.001616,0.000942,0.030248,-0.000049,  26.077
   571.0,0.001638,0.000953,0.030433,0.000014,  26.078
   572.0,0.001655,0.000968,0.030684,0.000027,  26.077
   573.0,0.001667,0.000978,0.030868,-0.000008,  26.072
   574.0,0.001668,0.000983,0.030759,0.000041,  26.080
   575.0,0.001691,0.000983,0.031020,0.000018,  26.082
   576.0,0.001673,0.000987,0.030747,0.000014,  26.073
   577.0,0.001608,0.000942,0.031391,-0.000067,  26.068
   578.0,0.001593,0.000912,0.031601,-0.000129,  26.067
   579.0,0.001644,0.000941,0.031351,-0.000013,  26.066
   580.0,0.001672,0.000969,0.031379,0.000014,  26.063
   581.0,0.001696,0.000990,0.031410,0.000005,  26.068
   582.0,0.001716,0.001010,0.031620,0.000027,  26.063
   583.0,0.001709,0.000998,0.031816,0.000014,  26.062
   584.0,0.001689,0.000980,0.032004,0.000000,  26.062
   585.0,0.001721,0.000989,0.032014,0.000049,  26.058
   586.0,0.001731,0.001006,0.032198,0.000076,  26.063
   587.0,0.001739,0.001019,0.030932,0.000063,  26.061
   588.0,0.001752,0.001025,0.031419,0.000072,  26.067
   589.0,0.001757,0.001029,0.032294,0.000063,  26.070
   590.0,0.001743,0.001027,0.032021,0.000036,  26.065
   591.0,0.001690,0.000982,0.032497,-0.000031,  26.061
   592.0,0.001651,0.000949,0.032825,-0.000058,  26.057
   593.0,0.001689,0.000977,0.032714,-0.000013,  26.054
   594.0,0.001734,0.001007,0.032629,-0.000022,  26.056
   595.0,0.001764,0.001024,0.032755,0.000041,  26.065
   596.0,0.001786,0.001036,0.032928,0.000063,  26.059
   597.0,0.001781,0.001050,0.033184,0.000049,  26.057
   598.0,0.001737,0.001019,0.033252,0.000036,  26.049
   599.0,0.001757,0.001019,0.033361,0.000049,  26.044
   600.0,0.001780,0.001031,0.033236,0.000049,  26.049
   601.0,0.001789,0.001040,0.033342,0.000049,  26.045
   602.0,0.001800,0.001046,0.033271,0.000041,  26.062
   603.0,0.001808,0.001040,0.033131,0.000027,  26.066
   604.0,0.001784,0.001046,0.033824,0.000014,  26.063
   605.0,0.001723,0.001003,0.034033,-0.000089,  26.048
   606.0,0.001692,0.000968,0.034189,-0.000107,  26.049
   607.0,0.001742,0.000993,0.033882,-0.000026,  26.048
   608.0,0.001777,0.001021,0.033761,0.000014,  26.045
   609.0,0.001811,0.001050,0.033857,0.000036,  26.055
   610.0,0.001840,0.001058,0.033866,0.000063,  26.057
   611.0,0.001831,0.001067,0.033715,0.000049,  26.050
   612.0,0.001776,0.001033,0.034150,0.000023,  26.051
   613.0,0.001805,0.001045,0.033860,0.000036,  26.054
   614.0,0.001831,0.001059,0.033284,0.000049,  26.057
   615.0,0.001846,0.001072,0.033438,0.000049,  26.057
   616.0,0.001857,0.001076,0.034259,0.000076,  26.061
   617.0,0.001858,0.001078,0.033390,0.000076,  26.072
   618.0,0.001864,0.001083,0.034587,0.000027,  26.076
   619.0,0.001810,0.001049,0.034754,-0.000004,  26.065
   620.0,0.001764,0.001005,0.035062,-0.000094,  26.066
   621.0,0.001793,0.001017,0.034769,-0.000062,  26.066
   622.0,0.001822,0.001045,0.034490,0.000000,  26.069
   623.0,0.001847,0.001069,0.034541,0.000027,  26.074
   624.0,0.001863,0.001084,0.034808,-0.000008,  26.081
   625.0,0.001865,0.001096,0.034551,0.000014,  26.074
   626.0,0.001820,0.001051,0.034833,-0.000013,  26.078
   627.0,0.001837,0.001066,0.034964,-0.000022,  26.075
   628.0,0.001871,0.001092,0.035034,0.000014,  26.074
   629.0,0.001890,0.001099,0.034896,-0.000022,  26.077
   630.0,0.001905,0.001096,0.035029,0.000041,  26.081
   631.0,0.001913,0.001106,0.034466,0.000027,  26.086
   632.0,0.001907,0.001112,0.034795,-0.000022,  26.088
   633.0,0.001869,0.001091,0.035465,-0.000013,  26.077
   634.0,0.001819,0.001034,0.035328,-0.000080,  26.079
   635.0,0.001821,0.001043,0.035490,-0.000053,  26.079
   636.0,0.001856,0.001067,0.035290,-0.000013,  26.083
   637.0,0.001890,0.001096,0.034729,-0.000022,  26.088
   638.0,0.001921,0.001121,0.035258,0.000041,  26.090
   639.0,0.001917,0.001124,0.035557,0.000041,  26.082
   640.0,0.001877,0.001111,0.035614,-0.000035,  26.089
   641.0,0.001887,0.001090,0.035262,0.000014,  26.086
   642.0,0.001908,0.001107,0.035489,0.000027,  26.088
   643.0,0.001917,0.001109,0.035531,0.000005,  26.091
   644.0,0.001924,0.001125,0.035909,0.000041,  26.088
   645.0,0.001930,0.001117,0.035779,0.000018,  26.095
   646.0,0.001924,0.001131,0.035971,0.000041,  26.100
   647.0,0.001891,0.001103,0.035888,-0.000026,  26.091
   648.0,0.001830,0.001064,0.035370,-0.000094,  26.085
   649.0,0.001839,0.001045,0.035434,-0.000004,  26.087
   650.0,0.001881,0.001089,0.035709,0.000009,  26.087
   651.0,0.001896,0.001096,0.035756,0.000049,  26.088
   652.0,0.001922,0.001114,0.035823,0.000049,  26.097
   653.0,0.001935,0.001131,0.036044,0.000049,  26.086
   654.0,0.001908,0.001102,0.036109,0.000049,  26.089
   655.0,0.001895,0.001087,0.036061,-0.000026,  26.088
   656.0,0.001922,0.001104,0.036026,-0.000035,  26.087
   657.0,0.001937,0.001110,0.035765,0.000014,  26.085
   658.0,0.001950,0.001125,0.035923,0.000014,  26.087
   659.0,0.001955,0.001130,0.036137,0.000005,  26.091
   660.0,0.001965,0.001137,0.035737,0.000014,  26.098
   661.0,0.001931,0.001126,0.036220,-0.000026,  26.085
   662.0,0.001869,0.001080,0.035770,-0.000080,  26.083
   663.0,0.001851,0.001060,0.036007,-0.000067,  26.080
   664.0,0.001900,0.001092,0.036104,-0.000035,  26.077
   665.0,0.001939,0.001119,0.035934,0.000027,  26.078
   666.0,0.001952,0.001133,0.036085,0.000027,  26.085
   667.0,0.001978,0.001144,0.036133,-0.000008,  26.081
   668.0,0.001946,0.001146,0.036142,0.000036,  26.080
   669.0,0.001930,0.001105,0.036363,0.000023,  26.077
   670.0,0.001944,0.001134,0.035448,0.000063,  26.080
   671.0,0.001971,0.001139,0.035969,0.000076,  26.083
   672.0,0.001972,0.001148,0.036296,0.000090,  26.080
   673.0,0.001977,0.001150,0.036058,0.000076,  26.092
   674.0,0.001976,0.001156,0.036237,0.000041,  26.098
   675.0,0.001957,0.001151,0.036446,-0.000035,  26.096
   676.0,0.001891,0.001113,0.036614,-0.000053,  26.086
   677.0,0.001868,0.001081,0.036248,-0.000053,  26.083
   678.0,0.001901,0.001099,0.036369,-0.000035,  26.091
   679.0,0.001927,0.001121,0.036200,0.000014,  26.087
   680.0,0.001961,0.001135,0.036417,0.000027,  26.094
   681.0,0.001965,0.001148,0.036415,0.000041,  26.095
   682.0,0.001955,0.001140,0.036492,0.000027,  26.103
   683.0,0.001928,0.001111,0.036654,-0.000049,  26.102
   684.0,0.001937,0.001123,0.036457,0.000041,  26.103
   685.0,0.001950,0.001127,0.035876,0.000041,  26.105
   686.0,0.001966,0.001142,0.036203,0.000018,  26.103
   687.0,0.001976,0.001146,0.036341,0.000041,  26.108
   688.0,0.001976,0.001141,0.036450,0.000054,  26.108
   689.0,0.001969,0.001149,0.034955,0.000005,  26.111
   690.0,0.001901,0.001096,0.036077,-0.000040,  26.086
   691.0,0.001861,0.001079,0.036576,-0.000089,  26.083
   692.0,0.001893,0.001087,0.036406,0.000000,  26.080
   693.0,0.001919,0.001118,0.035760,0.000014,  26.084
   694.0,0.001953,0.001130,0.035988,0.000018,  26.093
   695.0,0.001968,0.001143,0.036245,0.000041,  26.100
   696.0,0.001957,0.001138,0.036343,0.000027,  26.104
   697.0,0.001906,0.001099,0.036485,-0.000026,  26.103
   698.0,0.001911,0.001105,0.036223,0.000014,  26.106
   699.0,0.001941,0.001120,0.036071,-0.000008,  26.111
   700.0,0.001952,0.001130,0.036142,0.000027,  26.111
   701.0,0.001960,0.001139,0.036231,0.000041,  26.120
   702.0,0.001964,0.001144,0.036316,0.000018,  26.129
   703.0,0.001961,0.001147,0.036308,0.000041,  26.133
   704.0,0.001916,0.001117,0.036457,-0.000026,  26.126
   705.0,0.001861,0.001080,0.035514,-0.000067,  26.129
   706.0,0.001875,0.001082,0.035961,-0.000026,  26.137
   707.0,0.001916,0.001099,0.035725,0.000036,  26.139
   708.0,0.001938,0.001126,0.035906,0.000041,  26.143
   709.0,0.001945,0.001138,0.035958,0.000041,  26.147
   710.0,0.001951,0.001144,0.036090,0.000005,  26.140
   711.0,0.001901,0.001118,0.036158,-0.000026,  26.146
   712.0,0.001901,0.001099,0.036022,0.000000,  26.150
   713.0,0.001917,0.001111,0.035759,-0.000022,  26.155
   714.0,0.001922,0.001116,0.035727,0.000027,  26.149
   715.0,0.001938,0.001124,0.035735,0.000063,  26.158
   716.0,0.001937,0.001134,0.035830,0.000076,  26.168
   717.0,0.001954,0.001137,0.035674,0.000063,  26.171
   718.0,0.001885,0.001099,0.035836,0.000009,  26.169
   719.0,0.001846,0.001069,0.035251,-0.000053,  26.167
   720.0,0.001862,0.001063,0.035357,-0.000026,  26.174
   721.0,0.001881,0.001085,0.035096,-0.000022,  26.172
   722.0,0.001908,0.001095,0.035150,0.000041,  26.172
   723.0,0.001918,0.001112,0.035353,0.000027,  26.178
   724.0,0.001916,0.001114,0.035187,0.000027,  26.174
   725.0,0.001876,0.001098,0.035340,-0.000026,  26.176
   726.0,0.001872,0.001074,0.035320,-0.000013,  26.168
   727.0,0.001887,0.001084,0.035169,0.000036,  26.171
   728.0,0.001886,0.001095,0.035010,0.000049,  26.172
   729.0,0.001896,0.001104,0.034771,0.000049,  26.167
   730.0,0.001898,0.001104,0.034403,0.000049,  26.171
   731.0,0.001910,0.001104,0.034772,0.000049,  26.168
   732.0,0.001865,0.001085,0.034881,0.000009,  26.160
   733.0,0.001811,0.001044,0.034999,-0.000058,  26.154
   734.0,0.001816,0.001032,0.035019,-0.000053,  26.149
   735.0,0.001841,0.001054,0.034660,0.000000,  26.143
   736.0,0.001866,0.001077,0.034206,0.000014,  26.144
   737.0,0.001877,0.001086,0.033711,0.000018,  26.155
   738.0,0.001885,0.001102,0.034138,0.000041,  26.143
   739.0,0.001840,0.001089,0.034511,-0.000026,  26.147
   740.0,0.001835,0.001070,0.034645,-0.000035,  26.150
   741.0,0.001845,0.001082,0.034522,0.000027,  26.157
   742.0,0.001862,0.001088,0.034211,0.000041,  26.162
   743.0,0.001867,0.001095,0.033532,0.000027,  26.161
   744.0,0.001869,0.001091,0.033942,0.000041,  26.167
   745.0,0.001877,0.001099,0.034059,0.000005,  26.180
   746.0,0.001839,0.001087,0.034088,0.000000,  26.178
   747.0,0.001776,0.001047,0.034258,-0.000067,  26.181
   748.0,0.001771,0.001025,0.034301,-0.000089,  26.178
   749.0,0.001789,0.001039,0.033927,0.000000,  26.170
   750.0,0.001809,0.001070,0.033325,0.000014,  26.170
   751.0,0.001829,0.001082,0.033532,-0.000022,  26.180
   752.0,0.001834,0.001101,0.033583,0.000041,  26.175
   753.0,0.001820,0.001088,0.033770,-0.000035,  26.176
   754.0,0.001802,0.001073,0.033827,0.000014,  26.172
   755.0,0.001822,0.001076,0.033433,0.000027,  26.175
   756.0,0.001834,0.001084,0.032795,-0.000008,  26.173
   757.0,0.001841,0.001082,0.032576,0.000014,  26.177
   758.0,0.001844,0.001082,0.033087,0.000063,  26.177
   759.0,0.001846,0.001090,0.033264,0.000063,  26.180
   760.0,0.001811,0.001077,0.033467,0.000036,  26.179
   761.0,0.001750,0.001038,0.032067,-0.000053,  26.171
   762.0,0.001733,0.001019,0.033188,-0.000018,  26.173
   763.0,0.001750,0.001031,0.032923,-0.000013,  26.182
   764.0,0.001774,0.001038,0.032762,-0.000008,  26.180
   765.0,0.001792,0.001045,0.032758,0.000027,  26.188
   766.0,0.001798,0.001060,0.031619,0.000041,  26.183
   767.0,0.001775,0.001060,0.032539,-0.000022,  26.187
   768.0,0.001727,0.001031,0.032597,0.000000,  26.182
   769.0,0.001756,0.001028,0.032394,0.000014,  26.187
   770.0,0.001757,0.001034,0.031546,0.000027,  26.188
   771.0,0.001773,0.001047,0.031960,0.000027,  26.186
   772.0,0.001781,0.001048,0.032109,0.000005,  26.193
   773.0,0.001773,0.001042,0.031760,0.000041,  26.194
   774.0,0.001755,0.001043,0.032025,0.000000,  26.195
   775.0,0.001693,0.001003,0.032349,-0.000089,  26.195
   776.0,0.001668,0.000970,0.032421,-0.000094,  26.196
   777.0,0.001697,0.000984,0.031702,-0.000026,  26.195
   778.0,0.001709,0.001007,0.031451,-0.000035,  26.190
   779.0,0.001729,0.001016,0.031619,0.000014,  26.191
   780.0,0.001751,0.001025,0.031586,0.000049,  26.194
   781.0,0.001726,0.001012,0.030778,0.000049,  26.191
   782.0,0.001673,0.000986,0.031078,-0.000026,  26.193
   783.0,0.001691,0.000987,0.030605,-0.000035,  26.187
   784.0,0.001691,0.000995,0.030913,0.000014,  26.185
   785.0,0.001698,0.001001,0.031084,0.000023,  26.186
   786.0,0.001711,0.001013,0.031149,0.000063,  26.196
   787.0,0.001708,0.001004,0.030962,0.000063,  26.203
   788.0,0.001698,0.001002,0.030976,0.000049,  26.202
   789.0,0.001634,0.000957,0.031283,-0.000004,  26.210
   790.0,0.001596,0.000934,0.031357,-0.000094,  26.204
   791.0,0.001622,0.000945,0.030856,-0.000089,  26.212
   792.0,0.001643,0.000963,0.030391,0.000000,  26.218
   793.0,0.001663,0.000982,0.030489,0.000000,  26.216
   794.0,0.001670,0.000991,0.030533,0.000014,  26.224
   795.0,0.001667,0.000988,0.030331,0.000036,  26.222
   796.0,0.001622,0.000957,0.030553,0.000023,  26.220
   797.0,0.001634,0.000961,0.029951,0.000036,  26.235
   798.0,0.001642,0.000962,0.029454,0.000000,  26.234
   799.0,0.001653,0.000976,0.029592,-0.000022,  26.234
   800.0,0.001655,0.000979,0.028567,0.000014,  26.236
   801.0,0.001647,0.000979,0.029325,0.000036,  26.231
   802.0,0.001650,0.000979,0.029599,0.000036,  26.235
   803.0,0.001588,0.000953,0.029857,-0.000031,  26.230
   804.0,0.001543,0.000911,0.028238,-0.000094,  26.227
   805.0,0.001567,0.000918,0.029175,-0.000004,  26.220
   806.0,0.001591,0.000947,0.029000,0.000009,  26.215
   807.0,0.001617,0.000963,0.029310,0.000049,  26.214
   808.0,0.001626,0.000980,0.027813,0.000049,  26.212
   809.0,0.001626,0.000986,0.027814,0.000049,  26.209
   810.0,0.001573,0.000948,0.028100,0.000023,  26.203
   811.0,0.001589,0.000938,0.027963,0.000036,  26.196
   812.0,0.001609,0.000960,0.028427,0.000036,  26.195
   813.0,0.001616,0.000962,0.028479,0.000049,  26.183
   814.0,0.001608,0.000963,0.028485,0.000063,  26.183
   815.0,0.001603,0.000956,0.028507,0.000063,  26.187
   816.0,0.001593,0.000950,0.028371,0.000049,  26.184
   817.0,0.001537,0.000926,0.028528,-0.000018,  26.171
   818.0,0.001476,0.000876,0.028653,-0.000098,  26.165
   819.0,0.001481,0.000858,0.028092,-0.000044,  26.163
   820.0,0.001502,0.000879,0.027798,-0.000004,  26.156
   821.0,0.001519,0.000899,0.027720,0.000045,  26.152
   822.0,0.001537,0.000904,0.026404,0.000023,  26.160
   823.0,0.001548,0.000915,0.026905,0.000058,  26.143
   824.0,0.001498,0.000897,0.027313,-0.000004,  26.135
   825.0,0.001488,0.000880,0.027442,-0.000004,  26.131
   826.0,0.001514,0.000896,0.027248,0.000023,  26.116
   827.0,0.001524,0.000907,0.025563,0.000036,  26.104
   828.0,0.001529,0.000914,0.026195,0.000023,  26.099
   829.0,0.001540,0.000919,0.026752,0.000049,  26.110
   830.0,0.001538,0.000921,0.026787,0.000049,  26.111
   831.0,0.001499,0.000910,0.026894,-0.000004,  26.095
   832.0,0.001442,0.000868,0.027122,-0.000071,  26.081
   833.0,0.001442,0.000856,0.026341,-0.000031,  26.082
   834.0,0.001478,0.000886,0.025999,0.000009,  26.081
   835.0,0.001498,0.000910,0.025552,0.000036,  26.079
   836.0,0.001516,0.000924,0.025071,0.000049,  26.099
   837.0,0.001530,0.000925,0.025658,0.000049,  26.098
   838.0,0.001509,0.000921,0.026288,0.000036,  26.096
   839.0,0.001484,0.000893,0.026107,0.000009,  26.098
   840.0,0.001490,0.000910,0.025340,0.000036,  26.107
   841.0,0.001501,0.000917,0.025714,0.000049,  26.116
   842.0,0.001507,0.000917,0.025909,0.000049,  26.119
   843.0,0.001501,0.000914,0.025789,0.000063,  26.130
   844.0,0.001498,0.000915,0.025842,0.000063,  26.144
   845.0,0.001468,0.000909,0.025364,0.000023,  26.137
   846.0,0.001415,0.000858,0.025870,-0.000031,  26.127
   847.0,0.001402,0.000839,0.025915,-0.000018,  26.139
   848.0,0.001419,0.000863,0.025312,0.000023,  26.139
   849.0,0.001438,0.000877,0.025083,0.000036,  26.150
   850.0,0.001463,0.000889,0.025290,0.000049,  26.162
   851.0,0.001462,0.000895,0.025216,0.000049,  26.157
   852.0,0.001437,0.000884,0.025128,0.000023,  26.149
   853.0,0.001407,0.000844,0.025030,0.000009,  26.151
   854.0,0.001408,0.000842,0.024782,0.000049,  26.151
   855.0,0.001414,0.000854,0.024004,0.000023,  26.155
   856.0,0.001411,0.000853,0.024300,0.000049,  26.155
   857.0,0.001413,0.000856,0.024472,0.000036,  26.160
   858.0,0.001414,0.000855,0.024225,0.000049,  26.169
   859.0,0.001393,0.000855,0.024248,0.000049,  26.168
   860.0,0.001326,0.000807,0.024331,-0.000031,  26.162
   861.0,0.001312,0.000790,0.024357,-0.000044,  26.167
   862.0,0.001329,0.000801,0.023919,0.000009,  26.161
   863.0,0.001348,0.000820,0.022545,0.000036,  26.162
   864.0,0.001375,0.000837,0.023315,0.000049,  26.166
   865.0,0.001374,0.000843,0.023441,0.000049,  26.179
   866.0,0.001375,0.000850,0.023373,0.000023,  26.163
   867.0,0.001324,0.000806,0.023512,-0.000018,  26.160
   868.0,0.001343,0.000813,0.023310,0.000009,  26.165
   869.0,0.001357,0.000830,0.023069,0.000049,  26.164
   870.0,0.001361,0.000837,0.022931,0.000049,  26.162
   871.0,0.001351,0.000832,0.022254,0.000027,  26.174
   872.0,0.001358,0.000833,0.022320,-0.000022,  26.188
   873.0,0.001344,0.000829,0.022693,0.000036,  26.192
   874.0,0.001296,0.000797,0.022952,-0.000044,  26.182
   875.0,0.001252,0.000762,0.022962,-0.000058,  26.188
   876.0,0.001278,0.000782,0.022351,-0.000004,  26.194
   877.0,0.001307,0.000800,0.022251,0.000036,  26.198
   878.0,0.001321,0.000818,0.022336,0.000049,  26.201
   879.0,0.001326,0.000823,0.022255,0.000049,  26.211
   880.0,0.001316,0.000826,0.022273,0.000049,  26.203
   881.0,0.001270,0.000793,0.022279,0.000009,  26.204
   882.0,0.001281,0.000791,0.022074,0.000036,  26.207
   883.0,0.001288,0.000793,0.021697,0.000049,  26.211
   884.0,0.001293,0.000805,0.021338,0.000049,  26.215
   885.0,0.001301,0.000791,0.021458,0.000049,  26.222
   886.0,0.001293,0.000795,0.021517,0.000063,  26.224
   887.0,0.001285,0.000797,0.021355,0.000063,  26.224
   888.0,0.001238,0.000779,0.020213,-0.000004,  26.215
   889.0,0.001200,0.000733,0.020637,-0.000044,  26.210
   890.0,0.001215,0.000727,0.020873,0.000009,  26.209
   891.0,0.001236,0.000758,0.020464,0.000036,  26.201
   892.0,0.001242,0.000768,0.019817,0.000049,  26.199
   893.0,0.001258,0.000776,0.020360,0.000063,  26.201
   894.0,0.001252,0.000781,0.020459,0.000036,  26.185
   895.0,0.001204,0.000747,0.020649,-0.000031,  26.182
   896.0,0.001204,0.000741,0.020486,0.000009,  26.179
   897.0,0.001213,0.000758,0.020075,0.000036,  26.168
   898.0,0.001216,0.000772,0.019440,0.000036,  26.169
   899.0,0.001227,0.000762,0.018995,-0.000022,  26.172
   900.0,0.001227,0.000757,0.019686,0.000014,  26.182
   901.0,0.001219,0.000761,0.019776,0.000000,  26.191
   902.0,0.001173,0.000734,0.019983,-0.000075,  26.184
   903.0,0.001121,0.000688,0.020092,-0.000120,  26.184
   904.0,0.001141,0.000682,0.019984,-0.000075,  26.185
   905.0,0.001167,0.000712,0.019497,-0.000013,  26.185
   906.0,0.001184,0.000738,0.018683,0.000023,  26.187
   907.0,0.001192,0.000741,0.019148,0.000049,  26.197
   908.0,0.001195,0.000744,0.019233,0.000036,  26.187
   909.0,0.001151,0.000722,0.019408,-0.000031,  26.189
   910.0,0.001143,0.000712,0.019205,0.000009,  26.194
   911.0,0.001157,0.000729,0.018894,0.000036,  26.188
   912.0,0.001168,0.000742,0.018318,0.000049,  26.189
   913.0,0.001172,0.000741,0.018696,0.000049,  26.190
   914.0,0.001176,0.000742,0.018567,0.000063,  26.196
   915.0,0.001178,0.000754,0.018669,0.000063,  26.197
   916.0,0.001137,0.000735,0.018734,0.000009,  26.189
   917.0,0.001086,0.000691,0.018611,-0.000044,  26.187
   918.0,0.001091,0.000687,0.018625,-0.000018,  26.184
   919.0,0.001121,0.000706,0.017590,0.000049,  26.186
   920.0,0.001154,0.000721,0.017206,0.000014,  26.179
   921.0,0.001174,0.000747,0.017888,0.000049,  26.182
   922.0,0.001171,0.000759,0.018211,0.000049,  26.175
   923.0,0.001140,0.000755,0.017873,0.000000,  26.162
   924.0,0.001126,0.000722,0.018021,0.000000,  26.157
   925.0,0.001131,0.000726,0.017913,0.000014,  26.159
   926.0,0.001148,0.000731,0.017744,-0.000008,  26.155
   927.0,0.001148,0.000735,0.017311,0.000027,  26.153
   928.0,0.001145,0.000727,0.016957,0.000027,  26.160
   929.0,0.001131,0.000731,0.017391,0.000027,  26.172
   930.0,0.001104,0.000714,0.017568,0.000023,  26.171
   931.0,0.001040,0.000671,0.017170,-0.000031,  26.166
   932.0,0.001029,0.000659,0.017507,-0.000031,  26.171
   933.0,0.001074,0.000691,0.017357,0.000023,  26.180
   934.0,0.001109,0.000715,0.016667,0.000049,  26.190
   935.0,0.001119,0.000729,0.017146,0.000063,  26.201
   936.0,0.001125,0.000732,0.017079,0.000063,  26.198
   937.0,0.001101,0.000731,0.017282,0.000023,  26.198
   938.0,0.001060,0.000700,0.017195,0.000023,  26.210
   939.0,0.001086,0.000707,0.016860,0.000049,  26.216
   940.0,0.001090,0.000715,0.016815,0.000076,  26.226
   941.0,0.001093,0.000714,0.016796,0.000063,  26.237
   942.0,0.001105,0.000711,0.016523,0.000090,  26.239
   943.0,0.001096,0.000713,0.016312,0.000076,  26.250
   944.0,0.001078,0.000716,0.016516,0.000036,  26.248
   945.0,0.001030,0.000683,0.016677,0.000018,  26.246
   946.0,0.000996,0.000656,0.016640,-0.000004,  26.240
   947.0,0.001043,0.000676,0.016182,0.000000,  26.247
   948.0,0.001060,0.000698,0.016047,0.000112,  26.233
   949.0,0.001078,0.000707,0.016107,0.000076,  26.231
   950.0,0.001071,0.000695,0.016042,0.000054,  26.234
   951.0,0.001039,0.000691,0.015234,0.000014,  26.225
   952.0,0.000998,0.000652,0.015545,-0.000026,  26.225
   953.0,0.001004,0.000646,0.015361,-0.000049,  26.220
   954.0,0.001015,0.000646,0.015325,0.000000,  26.216
   955.0,0.001015,0.000653,0.015393,0.000014,  26.218
   956.0,0.001015,0.000654,0.014860,-0.000022,  26.219
   957.0,0.001021,0.000655,0.014864,0.000014,  26.225
   958.0,0.001014,0.000664,0.015068,-0.000022,  26.221
   959.0,0.000942,0.000627,0.015268,-0.000053,  26.212
   960.0,0.000911,0.000595,0.015445,-0.000067,  26.199
   961.0,0.000955,0.000616,0.014914,-0.000062,  26.195
   962.0,0.000974,0.000638,0.014734,0.000014,  26.201
   963.0,0.000996,0.000657,0.014200,0.000014,  26.195
   964.0,0.001008,0.000661,0.014230,0.000027,  26.203
   965.0,0.000996,0.000665,0.014570,0.000014,  26.189
   966.0,0.000963,0.000625,0.014632,-0.000062,  26.188
   967.0,0.000970,0.000642,0.014529,0.000014,  26.186
   968.0,0.000988,0.000648,0.014340,0.000027,  26.192
   969.0,0.001011,0.000664,0.014224,0.000049,  26.191
   970.0,0.001010,0.000668,0.014141,0.000063,  26.193
   971.0,0.001005,0.000659,0.013893,0.000063,  26.203
   972.0,0.000997,0.000664,0.013846,0.000023,  26.206
   973.0,0.000938,0.000634,0.014272,-0.000018,  26.201
   974.0,0.000885,0.000586,0.014274,-0.000067,  26.201
   975.0,0.000926,0.000605,0.014012,-0.000004,  26.203
   976.0,0.000961,0.000633,0.013850,0.000058,  26.214
   977.0,0.000983,0.000643,0.013765,0.000014,  26.219
   978.0,0.000979,0.000646,0.013689,0.000076,  26.228
   979.0,0.000985,0.000656,0.013557,0.000063,  26.219
   980.0,0.000941,0.000622,0.013654,0.000009,  26.215
   981.0,0.000940,0.000614,0.013454,0.000049,  26.209
   982.0,0.000964,0.000638,0.013302,0.000049,  26.196
   983.0,0.000974,0.000645,0.013366,0.000076,  26.199
   984.0,0.000968,0.000649,0.013269,0.000063,  26.196
   985.0,0.000983,0.000653,0.013162,0.000090,  26.201
   986.0,0.000967,0.000648,0.013165,0.000063,  26.204
   987.0,0.000904,0.000630,0.012896,-0.000004,  26.189
   988.0,0.000846,0.000588,0.012909,-0.000031,  26.189
   989.0,0.000889,0.000592,0.012972,0.000009,  26.187
   990.0,0.000921,0.000597,0.012781,0.000036,  26.186
   991.0,0.000931,0.000626,0.012864,0.000049,  26.182
   992.0,0.000938,0.000632,0.012833,0.000049,  26.193
   993.0,0.000946,0.000626,0.012717,0.000063,  26.182
   994.0,0.000903,0.000602,0.012217,0.000009,  26.188
   995.0,0.000889,0.000593,0.012404,0.000023,  26.185
   996.0,0.000910,0.000608,0.012434,0.000036,  26.184
   997.0,0.000926,0.000611,0.012238,0.000049,  26.191
   998.0,0.000926,0.000619,0.012020,0.000049,  26.195
   999.0,0.000920,0.000618,0.011929,0.000049,  26.198
  1000.0,0.000912,0.000618,0.011984,0.000027,  26.207
  1001.0,0.000873,0.000592,0.012160,-0.000026,  26.190
  1002.0,0.000803,0.000545,0.012284,-0.000080,  26.194
  1003.0,0.000821,0.000537,0.012121,-0.000053,  26.191
  1004.0,0.000859,0.000569,0.011895,-0.000013,  26.189
  1005.0,0.000879,0.000584,0.011823,0.000036,  26.187
  1006.0,0.000886,0.000604,0.010376,0.000049,  26.198
  1007.0,0.000903,0.000609,0.011334,0.000049,  26.189
  1008.0,0.000863,0.000594,0.011840,0.000036,  26.186
  1009.0,0.000854,0.000575,0.011700,0.000023,  26.188
  1010.0,0.000868,0.000594,0.011643,0.000049,  26.183
  1011.0,0.000878,0.000595,0.011508,0.000049,  26.182
  1012.0,0.000884,0.000599,0.011531,0.000049,  26.181
  1013.0,0.000878,0.000598,0.011351,0.000085,  26.184
  1014.0,0.000878,0.000602,0.011316,0.000072,  26.189
  1015.0,0.000840,0.000591,0.011363,0.000045,  26.180
  1016.0,0.000789,0.000539,0.011547,-0.000036,  26.177
  1017.0,0.000779,0.000525,0.011411,0.000018,  26.178
  1018.0,0.000817,0.000555,0.011446,0.000072,  26.173
  1019.0,0.000840,0.000576,0.011178,0.000072,  26.169
  1020.0,0.000862,0.000587,0.011151,0.000014,  26.181
  1021.0,0.000864,0.000591,0.010965,0.000049,  26.176
  1022.0,0.000833,0.000587,0.011065,0.000023,  26.164
  1023.0,0.000815,0.000559,0.010890,0.000023,  26.169
  1024.0,0.000839,0.000574,0.010716,0.000049,  26.167
  1025.0,0.000852,0.000583,0.010574,0.000049,  26.165
  1026.0,0.000854,0.000587,0.009500,0.000063,  26.167
  1027.0,0.000859,0.000586,0.009000,0.000063,  26.174
  1028.0,0.000865,0.000599,0.010044,0.000063,  26.184
  1029.0,0.000834,0.000587,0.010422,0.000023,  26.186
  1030.0,0.000776,0.000553,0.010600,-0.000058,  26.173
  1031.0,0.000769,0.000517,0.010589,-0.000044,  26.172
  1032.0,0.000800,0.000546,0.010306,0.000009,  26.172
  1033.0,0.000827,0.000571,0.010251,0.000036,  26.175
  1034.0,0.000836,0.000578,0.010299,0.000049,  26.180
  1035.0,0.000845,0.000586,0.009997,0.000036,  26.189
  1036.0,0.000829,0.000582,0.009221,0.000058,  26.173
  1037.0,0.000785,0.000561,0.009891,0.000045,  26.172
  1038.0,0.000816,0.000567,0.009918,0.000072,  26.175
  1039.0,0.000828,0.000577,0.009062,0.000049,  26.183
  1040.0,0.000828,0.000573,0.009695,0.000076,  26.180
  1041.0,0.000833,0.000580,0.009815,0.000063,  26.185
  1042.0,0.000837,0.000580,0.009839,0.000063,  26.189
  1043.0,0.000821,0.000575,0.009682,0.000023,  26.189
  1044.0,0.000758,0.000532,0.009752,-0.000067,  26.171
  1045.0,0.000728,0.000496,0.009720,-0.000071,  26.166
  1046.0,0.000760,0.000522,0.009618,0.000009,  26.154
  1047.0,0.000791,0.000545,0.009441,0.000036,  26.156
  1048.0,0.000818,0.000572,0.009548,0.000085,  26.150
  1049.0,0.000837,0.000582,0.009450,0.000099,  26.162
  1050.0,0.000819,0.000577,0.009602,0.000072,  26.145
  1051.0,0.000788,0.000550,0.009687,0.000072,  26.140
  1052.0,0.000806,0.000557,0.009381,0.000085,  26.139
  1053.0,0.000823,0.000575,0.009369,0.000041,  26.139
  1054.0,0.000822,0.000576,0.009202,0.000076,  26.146
  1055.0,0.000826,0.000573,0.009233,0.000076,  26.143
  1056.0,0.000823,0.000575,0.009265,0.000063,  26.154
  1057.0,0.000816,0.000588,0.009267,0.000049,  26.154
  1058.0,0.000750,0.000557,0.009284,-0.000004,  26.132
  1059.0,0.000716,0.000512,0.009255,-0.000071,  26.129
  1060.0,0.000756,0.000530,0.009168,0.000009,  26.133
  1061.0,0.000785,0.000558,0.008985,0.000049,  26.127
  1062.0,0.000811,0.000570,0.008981,0.000063,  26.127
  1063.0,0.000819,0.000575,0.008940,0.000063,  26.141
  1064.0,0.000805,0.000576,0.008981,0.000049,  26.121
  1065.0,0.000761,0.000548,0.009129,0.000023,  26.111
  1066.0,0.000770,0.000536,0.008520,0.000036,  26.112
  1067.0,0.000792,0.000558,0.007321,0.000063,  26.118
  1068.0,0.000809,0.000567,0.008210,0.000063,  26.118
  1069.0,0.000814,0.000571,0.008491,0.000063,  26.133
  1070.0,0.000821,0.000579,0.008470,0.000063,  26.144
  1071.0,0.000814,0.000583,0.008617,0.000027,  26.149
  1072.0,0.000751,0.000544,0.008745,0.000009,  26.145
  1073.0,0.000692,0.000498,0.008674,-0.000058,  26.139
  1074.0,0.000723,0.000507,0.008389,0.000009,  26.141
  1075.0,0.000763,0.000533,0.008226,0.000049,  26.146
  1076.0,0.000778,0.000549,0.007933,0.000049,  26.146
  1077.0,0.000791,0.000559,0.008012,0.000063,  26.162
  1078.0,0.000794,0.000560,0.008258,0.000036,  26.156
  1079.0,0.000751,0.000535,0.008433,0.000023,  26.158
  1080.0,0.000759,0.000538,0.008244,0.000049,  26.161
  1081.0,0.000774,0.000553,0.008193,0.000049,  26.172
  1082.0,0.000791,0.000554,0.008191,0.000054,  26.177
  1083.0,0.000792,0.000562,0.008055,0.000041,  26.179
  1084.0,0.000807,0.000566,0.007536,0.000027,  26.185
  1085.0,0.000804,0.000577,0.007552,-0.000008,  26.184
  1086.0,0.000768,0.000561,0.008102,-0.000026,  26.183
  1087.0,0.000700,0.000500,0.008417,-0.000094,  26.179
  1088.0,0.000725,0.000509,0.008170,-0.000075,  26.182
  1089.0,0.000776,0.000545,0.008084,0.000000,  26.178
  1090.0,0.000791,0.000556,0.007993,-0.000022,  26.176
  1091.0,0.000793,0.000561,0.007939,0.000027,  26.179
  1092.0,0.000792,0.000569,0.007869,0.000027,  26.176
  1093.0,0.000744,0.000552,0.006638,-0.000035,  26.170
  1094.0,0.000757,0.000536,0.007375,0.000014,  26.170
  1095.0,0.000774,0.000557,0.007654,0.000063,  26.164
  1096.0,0.000792,0.000566,0.007695,0.000063,  26.166
  1097.0,0.000789,0.000573,0.006503,0.000063,  26.168
  1098.0,0.000795,0.000575,0.006609,0.000076,  26.179
  1099.0,0.000785,0.000581,0.007442,0.000063,  26.184
  1100.0,0.000747,0.000557,0.007804,0.000009,  26.182
  1101.0,0.000690,0.000514,0.007826,-0.000044,  26.175
  1102.0,0.000703,0.000498,0.005929,-0.000004,  26.178
  1103.0,0.000756,0.000526,0.006886,0.000036,  26.178
  1104.0,0.000775,0.000551,0.007360,0.000063,  26.182
  1105.0,0.000783,0.000567,0.007594,0.000085,  26.188
  1106.0,0.000787,0.000572,0.007529,0.000099,  26.191
  1107.0,0.000754,0.000561,0.007629,0.000072,  26.186
  1108.0,0.000748,0.000539,0.007464,0.000072,  26.191
  1109.0,0.000765,0.000553,0.007428,0.000085,  26.193
  1110.0,0.000781,0.000562,0.007032,0.000041,  26.191
  1111.0,0.000794,0.000567,0.007084,0.000063,  26.197
  1112.0,0.000792,0.000564,0.007259,0.000099,  26.200
  1113.0,0.000788,0.000570,0.007145,0.000085,  26.214
  1114.0,0.000760,0.000562,0.006939,0.000045,  26.220
  1115.0,0.000693,0.000511,0.007305,-0.000009,  26.207
  1116.0,0.000701,0.000498,0.007273,0.000005,  26.207
  1117.0,0.000750,0.000523,0.007241,0.000058,  26.216
  1118.0,0.000767,0.000546,0.007148,0.000085,  26.212
  1119.0,0.000779,0.000561,0.007176,0.000085,  26.216
  1120.0,0.000792,0.000571,0.006136,0.000112,  26.222
  1121.0,0.000767,0.000562,0.007010,0.000072,  26.211
  1122.0,0.000742,0.000531,0.007215,0.000045,  26.215
  1123.0,0.000759,0.000545,0.007092,0.000099,  26.219
  1124.0,0.000779,0.000554,0.007088,0.000085,  26.213
  1125.0,0.000787,0.000563,0.006777,0.000054,  26.214
  1126.0,0.000792,0.000573,0.006687,0.000076,  26.220
  1127.0,0.000784,0.000573,0.006246,0.000076,  26.224
  1128.0,0.000769,0.000575,0.005817,0.000049,  26.220
  1129.0,0.000692,0.000526,0.006786,-0.000018,  26.218
  1130.0,0.000684,0.000497,0.007074,-0.000004,  26.216
  1131.0,0.000725,0.000525,0.007059,0.000036,  26.212
  1132.0,0.000752,0.000544,0.006543,0.000063,  26.212
  1133.0,0.000768,0.000564,0.006471,0.000076,  26.214
  1134.0,0.000774,0.000564,0.006379,0.000076,  26.225
  1135.0,0.000763,0.000568,0.006874,0.000049,  26.214
  1136.0,0.000744,0.000533,0.005993,0.000036,  26.219
  1137.0,0.000764,0.000555,0.006487,0.000076,  26.218
  1138.0,0.000781,0.000565,0.006614,0.000063,  26.222
  1139.0,0.000787,0.000578,0.006690,0.000063,  26.226
  1140.0,0.000790,0.000569,0.006726,0.000063,  26.224
  1141.0,0.000787,0.000565,0.006679,0.000054,  26.240
  1142.0,0.000777,0.000568,0.006742,0.000027,  26.240
  1143.0,0.000699,0.000523,0.006878,-0.000031,  26.230
  1144.0,0.000667,0.000484,0.007012,-0.000058,  26.223
  1145.0,0.000710,0.000503,0.006699,-0.000004,  26.233
  1146.0,0.000734,0.000532,0.005819,0.000036,  26.229
  1147.0,0.000758,0.000551,0.006223,0.000049,  26.238
  1148.0,0.000762,0.000562,0.006458,0.000085,  26.245
  1149.0,0.000758,0.000566,0.006460,0.000072,  26.239
  1150.0,0.000728,0.000538,0.005744,0.000045,  26.238
  1151.0,0.000740,0.000535,0.006162,0.000072,  26.241
  1152.0,0.000761,0.000560,0.006358,0.000085,  26.245
  1153.0,0.000757,0.000554,0.006383,0.000085,  26.244
  1154.0,0.000755,0.000552,0.006406,0.000085,  26.243
  1155.0,0.000766,0.000555,0.006852,0.000085,  26.248
  1156.0,0.000755,0.000555,0.006646,0.000085,  26.245
  1157.0,0.000712,0.000527,0.006733,-0.000031,  26.244
  1158.0,0.000665,0.000480,0.006674,-0.000009,  26.247
  1159.0,0.000698,0.000508,0.006514,0.000045,  26.250
  1160.0,0.000745,0.000544,0.006485,0.000072,  26.263
  1161.0,0.000762,0.000558,0.006350,0.000085,  26.263
  1162.0,0.000775,0.000562,0.006426,0.000099,  26.270
  1163.0,0.000776,0.000568,0.005789,0.000049,  26.272
  1164.0,0.000734,0.000533,0.006242,0.000023,  26.274
  1165.0,0.000747,0.000525,0.006155,0.000023,  26.277
  1166.0,0.000765,0.000550,0.006264,0.000049,  26.273
  1167.0,0.000769,0.000553,0.006362,0.000049,  26.277
  1168.0,0.000778,0.000564,0.006237,0.000063,  26.276
  1169.0,0.000778,0.000568,0.006063,0.000063,  26.281
  1170.0,0.000774,0.000571,0.005658,0.000049,  26.286
  1171.0,0.000724,0.000541,0.006137,0.000054,  26.281
  1172.0,0.000673,0.000492,0.006486,-0.000094,  26.279
  1173.0,0.000705,0.000497,0.006409,0.000009,  26.276
  1174.0,0.000741,0.000538,0.006426,0.000049,  26.275
  1175.0,0.000762,0.000559,0.006324,0.000049,  26.271
  1176.0,0.000779,0.000555,0.006291,0.000049,  26.276
  1177.0,0.000783,0.000572,0.006376,0.000049,  26.273
  1178.0,0.000738,0.000550,0.005999,-0.000004,  26.275
  1179.0,0.000747,0.000534,0.005918,0.000009,  26.277
  1180.0,0.000775,0.000559,0.006080,0.000049,  26.280
  1181.0,0.000778,0.000568,0.006114,0.000049,  26.282
  1182.0,0.000784,0.000561,0.006062,0.000049,  26.280
  1183.0,0.000785,0.000573,0.005993,0.000049,  26.287
  1184.0,0.000791,0.000572,0.005928,0.000049,  26.295
  1185.0,0.000744,0.000553,0.006059,-0.000004,  26.295
  1186.0,0.000678,0.000507,0.006288,-0.000058,  26.293
  1187.0,0.000699,0.000498,0.006260,-0.000018,  26.292
  1188.0,0.000750,0.000541,0.006234,0.000036,  26.299
  1189.0,0.000769,0.000569,0.006169,0.000063,  26.297
  1190.0,0.000797,0.000573,0.006219,0.000063,  26.298
  1191.0,0.000791,0.000579,0.006112,0.000049,  26.294
  1192.0,0.000761,0.000561,0.006258,-0.000018,  26.300
  1193.0,0.000757,0.000555,0.006158,0.000023,  26.288
  1194.0,0.000779,0.000568,0.005960,0.000036,  26.290
  1195.0,0.000796,0.000579,0.006088,0.000014,  26.292
  1196.0,0.000793,0.000579,0.005977,0.000049,  26.284
  1197.0,0.000785,0.000574,0.005373,0.000072,  26.285
  1198.0,0.000791,0.000578,0.005884,0.000072,  26.293
  1199.0,0.000755,0.000563,0.005867,-0.000026,  26.291
  1200.0,0.000680,0.000517,0.003834,-0.000085,  26.279
  1201.0,0.000696,0.000508,0.005012,-0.000004,  26.274
  1202.0,0.000748,0.000541,0.005616,0.000023,  26.272
  1203.0,0.000768,0.000558,0.005616,0.000023,  26.275
  1204.0,0.000781,0.000572,0.005764,0.000049,  26.277
  1205.0,0.000784,0.000582,0.005578,0.000036,  26.285
  1206.0,0.000759,0.000570,0.005938,0.000023,  26.273
  1207.0,0.000754,0.000546,0.006060,0.000009,  26.272
  1208.0,0.000774,0.000567,0.005917,0.000023,  26.268
  1209.0,0.000793,0.000585,0.004740,0.000036,  26.270
  1210.0,0.000810,0.000589,0.005639,0.000049,  26.273
  1211.0,0.000804,0.000589,0.005861,0.000045,  26.271
  1212.0,0.000812,0.000594,0.005947,0.000085,  26.278
  1213.0,0.000798,0.000580,0.004497,0.000058,  26.286
  1214.0,0.000730,0.000538,0.005550,-0.000009,  26.268
  1215.0,0.000706,0.000522,0.006068,0.000005,  26.270
  1216.0,0.000762,0.000549,0.006055,0.000045,  26.268
  1217.0,0.000797,0.000571,0.006346,0.000014,  26.274
  1218.0,0.000814,0.000587,0.004884,0.000063,  26.277
  1219.0,0.000825,0.000600,0.005619,0.000049,  26.293
  1220.0,0.000815,0.000592,0.005978,0.000036,  26.278
  1221.0,0.000778,0.000564,0.005826,0.000009,  26.276
  1222.0,0.000804,0.000581,0.006005,-0.000013,  26.282
  1223.0,0.000816,0.000594,0.005994,0.000049,  26.289
  1224.0,0.000821,0.000604,0.006010,0.000049,  26.292
  1225.0,0.000825,0.000598,0.005974,0.000049,  26.293
  1226.0,0.000824,0.000592,0.005744,0.000049,  26.300
  1227.0,0.000809,0.000606,0.004606,0.000023,  26.295
  1228.0,0.000747,0.000563,0.005780,-0.000031,  26.282
  1229.0,0.000709,0.000523,0.006021,-0.000044,  26.284
  1230.0,0.000768,0.000558,0.005942,0.000009,  26.279
  1231.0,0.000801,0.000585,0.006016,0.000036,  26.283
  1232.0,0.000826,0.000597,0.005982,0.000036,  26.282
  1233.0,0.000843,0.000608,0.006151,0.000049,  26.290
  1234.0,0.000826,0.000607,0.006055,0.000049,  26.281
  1235.0,0.000796,0.000586,0.006017,0.000009,  26.278
  1236.0,0.000814,0.000594,0.005920,0.000023,  26.284
  1237.0,0.000831,0.000602,0.005998,0.000036,  26.283
  1238.0,0.000837,0.000611,0.005148,0.000023,  26.292
  1239.0,0.000842,0.000618,0.005745,0.000049,  26.294
  1240.0,0.000841,0.000616,0.005284,0.000049,  26.301
  1241.0,0.000838,0.000620,0.005769,0.000036,  26.303
  1242.0,0.000774,0.000575,0.006255,-0.000018,  26.294
  1243.0,0.000728,0.000545,0.006297,-0.000044,  26.294
  1244.0,0.000788,0.000568,0.006125,-0.000004,  26.297
  1245.0,0.000824,0.000588,0.006065,0.000023,  26.299
  1246.0,0.000831,0.000608,0.005999,0.000036,  26.302
  1247.0,0.000849,0.000623,0.005630,0.000049,  26.311
  1248.0,0.000843,0.000625,0.005594,0.000036,  26.309
  1249.0,0.000811,0.000589,0.005963,-0.000026,  26.306
  1250.0,0.000832,0.000598,0.005850,0.000049,  26.311
  1251.0,0.000851,0.000619,0.006033,0.000049,  26.313
  1252.0,0.000860,0.000628,0.006001,0.000085,  26.312
  1253.0,0.000860,0.000628,0.005825,0.000085,  26.312
  1254.0,0.000859,0.000631,0.005952,0.000072,  26.325
  1255.0,0.000865,0.000628,0.006147,0.000072,  26.332
  1256.0,0.000805,0.000601,0.006324,0.000005,  26.326
  1257.0,0.000747,0.000551,0.005925,-0.000036,  26.321
  1258.0,0.000785,0.000571,0.005799,0.000031,  26.320
  1259.0,0.000846,0.000605,0.005974,0.000045,  26.320
  1260.0,0.000869,0.000627,0.005744,-0.000013,  26.324
  1261.0,0.000867,0.000630,0.005498,0.000036,  26.334
  1262.0,0.000858,0.000637,0.005846,0.000023,  26.329
  1263.0,0.000826,0.000610,0.006204,-0.000004,  26.325
  1264.0,0.000825,0.000594,0.006113,0.000054,  26.328
  1265.0,0.000851,0.000617,0.006210,0.000045,  26.330
  1266.0,0.000871,0.000625,0.006270,0.000045,  26.328
  1267.0,0.000871,0.000634,0.006092,0.000058,  26.327
  1268.0,0.000880,0.000638,0.006105,0.000058,  26.334
  1269.0,0.000885,0.000640,0.005667,0.000072,  26.340
  1270.0,0.000831,0.000621,0.006087,-0.000009,  26.339
  1271.0,0.000773,0.000570,0.005907,-0.000098,  26.331
  1272.0,0.000809,0.000557,0.005519,-0.000018,  26.327
  1273.0,0.000852,0.000604,0.005912,0.000023,  26.332
  1274.0,0.000883,0.000628,0.005505,0.000036,  26.332
  1275.0,0.000897,0.000648,0.006016,0.000036,  26.338
  1276.0,0.000902,0.000651,0.006142,0.000049,  26.338
  1277.0,0.000866,0.000629,0.006242,0.000023,  26.335
  1278.0,0.000858,0.000612,0.006222,0.000023,  26.331
  1279.0,0.000890,0.000638,0.006179,0.000023,  26.337
  1280.0,0.000896,0.000651,0.005431,0.000036,  26.337
  1281.0,0.000896,0.000655,0.005928,0.000036,  26.342
  1282.0,0.000910,0.000656,0.006152,0.000049,  26.346
  1283.0,0.000902,0.000652,0.006012,0.000049,  26.358
  1284.0,0.000874,0.000646,0.005266,-0.000004,  26.358
  1285.0,0.000799,0.000598,0.004838,-0.000085,  26.341
  1286.0,0.000809,0.000584,0.005830,-0.000058,  26.338
  1287.0,0.000869,0.000626,0.006054,0.000009,  26.342
  1288.0,0.000891,0.000646,0.006171,0.000023,  26.342
  1289.0,0.000904,0.000654,0.006168,0.000036,  26.345
  1290.0,0.000923,0.000671,0.006198,0.000036,  26.358
  1291.0,0.000899,0.000658,0.006459,-0.000004,  26.345
  1292.0,0.000882,0.000634,0.006393,-0.000013,  26.345
  1293.0,0.000906,0.000653,0.006270,0.000023,  26.350
  1294.0,0.000924,0.000661,0.006237,0.000023,  26.344
  1295.0,0.000923,0.000661,0.006282,0.000023,  26.346
  1296.0,0.000922,0.000667,0.005959,0.000036,  26.350
  1297.0,0.000922,0.000669,0.005509,0.000023,  26.366
  1298.0,0.000887,0.000663,0.005097,0.000031,  26.369
  1299.0,0.000827,0.000608,0.006026,-0.000120,  26.358
  1300.0,0.000825,0.000585,0.006392,-0.000071,  26.354
  1301.0,0.000878,0.000622,0.006269,-0.000018,  26.357
  1302.0,0.000905,0.000647,0.006254,-0.000004,  26.359
  1303.0,0.000934,0.000662,0.006256,0.000023,  26.367
  1304.0,0.000947,0.000674,0.005988,0.000036,  26.372
  1305.0,0.000918,0.000668,0.005460,0.000009,  26.364
  1306.0,0.000903,0.000647,0.005803,0.000023,  26.363
  1307.0,0.000926,0.000659,0.004920,0.000023,  26.365
  1308.0,0.000944,0.000675,0.005907,0.000045,  26.371
  1309.0,0.000947,0.000679,0.006287,0.000058,  26.372
  1310.0,0.000946,0.000679,0.005844,0.000058,  26.372
  1311.0,0.000957,0.000691,0.006371,0.000058,  26.380
  1312.0,0.000947,0.000687,0.006487,0.000058,  26.392
  1313.0,0.000872,0.000642,0.005750,-0.000036,  26.377
  1314.0,0.000863,0.000615,0.006062,-0.000036,  26.376
  1315.0,0.000914,0.000641,0.006472,0.000005,  26.377
  1316.0,0.000942,0.000668,0.006400,0.000031,  26.385
  1317.0,0.000959,0.000686,0.006516,0.000058,  26.387
  1318.0,0.000969,0.000703,0.006471,0.000072,  26.397
  1319.0,0.000965,0.000694,0.006571,0.000031,  26.391
  1320.0,0.000924,0.000666,0.006649,0.000031,  26.399
  1321.0,0.000951,0.000684,0.006579,0.000031,  26.395
  1322.0,0.000972,0.000697,0.006701,0.000058,  26.399
  1323.0,0.000978,0.000697,0.006566,0.000072,  26.396
  1324.0,0.000976,0.000707,0.006672,0.000058,  26.403
  1325.0,0.000982,0.000717,0.006654,0.000058,  26.407
  1326.0,0.000965,0.000715,0.006567,0.000045,  26.414
  1327.0,0.000909,0.000666,0.006879,-0.000036,  26.409
  1328.0,0.000866,0.000631,0.006392,-0.000049,  26.407
  1329.0,0.000919,0.000661,0.006483,0.000005,  26.410
  1330.0,0.000959,0.000680,0.005305,-0.000040,  26.411
  1331.0,0.000976,0.000695,0.006207,0.000058,  26.410
  1332.0,0.000994,0.000705,0.006583,0.000058,  26.415
  1333.0,0.001003,0.000716,0.006673,0.000045,  26.408
  1334.0,0.000962,0.000685,0.006710,0.000031,  26.411
  1335.0,0.000979,0.000692,0.005007,0.000045,  26.414
  1336.0,0.001008,0.000714,0.005917,0.000058,  26.412
  1337.0,0.001005,0.000723,0.006257,0.000072,  26.412
  1338.0,0.001013,0.000724,0.006526,0.000058,  26.411
  1339.0,0.001019,0.000729,0.006680,0.000058,  26.418
  1340.0,0.001013,0.000744,0.006780,0.000045,  26.423
  1341.0,0.000960,0.000699,0.006895,0.000005,  26.412
  1342.0,0.000919,0.000660,0.007053,-0.000076,  26.407
  1343.0,0.000956,0.000685,0.006926,0.000027,  26.410
  1344.0,0.001006,0.000711,0.006821,0.000031,  26.411
  1345.0,0.001018,0.000720,0.006789,0.000045,  26.413
  1346.0,0.001037,0.000751,0.006785,0.000072,  26.418
  1347.0,0.001047,0.000758,0.007006,0.000072,  26.417
  1348.0,0.001000,0.000740,0.005405,0.000031,  26.415
  1349.0,0.001026,0.000739,0.006251,0.000058,  26.414
  1350.0,0.001049,0.000755,0.006127,0.000058,  26.422
  1351.0,0.001048,0.000755,0.006704,0.000072,  26.419
  1352.0,0.001059,0.000760,0.007042,0.000000,  26.414
  1353.0,0.001058,0.000764,0.007295,0.000049,  26.429
  1354.0,0.001070,0.000775,0.007112,0.000058,  26.430
  1355.0,0.001034,0.000744,0.007309,0.000018,  26.426
  1356.0,0.000966,0.000698,0.007409,0.000000,  26.414
  1357.0,0.000993,0.000706,0.007223,0.000005,  26.416
  1358.0,0.001039,0.000737,0.007157,0.000045,  26.420
  1359.0,0.001048,0.000750,0.007127,0.000045,  26.423
  1360.0,0.001067,0.000759,0.006588,0.000058,  26.424
  1361.0,0.001067,0.000762,0.006715,0.000085,  26.425
  1362.0,0.001029,0.000747,0.007118,0.000031,  26.425
  1363.0,0.001052,0.000745,0.007157,0.000072,  26.417
  1364.0,0.001061,0.000762,0.007226,0.000085,  26.419
  1365.0,0.001077,0.000769,0.006920,0.000085,  26.422
  1366.0,0.001084,0.000774,0.006971,0.000049,  26.422
  1367.0,0.001095,0.000787,0.006994,0.000049,  26.427
  1368.0,0.001103,0.000793,0.007249,0.000049,  26.436
  1369.0,0.001059,0.000772,0.007309,-0.000004,  26.434
  1370.0,0.000992,0.000731,0.006699,-0.000071,  26.426
  1371.0,0.001021,0.000712,0.007098,-0.000044,  26.427
  1372.0,0.001055,0.000751,0.007263,0.000009,  26.428
  1373.0,0.001079,0.000771,0.007212,0.000023,  26.434
  1374.0,0.001091,0.000777,0.006146,0.000049,  26.437
  1375.0,0.001096,0.000788,0.007102,0.000023,  26.444
  1376.0,0.001069,0.000769,0.007303,-0.000004,  26.435
  1377.0,0.001063,0.000759,0.007352,-0.000018,  26.443
  1378.0,0.001089,0.000779,0.006885,0.000009,  26.449
  1379.0,0.001115,0.000785,0.007089,0.000094,  26.451
  1380.0,0.001117,0.000791,0.005991,0.000036,  26.454
  1381.0,0.001123,0.000800,0.006888,0.000023,  26.463
  1382.0,0.001125,0.000804,0.007266,0.000023,  26.463
  1383.0,0.001096,0.000789,0.006845,-0.000004,  26.467
  1384.0,0.001038,0.000748,0.006942,-0.000094,  26.464
  1385.0,0.001040,0.000740,0.007263,-0.000031,  26.460
  1386.0,0.001093,0.000776,0.007443,0.000009,  26.462
  1387.0,0.001118,0.000794,0.007230,0.000023,  26.459
  1388.0,0.001132,0.000807,0.006993,0.000049,  26.460
  1389.0,0.001136,0.000809,0.007368,0.000036,  26.462
  1390.0,0.001129,0.000801,0.007428,0.000080,  26.456
  1391.0,0.001101,0.000777,0.007352,0.000031,  26.453
  1392.0,0.001131,0.000793,0.007571,0.000058,  26.453
  1393.0,0.001146,0.000804,0.007680,0.000072,  26.453
  1394.0,0.001145,0.000809,0.007629,0.000072,  26.451
  1395.0,0.001148,0.000813,0.007247,0.000085,  26.458
  1396.0,0.001160,0.000811,0.007309,0.000014,  26.462
  1397.0,0.001142,0.000813,0.007648,-0.000004,  26.470
  1398.0,0.001066,0.000775,0.007895,-0.000058,  26.460
  1399.0,0.001060,0.000749,0.007855,-0.000031,  26.460
  1400.0,0.001109,0.000787,0.007775,0.000009,  26.463
  1401.0,0.001140,0.000808,0.007639,0.000049,  26.465
  1402.0,0.001163,0.000809,0.007717,0.000036,  26.467
  1403.0,0.001171,0.000828,0.007697,0.000049,  26.474
  1404.0,0.001158,0.000828,0.007795,0.000036,  26.472
  1405.0,0.001137,0.000800,0.007525,0.000009,  26.473
  1406.0,0.001178,0.000824,0.007511,0.000049,  26.475
  1407.0,0.001189,0.000841,0.007811,0.000049,  26.485
  1408.0,0.001192,0.000839,0.007910,0.000049,  26.492
  1409.0,0.001191,0.000840,0.007857,0.000049,  26.489
  1410.0,0.001201,0.000853,0.007909,0.000049,  26.494
  1411.0,0.001191,0.000850,0.007989,0.000036,  26.503
  1412.0,0.001127,0.000809,0.008103,-0.000018,  26.495
  1413.0,0.001096,0.000771,0.008153,-0.000031,  26.501
  1414.0,0.001145,0.000801,0.008068,0.000009,  26.502
  1415.0,0.001171,0.000827,0.007984,0.000036,  26.508
  1416.0,0.001194,0.000842,0.006637,0.000036,  26.507
  1417.0,0.001204,0.000842,0.007610,0.000121,  26.514
  1418.0,0.001191,0.000847,0.007996,0.000072,  26.512
  1419.0,0.001161,0.000821,0.008212,0.000018,  26.515
  1420.0,0.001176,0.000830,0.008077,0.000072,  26.514
  1421.0,0.001194,0.000841,0.008090,0.000023,  26.518
  1422.0,0.001202,0.000845,0.008105,0.000094,  26.525
  1423.0,0.001201,0.000850,0.007926,0.000072,  26.525
  1424.0,0.001201,0.000856,0.007070,0.000072,  26.520
  1425.0,0.001205,0.000867,0.007332,0.000072,  26.523
  1426.0,0.001142,0.000826,0.008056,0.000005,  26.523
  1427.0,0.001107,0.000792,0.007822,-0.000009,  26.524
  1428.0,0.001162,0.000814,0.008026,0.000031,  26.517
  1429.0,0.001192,0.000834,0.007366,0.000058,  26.515
  1430.0,0.001216,0.000851,0.007718,0.000058,  26.517
  1431.0,0.001226,0.000857,0.008021,0.000014,  26.511
  1432.0,0.001220,0.000867,0.008058,0.000036,  26.507
  1433.0,0.001192,0.000850,0.008394,-0.000004,  26.498
  1434.0,0.001204,0.000849,0.008257,0.000023,  26.491
  1435.0,0.001224,0.000856,0.008255,0.000036,  26.492
  1436.0,0.001235,0.000873,0.007861,0.000121,  26.488
  1437.0,0.001240,0.000878,0.008129,0.000085,  26.488
  1438.0,0.001243,0.000878,0.007874,0.000072,  26.487
  1439.0,0.001242,0.000893,0.007916,0.000049,  26.491
  1440.0,0.001194,0.000857,0.008466,-0.000031,  26.482
  1441.0,0.001139,0.000814,0.008570,-0.000071,  26.472
  1442.0,0.001182,0.000817,0.008442,-0.000004,  26.476
  1443.0,0.001222,0.000847,0.006227,0.000009,  26.471
  1444.0,0.001245,0.000860,0.007421,0.000023,  26.469
  1445.0,0.001256,0.000883,0.008143,0.000036,  26.480
  1446.0,0.001267,0.000888,0.007929,0.000023,  26.476
  1447.0,0.001242,0.000879,0.008230,-0.000004,  26.474
  1448.0,0.001246,0.000878,0.008276,0.000023,  26.479
  1449.0,0.001270,0.000892,0.008372,0.000049,  26.472
  1450.0,0.001280,0.000902,0.008229,0.000049,  26.476
  1451.0,0.001284,0.000896,0.008478,0.000063,  26.474
  1452.0,0.001282,0.000902,0.007949,0.000063,  26.478
  1453.0,0.001281,0.000915,0.008294,0.000049,  26.484
  1454.0,0.001245,0.000890,0.008669,0.000009,  26.481
  1455.0,0.001183,0.000842,0.008809,-0.000031,  26.475
  1456.0,0.001201,0.000840,0.008719,-0.000018,  26.465
  1457.0,0.001242,0.000869,0.008592,0.000023,  26.462
  1458.0,0.001268,0.000887,0.008567,0.000049,  26.465
  1459.0,0.001286,0.000903,0.008584,0.000036,  26.464
  1460.0,0.001289,0.000918,0.008555,0.000121,  26.468
  1461.0,0.001265,0.000905,0.008743,0.000058,  26.466
  1462.0,0.001263,0.000899,0.008325,0.000067,  26.464
  1463.0,0.001278,0.000902,0.008285,0.000058,  26.464
  1464.0,0.001291,0.000901,0.008185,0.000072,  26.472
  1465.0,0.001302,0.000912,0.008401,0.000072,  26.468
  1466.0,0.001300,0.000918,0.008559,0.000085,  26.473
  1467.0,0.001313,0.000917,0.008650,0.000072,  26.483
  1468.0,0.001286,0.000913,0.008689,0.000058,  26.480
  1469.0,0.001229,0.000868,0.007691,-0.000036,  26.477
  1470.0,0.001236,0.000849,0.008397,0.000005,  26.475
  1471.0,0.001276,0.000889,0.008635,0.000045,  26.474
  1472.0,0.001299,0.000913,0.008662,0.000036,  26.471
  1473.0,0.001336,0.000932,0.008121,0.000049,  26.477
  1474.0,0.001337,0.000947,0.008481,0.000049,  26.477
  1475.0,0.001312,0.000933,0.008738,0.000023,  26.469
  1476.0,0.001298,0.000916,0.008758,0.000023,  26.468
  1477.0,0.001321,0.000918,0.008459,0.000036,  26.466
  1478.0,0.001330,0.000930,0.008691,0.000036,  26.461
  1479.0,0.001344,0.000938,0.008714,0.000049,  26.472
  1480.0,0.001338,0.000937,0.008891,0.000085,  26.475
  1481.0,0.001339,0.000931,0.008795,0.000085,  26.485
  1482.0,0.001329,0.000936,0.008952,0.000045,  26.484
  1483.0,0.001254,0.000887,0.009054,-0.000036,  26.479
  1484.0,0.001248,0.000868,0.009025,-0.000009,  26.481
  1485.0,0.001296,0.000899,0.008899,-0.000004,  26.478
  1486.0,0.001324,0.000920,0.008856,0.000023,  26.474
  1487.0,0.001357,0.000938,0.008984,0.000049,  26.479
  1488.0,0.001359,0.000954,0.009030,0.000085,  26.486
  1489.0,0.001346,0.000949,0.008733,0.000031,  26.479
  1490.0,0.001314,0.000926,0.008984,0.000045,  26.472
  1491.0,0.001330,0.000929,0.008898,0.000072,  26.474
  1492.0,0.001351,0.000942,0.009022,0.000085,  26.476
  1493.0,0.001355,0.000945,0.008914,0.000085,  26.477
  1494.0,0.001363,0.000954,0.008994,0.000085,  26.479
  1495.0,0.001374,0.000953,0.009006,0.000085,  26.483
  1496.0,0.001345,0.000952,0.008969,0.000085,  26.485
  1497.0,0.001292,0.000914,0.009274,0.000018,  26.476
  1498.0,0.001277,0.000885,0.009260,0.000005,  26.473
  1499.0,0.001319,0.000910,0.008775,0.000058,  26.480
  1500.0,0.001356,0.000947,0.007857,0.000085,  26.478
  1501.0,0.001379,0.000964,0.008327,0.000085,  26.483
  1502.0,0.001386,0.000977,0.008845,0.000085,  26.485
  1503.0,0.001382,0.000977,0.009016,0.000072,  26.480
  1504.0,0.001358,0.000946,0.009221,0.000072,  26.480
  1505.0,0.001378,0.000956,0.009177,0.000072,  26.476
  1506.0,0.001394,0.000978,0.009249,0.000085,  26.479
  1507.0,0.001399,0.000980,0.009241,0.000085,  26.481
  1508.0,0.001404,0.000994,0.009241,0.000063,  26.478
  1509.0,0.001417,0.000989,0.009217,0.000063,  26.486
  1510.0,0.001407,0.000994,0.009355,0.000049,  26.491
  1511.0,0.001337,0.000949,0.009497,-0.000004,  26.492
  1512.0,0.001307,0.000915,0.009399,-0.000058,  26.485
  1513.0,0.001355,0.000929,0.008553,-0.000004,  26.492
  1514.0,0.001381,0.000955,0.008766,0.000036,  26.490
  1515.0,0.001401,0.000972,0.009147,0.000049,  26.487
  1516.0,0.001417,0.000987,0.008879,0.000049,  26.489
  1517.0,0.001414,0.000993,0.009274,0.000036,  26.485
  1518.0,0.001377,0.000961,0.009426,0.000023,  26.486
  1519.0,0.001396,0.000967,0.009425,0.000049,  26.485
  1520.0,0.001412,0.000982,0.009490,0.000049,  26.489
  1521.0,0.001425,0.000989,0.009449,0.000049,  26.489
  1522.0,0.001427,0.000993,0.009417,0.000049,  26.486
  1523.0,0.001432,0.000988,0.009508,0.000049,  26.493
  1524.0,0.001430,0.001002,0.009535,0.000023,  26.500
  1525.0,0.001378,0.000956,0.009764,-0.000031,  26.498
  1526.0,0.001327,0.000917,0.008133,-0.000098,  26.489
  1527.0,0.001366,0.000937,0.008925,-0.000004,  26.485
  1528.0,0.001404,0.000967,0.009380,0.000023,  26.485
  1529.0,0.001427,0.000982,0.009402,0.000036,  26.492
  1530.0,0.001443,0.000991,0.009291,0.000049,  26.500
  1531.0,0.001442,0.000996,0.008713,0.000049,  26.497
  1532.0,0.001389,0.000979,0.009329,-0.000018,  26.487
  1533.0,0.001412,0.000983,0.009515,0.000023,  26.486
  1534.0,0.001440,0.000996,0.009521,0.000049,  26.486
  1535.0,0.001452,0.001000,0.009536,0.000036,  26.491
  1536.0,0.001457,0.001006,0.008990,0.000049,  26.497
  1537.0,0.001471,0.001015,0.009477,0.000049,  26.502
  1538.0,0.001468,0.001028,0.009599,0.000049,  26.508
  1539.0,0.001422,0.001001,0.009821,0.000009,  26.513
  1540.0,0.001376,0.000964,0.009911,-0.000071,  26.502
  1541.0,0.001399,0.000964,0.009829,0.000009,  26.502
  1542.0,0.001437,0.000987,0.009831,0.000036,  26.503
  1543.0,0.001460,0.001009,0.009674,0.000049,  26.507
  1544.0,0.001476,0.001021,0.009795,0.000049,  26.507
  1545.0,0.001477,0.001022,0.009769,0.000049,  26.511
  1546.0,0.001437,0.001007,0.009830,0.000036,  26.507
  1547.0,0.001442,0.000995,0.009182,0.000036,  26.508
  1548.0,0.001468,0.001014,0.009569,0.000023,  26.514
  1549.0,0.001481,0.001022,0.009794,0.000049,  26.515
  1550.0,0.001489,0.001026,0.009821,0.000049,  26.520
  1551.0,0.001491,0.001034,0.009984,0.000049,  26.523
  1552.0,0.001499,0.001043,0.010081,0.000049,  26.528
  1553.0,0.001463,0.001016,0.010097,-0.000004,  26.531
  1554.0,0.001414,0.000977,0.010145,-0.000044,  26.521
  1555.0,0.001431,0.000975,0.010134,-0.000018,  26.523
  1556.0,0.001463,0.001006,0.009998,-0.000004,  26.528
  1557.0,0.001495,0.001028,0.009945,0.000023,  26.529
  1558.0,0.001509,0.001044,0.009911,0.000049,  26.527
  1559.0,0.001509,0.001037,0.009755,0.000049,  26.538
  1560.0,0.001484,0.001024,0.010048,0.000023,  26.532
  1561.0,0.001473,0.001008,0.009914,0.000045,  26.526
  1562.0,0.001507,0.001023,0.009889,0.000072,  26.531
  1563.0,0.001517,0.001035,0.009904,0.000085,  26.529
  1564.0,0.001522,0.001041,0.009654,0.000058,  26.531
  1565.0,0.001527,0.001058,0.009331,0.000085,  26.537
  1566.0,0.001530,0.001059,0.009318,0.000085,  26.541
  1567.0,0.001514,0.001059,0.009951,0.000031,  26.541
  1568.0,0.001453,0.001010,0.010306,-0.000036,  26.534
  1569.0,0.001442,0.000992,0.010287,0.000005,  26.536
  1570.0,0.001483,0.001020,0.010209,0.000045,  26.534
  1571.0,0.001520,0.001043,0.010178,0.000058,  26.535
  1572.0,0.001537,0.001061,0.010117,0.000058,  26.525
  1573.0,0.001549,0.001066,0.010092,0.000085,  26.537
  1574.0,0.001525,0.001067,0.010187,0.000045,  26.529
  1575.0,0.001501,0.001032,0.010281,0.000045,  26.523
  1576.0,0.001515,0.001055,0.010352,0.000072,  26.526
  1577.0,0.001544,0.001063,0.010083,0.000072,  26.524
  1578.0,0.001557,0.001071,0.010227,0.000072,  26.526
  1579.0,0.001562,0.001065,0.010205,0.000085,  26.526
  1580.0,0.001562,0.001073,0.010190,0.000085,  26.540
  1581.0,0.001545,0.001075,0.010324,0.000058,  26.536
  1582.0,0.001474,0.001031,0.010385,-0.000022,  26.522
  1583.0,0.001470,0.001005,0.010588,-0.000009,  26.513
  1584.0,0.001508,0.001037,0.010349,0.000031,  26.521
  1585.0,0.001548,0.001051,0.010349,0.000072,  26.516
  1586.0,0.001562,0.001065,0.010441,0.000072,  26.524
  1587.0,0.001578,0.001078,0.008909,0.000085,  26.526
  1588.0,0.001560,0.001070,0.009985,0.000058,  26.521
  1589.0,0.001537,0.001055,0.010312,0.000023,  26.526
  1590.0,0.001560,0.001067,0.009887,0.000036,  26.522
  1591.0,0.001583,0.001081,0.010217,0.000049,  26.525
  1592.0,0.001590,0.001094,0.009182,0.000076,  26.526
  1593.0,0.001595,0.001091,0.010134,0.000063,  26.531
  1594.0,0.001595,0.001091,0.010465,0.000063,  26.543
  1595.0,0.001589,0.001106,0.009839,0.000049,  26.551
  1596.0,0.001538,0.001066,0.010617,-0.000031,  26.543
  1597.0,0.001513,0.001043,0.010779,-0.000044,  26.542
  1598.0,0.001542,0.001068,0.010735,0.000080,  26.544
  1599.0,0.001582,0.001082,0.010696,0.000072,  26.544
  1600.0,0.001601,0.001101,0.010699,0.000085,  26.546
  1601.0,0.001612,0.001107,0.010567,0.000076,  26.556
  1602.0,0.001612,0.001119,0.010781,0.000036,  26.551
  1603.0,0.001568,0.001085,0.010961,0.000009,  26.549
  1604.0,0.001592,0.001098,0.010388,0.000023,  26.555
  1605.0,0.001607,0.001105,0.010554,0.000014,  26.550
  1606.0,0.001612,0.001107,0.010599,0.000049,  26.548
  1607.0,0.001623,0.001111,0.010736,0.000049,  26.554
  1608.0,0.001628,0.001111,0.010719,0.000063,  26.554
  1609.0,0.001622,0.001120,0.010572,0.000049,  26.558
  1610.0,0.001578,0.001099,0.010970,-0.000031,  26.558
  1611.0,0.001538,0.001067,0.011099,-0.000058,  26.553
  1612.0,0.001578,0.001076,0.011076,0.000023,  26.555
  1613.0,0.001616,0.001099,0.010470,-0.000013,  26.555
  1614.0,0.001647,0.001125,0.010702,0.000049,  26.559
  1615.0,0.001653,0.001131,0.010641,0.000049,  26.565
  1616.0,0.001644,0.001138,0.010701,0.000049,  26.561
  1617.0,0.001600,0.001106,0.011306,0.000009,  26.560
  1618.0,0.001616,0.001108,0.010989,0.000036,  26.561
  1619.0,0.001637,0.001120,0.010823,0.000049,  26.560
  1620.0,0.001644,0.001129,0.010902,0.000049,  26.561
  1621.0,0.001652,0.001136,0.010912,0.000049,  26.561
  1622.0,0.001660,0.001134,0.010815,0.000063,  26.569
  1623.0,0.001660,0.001146,0.010619,0.000063,  26.575
  1624.0,0.001603,0.001107,0.011107,-0.000004,  26.577
  1625.0,0.001563,0.001073,0.011206,-0.000058,  26.560
  1626.0,0.001598,0.001073,0.010245,0.000009,  26.559
  1627.0,0.001629,0.001109,0.010155,0.000049,  26.558
  1628.0,0.001663,0.001133,0.010597,0.000049,  26.556
  1629.0,0.001666,0.001144,0.010959,0.000049,  26.563
  1630.0,0.001659,0.001157,0.010907,0.000049,  26.577
  1631.0,0.001628,0.001137,0.011194,-0.000004,  26.562
  1632.0,0.001639,0.001129,0.011258,0.000023,  26.567
  1633.0,0.001660,0.001143,0.011178,0.000049,  26.568
  1634.0,0.001667,0.001147,0.011133,0.000049,  26.575
  1635.0,0.001677,0.001158,0.009975,0.000076,  26.579
  1636.0,0.001685,0.001147,0.010394,0.000085,  26.584
  1637.0,0.001682,0.001158,0.010840,0.000072,  26.601
  1638.0,0.001643,0.001143,0.011247,0.000031,  26.604
  1639.0,0.001596,0.001090,0.011447,-0.000022,  26.595
  1640.0,0.001616,0.001092,0.011275,0.000018,  26.600
  1641.0,0.001649,0.001117,0.011198,0.000058,  26.606
  1642.0,0.001667,0.001133,0.011222,0.000058,  26.607
  1643.0,0.001685,0.001150,0.011010,0.000085,  26.613
  1644.0,0.001684,0.001154,0.010548,0.000085,  26.614
  1645.0,0.001654,0.001152,0.010536,0.000018,  26.608
  1646.0,0.001645,0.001136,0.010616,0.000009,  26.609
  1647.0,0.001669,0.001140,0.010559,0.000036,  26.608
  1648.0,0.001677,0.001153,0.011046,0.000014,  26.607
  1649.0,0.001690,0.001151,0.011091,0.000049,  26.606
  1650.0,0.001696,0.001143,0.010667,0.000049,  26.608
  1651.0,0.001703,0.001161,0.011076,0.000049,  26.615
  1652.0,0.001660,0.001153,0.011422,0.000049,  26.613
  1653.0,0.001605,0.001119,0.011601,-0.000044,  26.608
  1654.0,0.001615,0.001094,0.011537,-0.000018,  26.605
  1655.0,0.001632,0.001114,0.011326,0.000009,  26.601
  1656.0,0.001664,0.001136,0.010901,0.000023,  26.601
  1657.0,0.001692,0.001153,0.009678,0.000049,  26.600
  1658.0,0.001703,0.001160,0.010727,0.000049,  26.600
  1659.0,0.001683,0.001159,0.011149,0.000045,  26.593
  1660.0,0.001670,0.001140,0.011019,0.000080,  26.588
  1661.0,0.001691,0.001148,0.010872,0.000036,  26.587
  1662.0,0.001696,0.001157,0.010156,0.000049,  26.587
  1663.0,0.001714,0.001164,0.010665,0.000085,  26.588
  1664.0,0.001719,0.001173,0.011160,0.000072,  26.586
  1665.0,0.001723,0.001176,0.011238,0.000085,  26.594
  1666.0,0.001702,0.001169,0.011365,0.000045,  26.602
  1667.0,0.001641,0.001127,0.011722,-0.000009,  26.595
  1668.0,0.001625,0.001111,0.011595,-0.000022,  26.586
  1669.0,0.001666,0.001134,0.011588,0.000045,  26.584
  1670.0,0.001690,0.001145,0.011550,0.000058,  26.587
  1671.0,0.001709,0.001168,0.011587,0.000072,  26.590
  1672.0,0.001722,0.001179,0.011606,0.000072,  26.603
  1673.0,0.001698,0.001177,0.011665,0.000072,  26.596
  1674.0,0.001676,0.001154,0.011683,0.000058,  26.589
  1675.0,0.001696,0.001157,0.011637,0.000058,  26.592
  1676.0,0.001707,0.001156,0.011481,0.000085,  26.594
  1677.0,0.001725,0.001170,0.011571,0.000085,  26.598
  1678.0,0.001733,0.001173,0.011569,0.000014,  26.598
  1679.0,0.001730,0.001182,0.011522,0.000049,  26.606
  1680.0,0.001726,0.001185,0.011470,0.000036,  26.613
  1681.0,0.001667,0.001148,0.011248,0.000040,  26.606
  1682.0,0.001630,0.001116,0.011530,-0.000009,  26.604
  1683.0,0.001679,0.001143,0.011401,0.000045,  26.601
  1684.0,0.001709,0.001171,0.011476,0.000072,  26.603
  1685.0,0.001741,0.001184,0.011541,0.000072,  26.604
  1686.0,0.001738,0.001184,0.011687,0.000085,  26.608
  1687.0,0.001735,0.001192,0.011639,0.000085,  26.605
  1688.0,0.001709,0.001165,0.011678,0.000045,  26.606
  1689.0,0.001722,0.001176,0.010338,0.000058,  26.606
  1690.0,0.001740,0.001181,0.011223,0.000072,  26.608
  1691.0,0.001748,0.001193,0.011528,0.000072,  26.611
  1692.0,0.001753,0.001200,0.011621,0.000085,  26.612
  1693.0,0.001758,0.001202,0.011556,0.000085,  26.618
  1694.0,0.001753,0.001199,0.011747,0.000085,  26.619
  1695.0,0.001702,0.001172,0.011876,0.000018,  26.617
  1696.0,0.001660,0.001140,0.011852,-0.000009,  26.608
  1697.0,0.001696,0.001157,0.011795,0.000045,  26.604
  1698.0,0.001720,0.001175,0.011601,0.000049,  26.604
  1699.0,0.001747,0.001191,0.011162,0.000049,  26.602
  1700.0,0.001762,0.001200,0.011632,0.000049,  26.603
  1701.0,0.001771,0.001206,0.010572,0.000049,  26.607
  1702.0,0.001726,0.001175,0.011288,0.000023,  26.600
  1703.0,0.001748,0.001186,0.011686,0.000049,  26.600
  1704.0,0.001761,0.001197,0.011819,0.000036,  26.603
  1705.0,0.001771,0.001205,0.011742,0.000049,  26.606
  1706.0,0.001779,0.001206,0.010577,0.000076,  26.605
  1707.0,0.001778,0.001211,0.011342,0.000072,  26.611
  1708.0,0.001767,0.001214,0.011826,0.000085,  26.619
  1709.0,0.001714,0.001181,0.011964,0.000005,  26.621
  1710.0,0.001659,0.001138,0.012104,-0.000036,  26.607
  1711.0,0.001684,0.001145,0.011951,-0.000004,  26.614
  1712.0,0.001713,0.001158,0.011850,0.000009,  26.607
  1713.0,0.001755,0.001181,0.011652,0.000036,  26.615
  1714.0,0.001776,0.001202,0.011426,0.000049,  26.614
  1715.0,0.001776,0.001207,0.011659,0.000036,  26.616
  1716.0,0.001742,0.001196,0.011941,0.000023,  26.608
  1717.0,0.001752,0.001192,0.011869,0.000049,  26.607
  1718.0,0.001760,0.001208,0.011328,0.000049,  26.604
  1719.0,0.001776,0.001217,0.010803,0.000049,  26.597
  1720.0,0.001795,0.001219,0.010879,0.000049,  26.599
  1721.0,0.001800,0.001222,0.011553,0.000049,  26.594
  1722.0,0.001797,0.001225,0.011854,0.000049,  26.607
  1723.0,0.001767,0.001220,0.012085,-0.000018,  26.606
  1724.0,0.001705,0.001180,0.011392,-0.000044,  26.596
  1725.0,0.001727,0.001176,0.011563,0.000009,  26.602
  1726.0,0.001761,0.001210,0.011846,0.000036,  26.602
  1727.0,0.001789,0.001223,0.011931,0.000049,  26.604
  1728.0,0.001813,0.001237,0.011915,0.000063,  26.611
  1729.0,0.001818,0.001236,0.011438,0.000063,  26.613
  1730.0,0.001789,0.001225,0.012110,0.000036,  26.610
  1731.0,0.001791,0.001218,0.011873,0.000036,  26.614
  1732.0,0.001802,0.001226,0.011959,0.000041,  26.615
  1733.0,0.001807,0.001238,0.012124,0.000041,  26.611
  1734.0,0.001812,0.001244,0.012082,0.000041,  26.612
  1735.0,0.001814,0.001247,0.012182,0.000041,  26.622
  1736.0,0.001820,0.001244,0.012284,0.000049,  26.625
  1737.0,0.001781,0.001231,0.012319,0.000009,  26.627
  1738.0,0.001727,0.001181,0.012537,-0.000058,  26.619
  1739.0,0.001725,0.001163,0.012491,-0.000031,  26.619
  1740.0,0.001761,0.001191,0.012110,0.000080,  26.626
  1741.0,0.001777,0.001210,0.012187,0.000072,  26.625
  1742.0,0.001809,0.001225,0.010885,0.000072,  26.623
  1743.0,0.001817,0.001237,0.011844,0.000112,  26.629
  1744.0,0.001790,0.001235,0.012095,0.000072,  26.619
  1745.0,0.001783,0.001221,0.011467,0.000072,  26.619
  1746.0,0.001790,0.001228,0.011576,0.000085,  26.620
  1747.0,0.001807,0.001239,0.011499,0.000085,  26.615
  1748.0,0.001821,0.001242,0.011831,0.000085,  26.620
  1749.0,0.001820,0.001250,0.011986,0.000085,  26.621
  1750.0,0.001841,0.001248,0.012053,0.000085,  26.624
  1751.0,0.001823,0.001245,0.012177,0.000058,  26.631
  1752.0,0.001749,0.001209,0.012445,-0.000009,  26.621
  1753.0,0.001748,0.001180,0.012506,0.000018,  26.615
  1754.0,0.001772,0.001204,0.012383,0.000085,  26.623
  1755.0,0.001792,0.001221,0.012314,0.000072,  26.617
  1756.0,0.001818,0.001235,0.011681,0.000085,  26.619
  1757.0,0.001826,0.001244,0.012021,0.000099,  26.625
  1758.0,0.001816,0.001246,0.012246,0.000058,  26.623
  1759.0,0.001806,0.001228,0.012004,0.000085,  26.624
  1760.0,0.001810,0.001232,0.011437,0.000085,  26.628
  1761.0,0.001818,0.001234,0.011987,0.000085,  26.627
  1762.0,0.001823,0.001248,0.012086,0.000085,  26.640
  1763.0,0.001839,0.001251,0.012184,0.000099,  26.640
  1764.0,0.001837,0.001250,0.012195,0.000099,  26.646
  1765.0,0.001820,0.001251,0.012407,0.000072,  26.648
  1766.0,0.001773,0.001210,0.012583,-0.000009,  26.641
  1767.0,0.001750,0.001182,0.012515,-0.000022,  26.635
  1768.0,0.001779,0.001189,0.011066,0.000045,  26.637
  1769.0,0.001799,0.001208,0.011735,0.000072,  26.637
  1770.0,0.001811,0.001231,0.012164,0.000085,  26.635
  1771.0,0.001832,0.001240,0.012214,0.000085,  26.644
  1772.0,0.001830,0.001251,0.011493,0.000072,  26.646
  1773.0,0.001784,0.001216,0.011361,0.000058,  26.633
  1774.0,0.001807,0.001218,0.011989,0.000058,  26.635
  1775.0,0.001820,0.001237,0.011128,0.000085,  26.642
  1776.0,0.001832,0.001237,0.011904,0.000085,  26.634
  1777.0,0.001840,0.001238,0.011701,0.000072,  26.626
  1778.0,0.001845,0.001254,0.012064,0.000085,  26.639
  1779.0,0.001834,0.001256,0.012291,0.000085,  26.646
  1780.0,0.001791,0.001233,0.012623,0.000005,  26.645
  1781.0,0.001753,0.001188,0.012747,-0.000009,  26.639
  1782.0,0.001789,0.001205,0.012497,0.000031,  26.642
  1783.0,0.001811,0.001222,0.012312,0.000058,  26.641
  1784.0,0.001828,0.001241,0.012322,0.000085,  26.635
  1785.0,0.001853,0.001256,0.011609,0.000085,  26.640
  1786.0,0.001848,0.001267,0.011764,0.000085,  26.647
  1787.0,0.001811,0.001239,0.012207,0.000072,  26.646
  1788.0,0.001824,0.001247,0.011991,0.000072,  26.643
  1789.0,0.001833,0.001251,0.012165,0.000085,  26.646
  1790.0,0.001850,0.001255,0.012241,0.000099,  26.646
  1791.0,0.001855,0.001261,0.012311,0.000099,  26.647
  1792.0,0.001851,0.001261,0.012503,0.000085,  26.653
  1793.0,0.001852,0.001275,0.012470,0.000107,  26.659
  1794.0,0.001807,0.001251,0.012389,0.000031,  26.660
  1795.0,0.001773,0.001203,0.012136,-0.000022,  26.647
  1796.0,0.001803,0.001214,0.012334,0.000031,  26.652
  1797.0,0.001828,0.001237,0.011757,0.000058,  26.655
  1798.0,0.001850,0.001249,0.012308,0.000085,  26.652
  1799.0,0.001868,0.001262,0.011298,0.000085,  26.663
  1800.0,0.001868,0.001272,0.012211,0.000085,  26.673
  1801.0,0.001825,0.001250,0.012545,0.000031,  26.665
  1802.0,0.001832,0.001242,0.012530,0.000072,  26.656
  1803.0,0.001848,0.001243,0.011194,0.000085,  26.654
  1804.0,0.001856,0.001254,0.010935,0.000085,  26.655
  1805.0,0.001862,0.001266,0.011879,0.000085,  26.652
  1806.0,0.001868,0.001266,0.012304,0.000085,  26.656
  1807.0,0.001868,0.001270,0.012481,0.000072,  26.668
  1808.0,0.001832,0.001254,0.012616,0.000045,  26.670
  1809.0,0.001780,0.001215,0.012740,-0.000022,  26.652
  1810.0,0.001793,0.001216,0.012599,0.000018,  26.655
  1811.0,0.001815,0.001224,0.012455,-0.000013,  26.659
  1812.0,0.001839,0.001246,0.012425,0.000036,  26.657
  1813.0,0.001860,0.001256,0.012507,0.000049,  26.666
  1814.0,0.001859,0.001262,0.012559,0.000049,  26.672
  1815.0,0.001828,0.001250,0.012375,-0.000018,  26.667
  1816.0,0.001827,0.001247,0.012432,0.000009,  26.669
  1817.0,0.001854,0.001252,0.012370,0.000023,  26.671
  1818.0,0.001848,0.001258,0.012376,0.000049,  26.669
  1819.0,0.001868,0.001263,0.012494,0.000063,  26.672
  1820.0,0.001874,0.001269,0.012476,0.000063,  26.675
  1821.0,0.001874,0.001279,0.011685,0.000063,  26.679
  1822.0,0.001831,0.001261,0.012421,0.000045,  26.684
  1823.0,0.001784,0.001225,0.012720,-0.000022,  26.673
  1824.0,0.001791,0.001210,0.012542,0.000018,  26.675
  1825.0,0.001820,0.001232,0.012434,0.000045,  26.673
  1826.0,0.001845,0.001245,0.012397,0.000085,  26.676
  1827.0,0.001868,0.001264,0.012260,0.000099,  26.676
  1828.0,0.001874,0.001267,0.012061,0.000099,  26.682
  1829.0,0.001838,0.001269,0.012500,0.000045,  26.679
  1830.0,0.001830,0.001240,0.012496,0.000058,  26.675
  1831.0,0.001848,0.001247,0.012411,0.000072,  26.678
  1832.0,0.001850,0.001254,0.012564,0.000027,  26.677
  1833.0,0.001871,0.001261,0.012780,0.000063,  26.677
  1834.0,0.001876,0.001266,0.012571,0.000027,  26.679
  1835.0,0.001872,0.001276,0.012529,0.000036,  26.685
  1836.0,0.001835,0.001260,0.012435,0.000023,  26.688
  1837.0,0.001777,0.001219,0.012661,-0.000044,  26.674
  1838.0,0.001785,0.001210,0.011420,-0.000004,  26.678
  1839.0,0.001812,0.001220,0.011994,0.000023,  26.678
  1840.0,0.001838,0.001241,0.012178,0.000049,  26.680
  1841.0,0.001858,0.001258,0.012475,0.000049,  26.683
  1842.0,0.001867,0.001267,0.012057,0.000049,  26.690
  1843.0,0.001848,0.001263,0.012316,0.000036,  26.686
  1844.0,0.001830,0.001239,0.012553,0.000023,  26.683
  1845.0,0.001854,0.001245,0.012450,0.000049,  26.689
  1846.0,0.001867,0.001261,0.012372,0.000049,  26.686
  1847.0,0.001886,0.001268,0.012476,0.000049,  26.690
  1848.0,0.001886,0.001273,0.012529,0.000049,  26.693
  1849.0,0.001880,0.001279,0.012452,0.000076,  26.699
  1850.0,0.001878,0.001270,0.012707,0.000045,  26.710
  1851.0,0.001815,0.001240,0.012799,-0.000031,  26.700
  1852.0,0.001800,0.001220,0.012848,-0.000018,  26.695
  1853.0,0.001832,0.001228,0.012482,0.000036,  26.696
  1854.0,0.001859,0.001253,0.012224,0.000049,  26.697
  1855.0,0.001886,0.001271,0.012381,0.000049,  26.692
  1856.0,0.001886,0.001276,0.012575,0.000063,  26.701
  1857.0,0.001866,0.001286,0.012240,0.000036,  26.705
  1858.0,0.001846,0.001247,0.012629,0.000023,  26.691
  1859.0,0.001856,0.001253,0.012132,0.000063,  26.687
  1860.0,0.001861,0.001266,0.012346,0.000063,  26.690
  1861.0,0.001877,0.001269,0.012486,0.000063,  26.691
  1862.0,0.001885,0.001280,0.012598,0.000049,  26.695
  1863.0,0.001896,0.001284,0.012544,0.000063,  26.707
  1864.0,0.001882,0.001288,0.011178,0.000049,  26.723
  1865.0,0.001823,0.001251,0.011848,-0.000004,  26.719
  1866.0,0.001808,0.001214,0.012404,-0.000018,  26.713
  1867.0,0.001828,0.001228,0.012479,0.000036,  26.721
  1868.0,0.001849,0.001252,0.012494,0.000049,  26.728
  1869.0,0.001869,0.001272,0.012575,0.000049,  26.732
  1870.0,0.001877,0.001276,0.012599,0.000076,  26.743
  1871.0,0.001883,0.001279,0.012585,0.000085,  26.746
  1872.0,0.001857,0.001260,0.012672,0.000058,  26.747
  1873.0,0.001864,0.001259,0.012520,0.000085,  26.747
  1874.0,0.001861,0.001265,0.012477,0.000072,  26.756
  1875.0,0.001871,0.001271,0.011751,0.000027,  26.759
  1876.0,0.001881,0.001270,0.012193,0.000063,  26.759
  1877.0,0.001887,0.001280,0.012207,0.000076,  26.755
  1878.0,0.001885,0.001287,0.012435,0.000049,  26.773
  1879.0,0.001827,0.001247,0.012703,-0.000004,  26.770
  1880.0,0.001800,0.001217,0.012470,-0.000018,  26.754
  1881.0,0.001828,0.001223,0.012482,0.000036,  26.757
  1882.0,0.001857,0.001254,0.012356,0.000063,  26.758
  1883.0,0.001888,0.001281,0.012409,0.000063,  26.759
  1884.0,0.001895,0.001285,0.012474,0.000076,  26.759
  1885.0,0.001898,0.001295,0.012641,0.000072,  26.764
  1886.0,0.001859,0.001271,0.012750,0.000045,  26.752
  1887.0,0.001875,0.001264,0.012177,0.000072,  26.750
  1888.0,0.001878,0.001283,0.012471,0.000085,  26.752
  1889.0,0.001877,0.001283,0.012476,0.000099,  26.751
  1890.0,0.001891,0.001294,0.012128,0.000099,  26.754
  1891.0,0.001893,0.001295,0.012486,0.000099,  26.756
  1892.0,0.001885,0.001295,0.012614,0.000049,  26.770
  1893.0,0.001855,0.001273,0.012627,0.000031,  26.766
  1894.0,0.001802,0.001233,0.012903,0.000018,  26.764
  1895.0,0.001826,0.001241,0.012654,0.000045,  26.765
  1896.0,0.001850,0.001272,0.012504,0.000072,  26.770
  1897.0,0.001874,0.001291,0.012380,0.000112,  26.770
  1898.0,0.001898,0.001298,0.012515,0.000099,  26.774
  1899.0,0.001899,0.001301,0.012446,0.000099,  26.780
  1900.0,0.001862,0.001282,0.011439,0.000072,  26.776
  1901.0,0.001872,0.001275,0.012237,0.000085,  26.775
  1902.0,0.001880,0.001275,0.012435,0.000085,  26.777
  1903.0,0.001891,0.001286,0.012355,0.000099,  26.775
  1904.0,0.001893,0.001303,0.012496,0.000099,  26.781
  1905.0,0.001895,0.001298,0.012470,0.000112,  26.784
  1906.0,0.001901,0.001291,0.012635,0.000112,  26.782
  1907.0,0.001857,0.001282,0.012770,0.000009,  26.791
  1908.0,0.001811,0.001237,0.013000,-0.000018,  26.780
  1909.0,0.001820,0.001239,0.012790,0.000023,  26.778
  1910.0,0.001838,0.001243,0.012515,0.000063,  26.781
  1911.0,0.001856,0.001269,0.012581,0.000076,  26.781
  1912.0,0.001877,0.001283,0.012489,0.000076,  26.783
  1913.0,0.001882,0.001291,0.012437,0.000076,  26.782
  1914.0,0.001850,0.001269,0.011790,0.000036,  26.777
  1915.0,0.001849,0.001256,0.012087,0.000049,  26.781
  1916.0,0.001859,0.001268,0.012109,0.000063,  26.779
  1917.0,0.001867,0.001269,0.011687,0.000063,  26.777
  1918.0,0.001883,0.001281,0.011829,0.000063,  26.775
  1919.0,0.001880,0.001288,0.012236,0.000076,  26.784
  1920.0,0.001883,0.001284,0.012226,0.000076,  26.785
  1921.0,0.001862,0.001273,0.011867,0.000049,  26.787
  1922.0,0.001806,0.001222,0.012604,-0.000031,  26.782
  1923.0,0.001810,0.001218,0.012508,0.000009,  26.779
  1924.0,0.001838,0.001241,0.012302,0.000049,  26.775
  1925.0,0.001866,0.001261,0.011487,0.000049,  26.774
  1926.0,0.001875,0.001278,0.012040,0.000090,  26.773
  1927.0,0.001882,0.001285,0.012276,0.000076,  26.778
  1928.0,0.001870,0.001285,0.012424,0.000036,  26.777
  1929.0,0.001844,0.001260,0.012486,0.000049,  26.771
  1930.0,0.001857,0.001262,0.012328,0.000063,  26.769
  1931.0,0.001866,0.001266,0.012146,0.000090,  26.771
  1932.0,0.001880,0.001265,0.012050,0.000090,  26.769
  1933.0,0.001895,0.001274,0.011608,0.000090,  26.769
  1934.0,0.001889,0.001278,0.012160,0.000090,  26.780
  1935.0,0.001866,0.001280,0.011816,0.000063,  26.780
  1936.0,0.001815,0.001241,0.012433,-0.000004,  26.776
  1937.0,0.001796,0.001225,0.012488,0.000080,  26.775
  1938.0,0.001827,0.001240,0.012285,0.000085,  26.780
  1939.0,0.001843,0.001266,0.012231,0.000099,  26.779
  1940.0,0.001862,0.001275,0.012274,0.000112,  26.783
  1941.0,0.001868,0.001277,0.012222,0.000076,  26.781
  1942.0,0.001861,0.001283,0.011953,0.000063,  26.781
  1943.0,0.001845,0.001255,0.012232,0.000049,  26.778
  1944.0,0.001856,0.001251,0.011415,0.000063,  26.783
  1945.0,0.001858,0.001257,0.011602,0.000090,  26.779
  1946.0,0.001865,0.001261,0.012087,0.000090,  26.779
  1947.0,0.001871,0.001270,0.012211,0.000090,  26.784
  1948.0,0.001876,0.001274,0.012124,0.000090,  26.789
  1949.0,0.001861,0.001274,0.012123,0.000076,  26.796
  1950.0,0.001799,0.001226,0.012477,-0.000004,  26.796
  1951.0,0.001781,0.001197,0.012434,-0.000004,  26.789
  1952.0,0.001807,0.001217,0.011871,0.000023,  26.789
  1953.0,0.001824,0.001237,0.010514,0.000063,  26.792
  1954.0,0.001833,0.001252,0.011692,0.000076,  26.794
  1955.0,0.001844,0.001268,0.012038,0.000090,  26.791
  1956.0,0.001838,0.001266,0.012281,0.000090,  26.796
  1957.0,0.001824,0.001243,0.011859,0.000049,  26.792
  1958.0,0.001837,0.001247,0.011841,0.000090,  26.793
  1959.0,0.001833,0.001256,0.011794,0.000063,  26.794
  1960.0,0.001856,0.001261,0.011507,0.000090,  26.794
  1961.0,0.001861,0.001271,0.012041,0.000090,  26.791
  1962.0,0.001858,0.001260,0.012145,0.000090,  26.792
  1963.0,0.001848,0.001258,0.012254,0.000076,  26.805
  1964.0,0.001798,0.001226,0.012562,-0.000004,  26.806
  1965.0,0.001747,0.001192,0.012382,-0.000004,  26.802
  1966.0,0.001775,0.001193,0.012176,0.000014,  26.805
  1967.0,0.001797,0.001217,0.011944,0.000063,  26.801
  1968.0,0.001835,0.001232,0.012049,0.000076,  26.804
  1969.0,0.001845,0.001246,0.012022,0.000054,  26.804
  1970.0,0.001840,0.001248,0.011914,0.000027,  26.812
  1971.0,0.001805,0.001222,0.010986,0.000036,  26.805
  1972.0,0.001801,0.001217,0.011774,0.000049,  26.807
  1973.0,0.001820,0.001233,0.011847,0.000076,  26.806
  1974.0,0.001824,0.001244,0.011492,0.000076,  26.808
  1975.0,0.001826,0.001247,0.011788,0.000063,  26.806
  1976.0,0.001837,0.001250,0.011832,0.000090,  26.802
  1977.0,0.001834,0.001261,0.011879,0.000076,  26.809
  1978.0,0.001787,0.001236,0.012115,0.000023,  26.803
  1979.0,0.001758,0.001210,0.012222,-0.000018,  26.799
  1980.0,0.001784,0.001217,0.011991,0.000072,  26.796
  1981.0,0.001793,0.001231,0.011679,0.000099,  26.800
  1982.0,0.001827,0.001249,0.011373,0.000112,  26.802
  1983.0,0.001843,0.001256,0.011583,0.000125,  26.806
  1984.0,0.001843,0.001258,0.011157,0.000112,  26.809
  1985.0,0.001811,0.001233,0.011598,0.000099,  26.806
  1986.0,0.001808,0.001239,0.011783,0.000099,  26.806
  1987.0,0.001822,0.001237,0.011559,0.000112,  26.802
  1988.0,0.001826,0.001243,0.011543,0.000125,  26.799
  1989.0,0.001828,0.001250,0.011755,0.000125,  26.794
  1990.0,0.001828,0.001252,0.011761,0.000125,  26.789
  1991.0,0.001828,0.001249,0.011835,0.000103,  26.807
  1992.0,0.001786,0.001232,0.012184,0.000049,  26.811
  1993.0,0.001723,0.001189,0.012242,0.000009,  26.800
  1994.0,0.001751,0.001188,0.011921,0.000036,  26.789
  1995.0,0.001764,0.001200,0.011759,0.000063,  26.789
  1996.0,0.001798,0.001226,0.011688,0.000090,  26.788
  1997.0,0.001815,0.001239,0.010499,0.000090,  26.785
  1998.0,0.001825,0.001245,0.011158,0.000090,  26.794
  1999.0,0.001791,0.001229,0.011588,0.000063,  26.782
  2000.0,0.001793,0.001225,0.010632,0.000076,  26.785
  2001.0,0.001801,0.001230,0.011280,0.000054,  26.787
  2002.0,0.001800,0.001238,0.011402,0.000090,  26.784
  2003.0,0.001807,0.001237,0.011595,0.000103,  26.786
  2004.0,0.001808,0.001245,0.011494,0.000117,  26.791
  2005.0,0.001810,0.001248,0.011532,0.000117,  26.798
  2006.0,0.001791,0.001245,0.010975,0.000063,  26.808
  2007.0,0.001729,0.001199,0.011331,-0.000004,  26.800
  2008.0,0.001733,0.001192,0.011639,0.000036,  26.801
  2009.0,0.001757,0.001208,0.011617,0.000076,  26.795
  2010.0,0.001785,0.001228,0.011563,0.000103,  26.797
  2011.0,0.001821,0.001243,0.011640,0.000103,  26.798
  2012.0,0.001825,0.001241,0.011667,0.000117,  26.805
  2013.0,0.001802,0.001235,0.011647,0.000090,  26.793
  2014.0,0.001799,0.001216,0.011029,0.000090,  26.803
  2015.0,0.001804,0.001228,0.011502,0.000117,  26.804
  2016.0,0.001806,0.001231,0.011552,0.000103,  26.805
  2017.0,0.001808,0.001240,0.011612,0.000103,  26.808
  2018.0,0.001802,0.001238,0.011653,0.000117,  26.806
  2019.0,0.001806,0.001235,0.011628,0.000103,  26.817
  2020.0,0.001780,0.001226,0.011660,0.000076,  26.821
  2021.0,0.001718,0.001187,0.011478,0.000023,  26.816
  2022.0,0.001714,0.001170,0.011682,0.000036,  26.813
  2023.0,0.001743,0.001191,0.011371,0.000076,  26.813
  2024.0,0.001769,0.001204,0.011245,0.000090,  26.817
  2025.0,0.001791,0.001222,0.011402,0.000103,  26.816
  2026.0,0.001793,0.001221,0.011499,0.000103,  26.818
  2027.0,0.001775,0.001220,0.011606,0.000076,  26.817
  2028.0,0.001760,0.001203,0.009825,0.000041,  26.811
  2029.0,0.001761,0.001211,0.010908,0.000090,  26.813
  2030.0,0.001778,0.001213,0.010809,0.000103,  26.814
  2031.0,0.001799,0.001228,0.010969,0.000117,  26.815
  2032.0,0.001799,0.001227,0.009648,0.000130,  26.812
  2033.0,0.001799,0.001225,0.009760,0.000117,  26.814
  2034.0,0.001780,0.001232,0.011024,0.000103,  26.822
  2035.0,0.001727,0.001195,0.011552,0.000023,  26.829
  2036.0,0.001704,0.001161,0.011716,0.000009,  26.818
  2037.0,0.001732,0.001180,0.011429,0.000076,  26.817
  2038.0,0.001755,0.001196,0.011289,0.000090,  26.820
  2039.0,0.001774,0.001199,0.011379,0.000090,  26.822
  2040.0,0.001773,0.001215,0.010764,0.000103,  26.824
  2041.0,0.001769,0.001212,0.011184,0.000090,  26.829
  2042.0,0.001745,0.001187,0.011332,0.000090,  26.834
  2043.0,0.001755,0.001195,0.011215,0.000090,  26.836
  2044.0,0.001755,0.001202,0.011143,0.000103,  26.834
  2045.0,0.001763,0.001206,0.011291,0.000103,  26.839
  2046.0,0.001762,0.001205,0.011214,0.000103,  26.837
  2047.0,0.001762,0.001199,0.011299,0.000117,  26.843
  2048.0,0.001742,0.001199,0.011189,0.000076,  26.845
  2049.0,0.001696,0.001174,0.011405,0.000023,  26.845
  2050.0,0.001672,0.001136,0.010705,0.000009,  26.840
  2051.0,0.001692,0.001155,0.010754,0.000063,  26.837
  2052.0,0.001711,0.001173,0.010814,0.000090,  26.841
  2053.0,0.001728,0.001195,0.010799,0.000090,  26.840
  2054.0,0.001738,0.001198,0.010688,0.000090,  26.841
  2055.0,0.001736,0.001195,0.010936,0.000090,  26.850
  2056.0,0.001700,0.001177,0.011241,0.000063,  26.843
  2057.0,0.001707,0.001180,0.010928,0.000063,  26.840
  2058.0,0.001720,0.001182,0.010930,0.000090,  26.839
  2059.0,0.001731,0.001183,0.010891,0.000090,  26.842
  2060.0,0.001732,0.001190,0.010814,0.000103,  26.835
  2061.0,0.001730,0.001191,0.010865,0.000117,  26.840
  2062.0,0.001727,0.001193,0.011030,0.000148,  26.848
  2063.0,0.001677,0.001165,0.010912,0.000058,  26.846
  2064.0,0.001641,0.001127,0.011008,-0.000018,  26.843
  2065.0,0.001663,0.001133,0.011048,0.000058,  26.842
  2066.0,0.001686,0.001147,0.010869,0.000099,  26.842
  2067.0,0.001714,0.001166,0.010850,0.000099,  26.844
  2068.0,0.001712,0.001181,0.010823,0.000125,  26.842
  2069.0,0.001718,0.001192,0.010822,0.000125,  26.851
  2070.0,0.001686,0.001181,0.010949,0.000112,  26.847
  2071.0,0.001701,0.001164,0.010794,0.000139,  26.844
  2072.0,0.001707,0.001169,0.010794,0.000152,  26.845
  2073.0,0.001710,0.001171,0.010677,0.000103,  26.846
  2074.0,0.001726,0.001176,0.010825,0.000117,  26.848
  2075.0,0.001715,0.001175,0.010824,0.000117,  26.850
  2076.0,0.001709,0.001183,0.010796,0.000103,  26.855
  2077.0,0.001666,0.001165,0.010931,0.000049,  26.858
  2078.0,0.001622,0.001129,0.011171,0.000009,  26.852
  2079.0,0.001640,0.001123,0.010930,0.000049,  26.853
  2080.0,0.001666,0.001134,0.010722,0.000090,  26.850
  2081.0,0.001675,0.001156,0.010803,0.000090,  26.854
  2082.0,0.001694,0.001166,0.010878,0.000117,  26.854
  2083.0,0.001702,0.001174,0.010700,0.000117,  26.861
  2084.0,0.001662,0.001167,0.010308,0.000063,  26.851
  2085.0,0.001672,0.001145,0.010419,0.000076,  26.848
  2086.0,0.001677,0.001157,0.009933,0.000090,  26.853
  2087.0,0.001679,0.001157,0.010399,0.000103,  26.852
  2088.0,0.001690,0.001162,0.010575,0.000174,  26.852
  2089.0,0.001686,0.001159,0.010923,0.000152,  26.849
  2090.0,0.001690,0.001160,0.010675,0.000139,  26.857
  2091.0,0.001654,0.001145,0.010907,0.000049,  26.860
  2092.0,0.001591,0.001105,0.010987,-0.000004,  26.858
  2093.0,0.001604,0.001104,0.010273,0.000036,  26.860
  2094.0,0.001613,0.001107,0.010363,0.000076,  26.860
  2095.0,0.001641,0.001129,0.010494,0.000076,  26.867
  2096.0,0.001650,0.001137,0.010482,0.000090,  26.867
  2097.0,0.001653,0.001137,0.009885,0.000090,  26.873
  2098.0,0.001625,0.001130,0.010168,0.000027,  26.874
  2099.0,0.001623,0.001111,0.010236,0.000076,  26.868
  2100.0,0.001627,0.001110,0.010331,0.000076,  26.872
  2101.0,0.001633,0.001108,0.010183,0.000090,  26.873
  2102.0,0.001641,0.001114,0.010136,0.000090,  26.870
  2103.0,0.001639,0.001121,0.008726,0.000090,  26.871
  2104.0,0.001642,0.001130,0.009732,0.000117,  26.876
  2105.0,0.001613,0.001125,0.009721,0.000063,  26.882
  2106.0,0.001562,0.001078,0.010384,-0.000018,  26.878
  2107.0,0.001564,0.001071,0.010355,0.000036,  26.875
  2108.0,0.001593,0.001088,0.010255,0.000049,  26.877
  2109.0,0.001619,0.001103,0.010276,0.000076,  26.879
  2110.0,0.001630,0.001116,0.010083,0.000063,  26.881
  2111.0,0.001624,0.001123,0.010393,0.000076,  26.880
  2112.0,0.001597,0.001117,0.010223,0.000049,  26.885
  2113.0,0.001589,0.001095,0.010119,0.000063,  26.885
  2114.0,0.001607,0.001098,0.010067,0.000076,  26.884
  2115.0,0.001613,0.001102,0.009197,0.000090,  26.885
  2116.0,0.001612,0.001110,0.009822,0.000112,  26.884
  2117.0,0.001618,0.001106,0.010019,0.000054,  26.885
  2118.0,0.001618,0.001109,0.009999,0.000090,  26.888
  2119.0,0.001591,0.001102,0.010064,0.000063,  26.888
  2120.0,0.001542,0.001075,0.010368,-0.000004,  26.897
  2121.0,0.001541,0.001051,0.010276,0.000009,  26.885
  2122.0,0.001562,0.001071,0.009969,0.000063,  26.879
  2123.0,0.001582,0.001094,0.009211,0.000090,  26.879
  2124.0,0.001604,0.001107,0.009474,0.000090,  26.875
  2125.0,0.001618,0.001104,0.009736,0.000090,  26.876
  2126.0,0.001602,0.001111,0.009981,0.000076,  26.880
  2127.0,0.001571,0.001085,0.010031,0.000076,  26.871
  2128.0,0.001584,0.001087,0.009955,0.000090,  26.870
  2129.0,0.001595,0.001089,0.009739,0.000090,  26.870
  2130.0,0.001605,0.001098,0.009819,0.000090,  26.870
  2131.0,0.001596,0.001105,0.009788,0.000090,  26.874
  2132.0,0.001596,0.001099,0.009750,0.000117,  26.872
  2133.0,0.001584,0.001103,0.009799,0.000041,  26.879
  2134.0,0.001536,0.001063,0.010092,0.000023,  26.879
  2135.0,0.001510,0.001034,0.010144,0.000009,  26.871
  2136.0,0.001536,0.001049,0.009868,0.000027,  26.874
  2137.0,0.001554,0.001059,0.009580,0.000041,  26.876
  2138.0,0.001588,0.001077,0.009715,0.000076,  26.879
  2139.0,0.001580,0.001095,0.009850,0.000090,  26.881
  2140.0,0.001569,0.001092,0.009909,0.000076,  26.891
  2141.0,0.001552,0.001067,0.008908,0.000063,  26.885
  2142.0,0.001556,0.001068,0.009174,0.000076,  26.889
  2143.0,0.001560,0.001070,0.009409,0.000090,  26.893
  2144.0,0.001572,0.001075,0.009555,0.000090,  26.891
  2145.0,0.001564,0.001080,0.009605,0.000103,  26.895
  2146.0,0.001570,0.001072,0.009453,0.000103,  26.890
  2147.0,0.001560,0.001082,0.009593,0.000076,  26.905
  2148.0,0.001505,0.001053,0.009940,0.000023,  26.904
  2149.0,0.001480,0.001012,0.009965,0.000023,  26.896
  2150.0,0.001502,0.001029,0.008691,0.000049,  26.897
  2151.0,0.001514,0.001041,0.009250,0.000063,  26.903
  2152.0,0.001541,0.001059,0.009328,0.000090,  26.907
  2153.0,0.001548,0.001059,0.009119,0.000090,  26.903
  2154.0,0.001535,0.001064,0.008887,0.000090,  26.909
  2155.0,0.001515,0.001039,0.008535,0.000049,  26.903
  2156.0,0.001520,0.001045,0.008393,0.000063,  26.902
  2157.0,0.001519,0.001051,0.009041,0.000090,  26.890
  2158.0,0.001522,0.001051,0.009331,0.000090,  26.888
  2159.0,0.001533,0.001061,0.009195,0.000103,  26.890
  2160.0,0.001547,0.001066,0.009348,0.000068,  26.889
  2161.0,0.001533,0.001075,0.009512,0.000103,  26.891
  2162.0,0.001481,0.001047,0.009666,0.000036,  26.903
  2163.0,0.001448,0.001007,0.009407,0.000009,  26.890
  2164.0,0.001468,0.001014,0.009363,0.000063,  26.884
  2165.0,0.001480,0.001024,0.008831,0.000076,  26.889
  2166.0,0.001504,0.001034,0.009075,0.000117,  26.880
  2167.0,0.001529,0.001049,0.009193,0.000103,  26.878
  2168.0,0.001526,0.001055,0.009171,0.000103,  26.885
  2169.0,0.001489,0.001036,0.009309,0.000063,  26.879
  2170.0,0.001501,0.001026,0.009280,0.000099,  26.877
  2171.0,0.001507,0.001041,0.009248,0.000125,  26.877
  2172.0,0.001494,0.001039,0.008328,0.000090,  26.876
  2173.0,0.001512,0.001053,0.008785,0.000090,  26.873
  2174.0,0.001518,0.001059,0.009098,0.000125,  26.877
  2175.0,0.001517,0.001062,0.009301,0.000125,  26.882
  2176.0,0.001479,0.001037,0.009416,0.000036,  26.883
  2177.0,0.001433,0.001002,0.009559,0.000009,  26.879
  2178.0,0.001445,0.001003,0.008981,0.000049,  26.879
  2179.0,0.001471,0.001021,0.009151,0.000103,  26.877
  2180.0,0.001494,0.001038,0.007905,0.000103,  26.881
  2181.0,0.001499,0.001043,0.008686,0.000103,  26.880
  2182.0,0.001511,0.001059,0.008545,0.000117,  26.880
  2183.0,0.001483,0.001042,0.008664,0.000090,  26.883
  2184.0,0.001474,0.001029,0.009049,0.000090,  26.880
  2185.0,0.001482,0.001030,0.008797,0.000103,  26.879
  2186.0,0.001478,0.001023,0.008576,0.000103,  26.881
  2187.0,0.001492,0.001031,0.008808,0.000117,  26.877
  2188.0,0.001492,0.001032,0.008871,0.000103,  26.880
  2189.0,0.001488,0.001036,0.008965,0.000103,  26.882
  2190.0,0.001461,0.001030,0.009091,0.000085,  26.896
  2191.0,0.001405,0.000990,0.009432,-0.000026,  26.878
  2192.0,0.001425,0.000983,0.009142,0.000049,  26.874
  2193.0,0.001440,0.000998,0.008886,0.000103,  26.872
  2194.0,0.001459,0.001011,0.008850,0.000103,  26.877
  2195.0,0.001479,0.001021,0.008931,0.000068,  26.875
  2196.0,0.001479,0.001037,0.008919,0.000139,  26.882
  2197.0,0.001451,0.001030,0.008887,0.000063,  26.875
  2198.0,0.001452,0.001011,0.008657,0.000103,  26.873
  2199.0,0.001453,0.001014,0.008147,0.000130,  26.868
  2200.0,0.001465,0.001018,0.007472,0.000117,  26.863
  2201.0,0.001480,0.001026,0.008451,0.000143,  26.857
  2202.0,0.001465,0.001030,0.008629,0.000201,  26.852
  2203.0,0.001459,0.001019,0.008518,0.000152,  26.853
  2204.0,0.001443,0.001014,0.008696,0.000139,  26.868
  2205.0,0.001371,0.000967,0.008978,0.000045,  26.865
  2206.0,0.001378,0.000952,0.008794,0.000072,  26.844
  2207.0,0.001405,0.000967,0.008668,0.000139,  26.841
  2208.0,0.001424,0.000986,0.008500,0.000139,  26.840
  2209.0,0.001451,0.001004,0.007326,0.000152,  26.835
  2210.0,0.001453,0.001007,0.008159,0.000166,  26.845
  2211.0,0.001442,0.001010,0.008436,0.000090,  26.851
  2212.0,0.001428,0.001002,0.008258,0.000103,  26.843
  2213.0,0.001429,0.001001,0.008435,0.000117,  26.844
  2214.0,0.001432,0.001008,0.008462,0.000117,  26.853
  2215.0,0.001447,0.001012,0.008471,0.000130,  26.857
  2216.0,0.001450,0.001018,0.008421,0.000094,  26.862
  2217.0,0.001459,0.001012,0.008118,0.000072,  26.870
  2218.0,0.001437,0.001017,0.007789,0.000094,  26.894
  2219.0,0.001385,0.000977,0.008532,0.000063,  26.896
  2220.0,0.001364,0.000955,0.008721,0.000076,  26.895
  2221.0,0.001396,0.000977,0.008586,0.000103,  26.900
  2222.0,0.001417,0.000987,0.008327,0.000130,  26.909
  2223.0,0.001431,0.001005,0.008405,0.000143,  26.920
  2224.0,0.001434,0.001020,0.008451,0.000143,  26.932
  2225.0,0.001424,0.001010,0.008476,0.000130,  26.946
  2226.0,0.001400,0.000988,0.008472,0.000130,  26.956
  2227.0,0.001403,0.000988,0.008447,0.000130,  26.960
  2228.0,0.001409,0.000991,0.008334,0.000143,  26.956
  2229.0,0.001413,0.001003,0.008361,0.000143,  26.954
  2230.0,0.001424,0.000998,0.007804,0.000130,  26.950
  2231.0,0.001413,0.000993,0.008161,0.000143,  26.950
  2232.0,0.001403,0.001001,0.008389,0.000130,  26.960
  2233.0,0.001359,0.000975,0.008637,0.000063,  26.963
  2234.0,0.001328,0.000934,0.008685,0.000063,  26.963
  2235.0,0.001347,0.000943,0.008441,0.000103,  26.976
  2236.0,0.001372,0.000963,0.008161,0.000117,  26.983
  2237.0,0.001388,0.000976,0.008203,0.000130,  26.986
  2238.0,0.001405,0.000984,0.007867,0.000130,  26.990
  2239.0,0.001405,0.000999,0.007936,0.000130,  26.991
  2240.0,0.001370,0.000969,0.008192,0.000117,  26.991
  2241.0,0.001384,0.000964,0.007853,0.000117,  26.990
  2242.0,0.001377,0.000967,0.008155,0.000143,  26.995
  2243.0,0.001382,0.000968,0.008123,0.000117,  26.995
  2244.0,0.001390,0.000973,0.006926,0.000143,  27.006
  2245.0,0.001388,0.000971,0.007757,0.000143,  27.007
  2246.0,0.001382,0.000974,0.007974,0.000117,  27.018
  2247.0,0.001344,0.000949,0.008229,0.000063,  27.015
  2248.0,0.001289,0.000914,0.008058,0.000036,  27.016
  2249.0,0.001323,0.000933,0.007670,0.000032,  27.014
  2250.0,0.001344,0.000943,0.007939,0.000081,  27.024
  2251.0,0.001364,0.000966,0.007704,0.000108,  27.022
  2252.0,0.001381,0.000977,0.007705,0.000143,  27.021
  2253.0,0.001375,0.000985,0.006791,0.000143,  27.019
  2254.0,0.001353,0.000960,0.007629,0.000117,  27.017
  2255.0,0.001359,0.000961,0.007882,0.000143,  27.019
  2256.0,0.001358,0.000959,0.007843,0.000143,  27.034
  2257.0,0.001364,0.000961,0.007855,0.000121,  27.041
  2258.0,0.001367,0.000968,0.008022,0.000121,  27.045
  2259.0,0.001353,0.000958,0.007811,0.000108,  27.048
  2260.0,0.001349,0.000958,0.007602,0.000072,  27.050
  2261.0,0.001300,0.000936,0.007581,0.000041,  27.042
  2262.0,0.001243,0.000889,0.007962,-0.000026,  27.043
  2263.0,0.001267,0.000888,0.007808,0.000018,  27.043
  2264.0,0.001294,0.000905,0.007771,0.000081,  27.040
  2265.0,0.001329,0.000930,0.007196,0.000094,  27.039
  2266.0,0.001341,0.000945,0.007659,0.000072,  27.043
  2267.0,0.001341,0.000945,0.007692,0.000108,  27.046
  2268.0,0.001324,0.000934,0.007873,0.000072,  27.047
  2269.0,0.001318,0.000923,0.007798,0.000108,  27.044
  2270.0,0.001312,0.000933,0.007176,0.000094,  27.045
  2271.0,0.001326,0.000937,0.007542,0.000072,  27.041
  2272.0,0.001336,0.000937,0.007652,0.000121,  27.033
  2273.0,0.001329,0.000931,0.007306,0.000108,  27.038
  2274.0,0.001318,0.000929,0.007347,0.000072,  27.041
  2275.0,0.001274,0.000910,0.006277,0.000068,  27.045
  2276.0,0.001213,0.000862,0.007173,-0.000049,  27.045
  2277.0,0.001226,0.000857,0.007382,0.000041,  27.045
  2278.0,0.001237,0.000874,0.007292,0.000068,  27.052
  2279.0,0.001270,0.000890,0.007300,0.000045,  27.058
  2280.0,0.001275,0.000905,0.007497,0.000094,  27.062
  2281.0,0.001281,0.000908,0.007453,0.000081,  27.069
  2282.0,0.001262,0.000905,0.007504,0.000045,  27.071
  2283.0,0.001248,0.000891,0.006898,0.000068,  27.075
  2284.0,0.001275,0.000905,0.007180,0.000094,  27.076
  2285.0,0.001287,0.000917,0.007348,0.000108,  27.084
  2286.0,0.001305,0.000931,0.007237,0.000108,  27.083
  2287.0,0.001310,0.000935,0.007207,0.000072,  27.084
  2288.0,0.001307,0.000939,0.007256,0.000135,  27.088
  2289.0,0.001279,0.000934,0.007575,0.000094,  27.088
  2290.0,0.001230,0.000898,0.007789,0.000005,  27.090
  2291.0,0.001219,0.000885,0.007722,0.000041,  27.097
  2292.0,0.001244,0.000894,0.007365,0.000081,  27.097
  2293.0,0.001267,0.000903,0.007395,0.000108,  27.105
  2294.0,0.001284,0.000919,0.007476,0.000108,  27.114
  2295.0,0.001287,0.000925,0.007539,0.000099,  27.118
  2296.0,0.001268,0.000924,0.006877,0.000108,  27.120
  2297.0,0.001258,0.000896,0.006914,0.000094,  27.126
  2298.0,0.001264,0.000904,0.006659,0.000072,  27.129
  2299.0,0.001267,0.000900,0.007092,0.000121,  27.138
  2300.0,0.001273,0.000897,0.007159,0.000094,  27.140
  2301.0,0.001270,0.000898,0.006734,0.000094,  27.150
  2302.0,0.001258,0.000906,0.006937,0.000094,  27.153
  2303.0,0.001241,0.000894,0.006628,0.000059,  27.153
  2304.0,0.001182,0.000854,0.007332,0.000000,  27.150
  2305.0,0.001176,0.000828,0.007410,0.000014,  27.154
  2306.0,0.001206,0.000850,0.007127,0.000045,  27.158
  2307.0,0.001229,0.000864,0.007037,0.000094,  27.155
  2308.0,0.001247,0.000884,0.007179,0.000094,  27.154
  2309.0,0.001241,0.000881,0.007117,0.000059,  27.150
  2310.0,0.001210,0.000870,0.006924,0.000068,  27.144
  2311.0,0.001177,0.000835,0.006993,0.000032,  27.143
  2312.0,0.001190,0.000839,0.006869,0.000081,  27.141
  2313.0,0.001192,0.000845,0.006862,0.000081,  27.137
  2314.0,0.001216,0.000861,0.006823,0.000045,  27.126
  2315.0,0.001226,0.000868,0.006890,0.000094,  27.116
  2316.0,0.001234,0.000883,0.006834,0.000094,  27.116
  2317.0,0.001229,0.000883,0.006884,0.000059,  27.113
  2318.0,0.001157,0.000846,0.007077,0.000027,  27.108
  2319.0,0.001146,0.000815,0.006857,0.000027,  27.103
  2320.0,0.001167,0.000833,0.006771,0.000081,  27.103
  2321.0,0.001181,0.000848,0.006793,0.000108,  27.099
  2322.0,0.001211,0.000866,0.006792,0.000072,  27.101
  2323.0,0.001216,0.000877,0.006572,0.000121,  27.098
  2324.0,0.001205,0.000874,0.005441,0.000094,  27.098
  2325.0,0.001177,0.000844,0.006133,0.000032,  27.094
  2326.0,0.001184,0.000844,0.006450,0.000094,  27.089
  2327.0,0.001193,0.000839,0.006510,0.000081,  27.088
  2328.0,0.001189,0.000852,0.006387,0.000094,  27.091
  2329.0,0.001197,0.000852,0.006662,0.000094,  27.091
  2330.0,0.001206,0.000855,0.006618,0.000072,  27.091
  2331.0,0.001203,0.000861,0.006264,0.000121,  27.095
  2332.0,0.001146,0.000833,0.005783,0.000041,  27.099
  2333.0,0.001127,0.000811,0.006107,0.000000,  27.099
  2334.0,0.001137,0.000810,0.006428,0.000103,  27.106
  2335.0,0.001143,0.000822,0.006383,0.000081,  27.109
  2336.0,0.001175,0.000839,0.006439,0.000059,  27.121
  2337.0,0.001174,0.000840,0.006458,0.000094,  27.128
  2338.0,0.001176,0.000844,0.006420,0.000059,  27.137
  2339.0,0.001129,0.000818,0.006560,0.000041,  27.143
  2340.0,0.001142,0.000819,0.005738,0.000068,  27.150
  2341.0,0.001153,0.000820,0.006130,0.000045,  27.154
  2342.0,0.001166,0.000831,0.006304,0.000108,  27.162
  2343.0,0.001171,0.000834,0.006347,0.000094,  27.174
  2344.0,0.001175,0.000829,0.006422,0.000094,  27.177
  2345.0,0.001169,0.000837,0.006462,0.000094,  27.175
  2346.0,0.001112,0.000800,0.006487,0.000018,  27.176
  2347.0,0.001068,0.000764,0.006384,0.000000,  27.182
  2348.0,0.001101,0.000787,0.006378,0.000054,  27.193
  2349.0,0.001131,0.000798,0.006089,0.000059,  27.195
  2350.0,0.001154,0.000818,0.005026,0.000108,  27.196
  2351.0,0.001154,0.000822,0.005901,0.000094,  27.198
  2352.0,0.001142,0.000825,0.006267,0.000059,  27.196
  2353.0,0.001106,0.000797,0.006470,0.000054,  27.197
  2354.0,0.001110,0.000790,0.006306,0.000032,  27.199
  2355.0,0.001111,0.000796,0.006158,0.000094,  27.203
  2356.0,0.001116,0.000804,0.006182,0.000081,  27.203
  2357.0,0.001125,0.000796,0.006139,0.000045,  27.202
  2358.0,0.001122,0.000793,0.006083,0.000094,  27.203
  2359.0,0.001128,0.000810,0.006090,0.000081,  27.204
  2360.0,0.001087,0.000795,0.006193,0.000005,  27.204
  2361.0,0.001051,0.000754,0.006348,-0.000013,  27.202
  2362.0,0.001060,0.000753,0.005974,0.000041,  27.208
  2363.0,0.001083,0.000772,0.005796,0.000045,  27.211
  2364.0,0.001106,0.000800,0.005869,0.000081,  27.215
  2365.0,0.001119,0.000801,0.006088,0.000072,  27.215
  2366.0,0.001128,0.000806,0.005375,0.000121,  27.219
  2367.0,0.001099,0.000801,0.005976,0.000054,  27.221
  2368.0,0.001098,0.000790,0.006177,0.000045,  27.227
  2369.0,0.001111,0.000796,0.006082,0.000117,  27.225
  2370.0,0.001120,0.000813,0.006024,0.000117,  27.225
  2371.0,0.001127,0.000827,0.005647,0.000094,  27.229
  2372.0,0.001132,0.000821,0.005717,0.000094,  27.228
  2373.0,0.001124,0.000814,0.005765,0.000072,  27.228
  2374.0,0.001083,0.000806,0.006107,0.000054,  27.222
  2375.0,0.001027,0.000757,0.006320,-0.000013,  27.223
  2376.0,0.001034,0.000746,0.004695,-0.000008,  27.222
  2377.0,0.001044,0.000750,0.005419,0.000063,  27.222
  2378.0,0.001070,0.000772,0.005744,0.000117,  27.222
  2379.0,0.001091,0.000777,0.005884,0.000117,  27.219
  2380.0,0.001091,0.000789,0.005852,0.000081,  27.221
  2381.0,0.001070,0.000786,0.005885,0.000045,  27.219
  2382.0,0.001052,0.000767,0.005794,0.000081,  27.217
  2383.0,0.001068,0.000769,0.005851,0.000094,  27.213
  2384.0,0.001071,0.000768,0.005110,0.000072,  27.216
  2385.0,0.001081,0.000770,0.005287,0.000108,  27.212
  2386.0,0.001086,0.000785,0.005547,0.000130,  27.215
  2387.0,0.001096,0.000795,0.005732,0.000143,  27.215
  2388.0,0.001083,0.000792,0.005864,0.000117,  27.213
  2389.0,0.001030,0.000748,0.006023,0.000063,  27.214
  2390.0,0.001029,0.000752,0.006041,0.000103,  27.218
  2391.0,0.001055,0.000770,0.005781,0.000094,  27.215
  2392.0,0.001079,0.000779,0.005821,0.000086,  27.217
  2393.0,0.001081,0.000789,0.005783,0.000135,  27.215
  2394.0,0.001084,0.000782,0.005787,0.000121,  27.220
  2395.0,0.001076,0.000786,0.005791,0.000059,  27.218
  2396.0,0.001040,0.000756,0.005589,0.000081,  27.223
  2397.0,0.001056,0.000760,0.005558,0.000108,  27.230
  2398.0,0.001068,0.000777,0.005543,0.000121,  27.230
  2399.0,0.001075,0.000782,0.005569,0.000121,  27.238
  2400.0,0.001079,0.000784,0.005310,0.000099,  27.245
  2401.0,0.001075,0.000784,0.004589,0.000135,  27.249
  2402.0,0.001057,0.000782,0.005209,0.000108,  27.256
  2403.0,0.001003,0.000751,0.005053,0.000018,  27.253
  2404.0,0.000999,0.000730,0.005557,0.000068,  27.261
  2405.0,0.001028,0.000751,0.005462,0.000121,  27.263
  2406.0,0.001042,0.000765,0.005548,0.000135,  27.267
  2407.0,0.001060,0.000778,0.005464,0.000121,  27.270
  2408.0,0.001064,0.000782,0.005082,0.000099,  27.275
  2409.0,0.001050,0.000785,0.005328,0.000135,  27.277
  2410.0,0.001029,0.000760,0.005518,0.000081,  27.272
  2411.0,0.001051,0.000752,0.005496,0.000072,  27.279
  2412.0,0.001061,0.000759,0.005539,0.000135,  27.281
  2413.0,0.001058,0.000782,0.005370,0.000121,  27.286
  2414.0,0.001060,0.000784,0.005557,0.000099,  27.291
  2415.0,0.001055,0.000777,0.005346,0.000135,  27.293
  2416.0,0.001056,0.000775,0.005439,0.000099,  27.289
  2417.0,0.000999,0.000759,0.005605,0.000081,  27.291
  2418.0,0.000965,0.000718,0.005610,0.000054,  27.295
  2419.0,0.001005,0.000734,0.005198,0.000059,  27.298
  2420.0,0.001031,0.000747,0.005160,0.000135,  27.302
  2421.0,0.001046,0.000765,0.005326,0.000121,  27.303
  2422.0,0.001042,0.000772,0.005363,0.000099,  27.299
  2423.0,0.001037,0.000772,0.005499,0.000135,  27.299
  2424.0,0.001013,0.000745,0.005291,0.000130,  27.303
  2425.0,0.001016,0.000749,0.005068,0.000135,  27.307
  2426.0,0.001024,0.000759,0.005265,0.000135,  27.307
  2427.0,0.001033,0.000762,0.005225,0.000099,  27.317
  2428.0,0.001035,0.000769,0.004000,0.000148,  27.324
  2429.0,0.001043,0.000767,0.004818,0.000135,  27.329
  2430.0,0.001038,0.000771,0.005272,0.000086,  27.325
  2431.0,0.000986,0.000745,0.004931,0.000054,  27.328
  2432.0,0.000952,0.000703,0.005438,0.000054,  27.333
  2433.0,0.000985,0.000720,0.005391,0.000108,  27.341
  2434.0,0.000999,0.000733,0.005105,0.000121,  27.350
  2435.0,0.001023,0.000752,0.005123,0.000099,  27.351
  2436.0,0.001039,0.000776,0.005337,0.000148,  27.362
  2437.0,0.001040,0.000779,0.004816,0.000148,  27.357
  2438.0,0.001023,0.000767,0.005367,0.000086,  27.360
  2439.0,0.001023,0.000763,0.005360,0.000135,  27.365
  2440.0,0.001039,0.000766,0.004922,0.000148,  27.375
  2441.0,0.001041,0.000778,0.004618,0.000135,  27.380
  2442.0,0.001038,0.000788,0.004984,0.000148,  27.379
  2443.0,0.001034,0.000782,0.005277,0.000112,  27.381
  2444.0,0.001030,0.000784,0.004074,0.000161,  27.384
  2445.0,0.001001,0.000769,0.004973,0.000108,  27.378
  2446.0,0.000964,0.000741,0.004545,0.000045,  27.387
  2447.0,0.000984,0.000740,0.005038,0.000121,  27.394
  2448.0,0.000997,0.000758,0.005183,0.000135,  27.395
  2449.0,0.001011,0.000758,0.004425,0.000148,  27.402
  2450.0,0.001016,0.000763,0.004976,0.000148,  27.407
  2451.0,0.001023,0.000765,0.005047,0.000139,  27.403
  2452.0,0.000999,0.000760,0.005385,0.000121,  27.407
  2453.0,0.000999,0.000753,0.004673,0.000112,  27.415
  2454.0,0.001004,0.000751,0.004896,0.000112,  27.419
  2455.0,0.001004,0.000753,0.005004,0.000148,  27.421
  2456.0,0.001009,0.000756,0.004753,0.000148,  27.420
  2457.0,0.001011,0.000761,0.004856,0.000112,  27.429
  2458.0,0.001009,0.000773,0.004932,0.000148,  27.426
  2459.0,0.000992,0.000756,0.005294,0.000135,  27.412
  2460.0,0.000937,0.000722,0.005467,0.000094,  27.416
  2461.0,0.000947,0.000716,0.005391,0.000108,  27.427
  2462.0,0.000974,0.000723,0.005191,0.000086,  27.423
  2463.0,0.000978,0.000729,0.003938,0.000148,  27.420
  2464.0,0.000983,0.000739,0.004380,0.000170,  27.416
  2465.0,0.000987,0.000732,0.004628,0.000135,  27.411
  2466.0,0.000952,0.000717,0.004984,0.000121,  27.401
  2467.0,0.000939,0.000701,0.004965,0.000121,  27.407
  2468.0,0.000944,0.000707,0.004657,0.000121,  27.400
  2469.0,0.000946,0.000708,0.004718,0.000135,  27.404
  2470.0,0.000959,0.000714,0.004812,0.000099,  27.401
  2471.0,0.000951,0.000713,0.004863,0.000135,  27.400
  2472.0,0.000937,0.000707,0.004804,0.000135,  27.399
  2473.0,0.000920,0.000708,0.004429,0.000072,  27.382
  2474.0,0.000860,0.000676,0.004875,0.000063,  27.384
  2475.0,0.000871,0.000656,0.004830,0.000103,  27.376
  2476.0,0.000902,0.000684,0.004652,0.000130,  27.371
  2477.0,0.000917,0.000698,0.004689,0.000157,  27.370
  2478.0,0.000939,0.000698,0.004674,0.000157,  27.359
  2479.0,0.000938,0.000707,0.004704,0.000135,  27.354
  2480.0,0.000917,0.000707,0.004632,0.000094,  27.353
  2481.0,0.000901,0.000684,0.004674,0.000072,  27.348
  2482.0,0.000919,0.000684,0.004556,0.000135,  27.357
  2483.0,0.000916,0.000686,0.004500,0.000121,  27.356
  2484.0,0.000931,0.000698,0.004432,0.000099,  27.356
  2485.0,0.000931,0.000700,0.004563,0.000135,  27.363
  2486.0,0.000926,0.000694,0.004557,0.000099,  27.370
  2487.0,0.000903,0.000688,0.004629,0.000121,  27.370
  2488.0,0.000859,0.000650,0.004576,0.000041,  27.368
  2489.0,0.000835,0.000632,0.004655,0.000018,  27.371
  2490.0,0.000860,0.000646,0.004513,0.000094,  27.376
  2491.0,0.000876,0.000654,0.004337,0.000094,  27.379
  2492.0,0.000886,0.000664,0.004332,0.000072,  27.382
  2493.0,0.000896,0.000677,0.004323,0.000121,  27.387
  2494.0,0.000883,0.000674,0.004044,0.000108,  27.386
  2495.0,0.000852,0.000649,0.003693,0.000094,  27.394
  2496.0,0.000858,0.000646,0.003946,0.000094,  27.398
  2497.0,0.000869,0.000651,0.003954,0.000072,  27.404
  2498.0,0.000873,0.000651,0.004076,0.000121,  27.409
  2499.0,0.000873,0.000658,0.003579,0.000108,  27.409
  2500.0,0.000873,0.000657,0.003899,0.000072,  27.410
  2501.0,0.000870,0.000661,0.004207,0.000108,  27.408
  2502.0,0.000817,0.000624,0.003993,0.000027,  27.405
  2503.0,0.000799,0.000601,0.004177,0.000005,  27.407
  2504.0,0.000822,0.000616,0.004042,0.000081,  27.408
  2505.0,0.000846,0.000628,0.002921,0.000072,  27.407
  2506.0,0.000858,0.000649,0.003787,0.000121,  27.406
  2507.0,0.000863,0.000645,0.004004,0.000108,  27.406
  2508.0,0.000856,0.000651,0.004204,0.000059,  27.403
  2509.0,0.000822,0.000624,0.004301,0.000094,  27.403
  2510.0,0.000832,0.000628,0.004086,0.000094,  27.403
  2511.0,0.000837,0.000643,0.004044,0.000072,  27.401
  2512.0,0.000847,0.000635,0.002779,0.000108,  27.397
  2513.0,0.000859,0.000648,0.003378,0.000072,  27.398
  2514.0,0.000855,0.000648,0.003529,0.000121,  27.398
  2515.0,0.000842,0.000636,0.003831,0.000108,  27.392
  2516.0,0.000794,0.000623,0.004109,0.000005,  27.386
  2517.0,0.000755,0.000582,0.004061,0.000014,  27.391
  2518.0,0.000778,0.000579,0.003835,0.000054,  27.393
  2519.0,0.000801,0.000598,0.003810,0.000045,  27.395
  2520.0,0.000813,0.000612,0.003795,0.000081,  27.392
  2521.0,0.000826,0.000625,0.003670,0.000094,  27.393
  2522.0,0.000820,0.000627,0.003800,0.000108,  27.390
  2523.0,0.000784,0.000616,0.003909,0.000081,  27.392
  2524.0,0.000800,0.000611,0.003510,0.000072,  27.399
  2525.0,0.000816,0.000624,0.003722,0.000121,  27.399
  2526.0,0.000823,0.000626,0.003693,0.000108,  27.398
  2527.0,0.000829,0.000631,0.003702,0.000108,  27.404
  2528.0,0.000829,0.000631,0.003504,0.000121,  27.410
  2529.0,0.000832,0.000638,0.003803,0.000108,  27.403
  2530.0,0.000786,0.000608,0.003847,0.000068,  27.407
  2531.0,0.000737,0.000573,0.003975,0.000000,  27.404
  2532.0,0.000763,0.000575,0.003735,0.000045,  27.415
  2533.0,0.000783,0.000589,0.003634,0.000094,  27.415
  2534.0,0.000799,0.000612,0.003569,0.000094,  27.402
  2535.0,0.000815,0.000620,0.003470,0.000072,  27.389
  2536.0,0.000811,0.000625,0.003704,0.000121,  27.377
  2537.0,0.000787,0.000607,0.003578,0.000117,  27.365
  2538.0,0.000800,0.000603,0.003626,0.000130,  27.349
  2539.0,0.000809,0.000623,0.003591,0.000130,  27.342
  2540.0,0.000818,0.000626,0.002853,0.000157,  27.340
  2541.0,0.000827,0.000628,0.003348,0.000170,  27.332
  2542.0,0.000827,0.000629,0.003418,0.000157,  27.333
  2543.0,0.000827,0.000645,0.003637,0.000157,  27.335
  2544.0,0.000806,0.000636,0.003863,0.000117,  27.338
  2545.0,0.000745,0.000597,0.003912,0.000063,  27.344
  2546.0,0.000763,0.000595,0.003916,0.000117,  27.339
  2547.0,0.000786,0.000605,0.003686,0.000130,  27.340
  2548.0,0.000801,0.000612,0.003648,0.000121,  27.347
  2549.0,0.000794,0.000612,0.003730,0.000135,  27.347
  2550.0,0.000801,0.000615,0.003556,0.000121,  27.348
  2551.0,0.000762,0.000614,0.002099,0.000072,  27.352
  2552.0,0.000761,0.000598,0.002789,0.000121,  27.355
  2553.0,0.000792,0.000607,0.003305,0.000108,  27.349
  2554.0,0.000794,0.000613,0.003209,0.000072,  27.345
  2555.0,0.000799,0.000615,0.003178,0.000121,  27.350
  2556.0,0.000799,0.000619,0.003308,0.000099,  27.345
  2557.0,0.000799,0.000620,0.003434,0.000135,  27.350
  2558.0,0.000771,0.000605,0.003553,0.000081,  27.348
  2559.0,0.000701,0.000571,0.003464,-0.000008,  27.349
  2560.0,0.000717,0.000558,0.003435,0.000054,  27.341
  2561.0,0.000746,0.000578,0.003349,0.000081,  27.337
  2562.0,0.000764,0.000593,0.003400,0.000072,  27.339
  2563.0,0.000776,0.000596,0.003431,0.000108,  27.332
  2564.0,0.000770,0.000598,0.003435,0.000121,  27.331
  2565.0,0.000757,0.000594,0.003297,0.000108,  27.341
  2566.0,0.000743,0.000569,0.003384,0.000081,  27.339
  2567.0,0.000761,0.000585,0.003213,0.000086,  27.342
  2568.0,0.000753,0.000582,0.003280,0.000135,  27.335
  2569.0,0.000764,0.000596,0.002868,0.000121,  27.338
  2570.0,0.000767,0.000600,0.003204,0.000099,  27.347
  2571.0,0.000767,0.000601,0.003124,0.000135,  27.349
  2572.0,0.000752,0.000597,0.003258,0.000094,  27.352
  2573.0,0.000700,0.000567,0.003309,0.000018,  27.351
  2574.0,0.000704,0.000549,0.003342,0.000068,  27.354
  2575.0,0.000721,0.000569,0.003208,0.000059,  27.359
  2576.0,0.000739,0.000580,0.003204,0.000121,  27.368
  2577.0,0.000752,0.000588,0.003192,0.000121,  27.368
  2578.0,0.000757,0.000591,0.003114,0.000099,  27.372
  2579.0,0.000741,0.000594,0.003201,0.000135,  27.376
  2580.0,0.000718,0.000567,0.003225,0.000108,  27.373
  2581.0,0.000734,0.000573,0.002177,0.000108,  27.374
  2582.0,0.000734,0.000556,0.001614,0.000121,  27.374
  2583.0,0.000733,0.000565,0.002681,0.000099,  27.369
  2584.0,0.000739,0.000569,0.002776,0.000135,  27.371
  2585.0,0.000733,0.000577,0.003091,0.000135,  27.370
  2586.0,0.000723,0.000585,0.002945,0.000086,  27.366
  2587.0,0.000660,0.000544,0.002628,0.000068,  27.367
  2588.0,0.000651,0.000517,0.003018,0.000054,  27.368
  2589.0,0.000668,0.000533,0.002918,0.000072,  27.371
  2590.0,0.000697,0.000547,0.002977,0.000108,  27.367
  2591.0,0.000713,0.000564,0.002604,0.000099,  27.366
  2592.0,0.000724,0.000576,0.002792,0.000135,  27.367
  2593.0,0.000721,0.000569,0.002885,0.000108,  27.369
  2594.0,0.000694,0.000546,0.003280,0.000072,  27.373
  2595.0,0.000704,0.000558,0.003184,0.000099,  27.379
  2596.0,0.000725,0.000567,0.003011,0.000086,  27.377
  2597.0,0.000733,0.000580,0.003005,0.000099,  27.381
  2598.0,0.000738,0.000583,0.002802,0.000099,  27.381
  2599.0,0.000744,0.000587,0.002978,0.000077,  27.385
  2600.0,0.000724,0.000581,0.003055,0.000099,  27.385
  2601.0,0.000672,0.000544,0.003044,0.000018,  27.386
  2602.0,0.000642,0.000511,0.003202,-0.000008,  27.394
  2603.0,0.000667,0.000519,0.002864,0.000068,  27.396
  2604.0,0.000689,0.000536,0.001863,0.000108,  27.395
  2605.0,0.000701,0.000546,0.002575,0.000143,  27.398
  2606.0,0.000706,0.000550,0.002773,0.000157,  27.394
  2607.0,0.000704,0.000560,0.002492,0.000108,  27.393
  2608.0,0.000671,0.000534,0.001008,0.000045,  27.394
  2609.0,0.000664,0.000535,0.002024,0.000094,  27.389
  2610.0,0.000683,0.000541,0.002225,0.000072,  27.388
  2611.0,0.000689,0.000558,0.002375,0.000135,  27.388
  2612.0,0.000700,0.000559,0.002704,0.000143,  27.393
  2613.0,0.000700,0.000553,0.001451,0.000108,  27.385
  2614.0,0.000686,0.000561,0.002380,0.000121,  27.381
  2615.0,0.000654,0.000532,0.002791,0.000041,  27.378
  2616.0,0.000626,0.000505,0.002464,0.000005,  27.382
  2617.0,0.000642,0.000515,0.000822,0.000081,  27.381
  2618.0,0.000662,0.000529,0.001456,0.000072,  27.387
  2619.0,0.000683,0.000546,0.002363,0.000121,  27.384
  2620.0,0.000690,0.000558,0.001884,0.000135,  27.383
  2621.0,0.000698,0.000558,0.002486,0.000099,  27.386
  2622.0,0.000677,0.000544,0.002708,0.000108,  27.390
  2623.0,0.000680,0.000536,0.002795,0.000108,  27.387
  2624.0,0.000688,0.000548,0.002800,0.000099,  27.387
  2625.0,0.000685,0.000550,0.002829,0.000135,  27.385
  2626.0,0.000685,0.000545,0.002800,0.000121,  27.388
  2627.0,0.000685,0.000545,0.002788,0.000135,  27.388
  2628.0,0.000683,0.000541,0.002718,0.000108,  27.390
  2629.0,0.000638,0.000525,0.002762,0.000045,  27.390
  2630.0,0.000601,0.000496,0.002739,0.000014,  27.389
  2631.0,0.000621,0.000494,0.001523,0.000068,  27.386
  2632.0,0.000642,0.000517,0.002177,0.000072,  27.380
  2633.0,0.000662,0.000527,0.002311,0.000135,  27.374
  2634.0,0.000677,0.000533,0.002509,0.000121,  27.360
  2635.0,0.000685,0.000551,0.002573,0.000099,  27.358
  2636.0,0.000671,0.000534,0.002698,0.000081,  27.355
  2637.0,0.000661,0.000520,0.002269,0.000059,  27.347
  2638.0,0.000670,0.000528,0.002450,0.000121,  27.348
  2639.0,0.000677,0.000536,0.001844,0.000135,  27.343
  2640.0,0.000675,0.000539,0.001642,0.000099,  27.343
  2641.0,0.000677,0.000543,0.001485,0.000135,  27.350
  2642.0,0.000677,0.000549,0.002074,0.000135,  27.348
  2643.0,0.000649,0.000526,0.002466,0.000059,  27.349
  2644.0,0.000598,0.000489,0.002782,0.000041,  27.358
  2645.0,0.000608,0.000486,0.001809,0.000032,  27.352
  2646.0,0.000625,0.000501,0.002075,0.000121,  27.354
  2647.0,0.000645,0.000522,0.002320,0.000135,  27.356
  2648.0,0.000665,0.000520,0.002337,0.000099,  27.355
  2649.0,0.000661,0.000532,0.002287,0.000135,  27.358
  2650.0,0.000644,0.000530,0.002035,0.000108,  27.362
  2651.0,0.000636,0.000508,0.002271,0.000086,  27.363
  2652.0,0.000644,0.000511,0.002273,0.000135,  27.375
  2653.0,0.000643,0.000521,0.002358,0.000099,  27.374
  2654.0,0.000645,0.000531,0.001800,0.000077,  27.376
  2655.0,0.000653,0.000535,0.002146,0.000099,  27.381
  2656.0,0.000653,0.000534,0.002219,0.000099,  27.380
  2657.0,0.000624,0.000526,0.002298,0.000135,  27.380
  2658.0,0.000571,0.000486,0.002429,0.000041,  27.385
  2659.0,0.000585,0.000465,0.002278,0.000032,  27.383
  2660.0,0.000597,0.000480,0.002251,0.000108,  27.391
  2661.0,0.000613,0.000498,0.002254,0.000121,  27.392
  2662.0,0.000617,0.000508,0.002356,0.000135,  27.404
  2663.0,0.000625,0.000508,0.000807,0.000121,  27.407
  2664.0,0.000601,0.000502,0.001566,0.000086,  27.407
  2665.0,0.000589,0.000481,0.002036,0.000108,  27.410
  2666.0,0.000605,0.000484,0.002001,0.000094,  27.416
  2667.0,0.000613,0.000488,0.001359,0.000072,  27.417
  2668.0,0.000609,0.000487,0.001847,0.000121,  27.422
  2669.0,0.000621,0.000487,0.001674,0.000108,  27.422
  2670.0,0.000620,0.000495,0.001913,0.000072,  27.429
  2671.0,0.000602,0.000504,0.002187,0.000094,  27.430
  2672.0,0.000554,0.000475,0.002267,0.000041,  27.430
  2673.0,0.000541,0.000452,0.002197,0.000041,  27.434
  2674.0,0.000571,0.000465,0.002069,0.000081,  27.435
  2675.0,0.000587,0.000479,0.001895,0.000072,  27.438
  2676.0,0.000596,0.000491,0.002019,0.000108,  27.438
  2677.0,0.000612,0.000492,0.001579,0.000108,  27.436
  2678.0,0.000597,0.000498,0.002016,0.000059,  27.440
  2679.0,0.000581,0.000472,0.001963,0.000094,  27.439
  2680.0,0.000595,0.000465,0.002065,0.000108,  27.443
  2681.0,0.000589,0.000481,0.001939,0.000121,  27.450
  2682.0,0.000591,0.000472,0.001900,0.000108,  27.446
  2683.0,0.000597,0.000483,0.001928,0.000072,  27.444
  2684.0,0.000591,0.000481,0.001923,0.000121,  27.441
  2685.0,0.000587,0.000488,0.002028,0.000094,  27.434
  2686.0,0.000534,0.000454,0.002107,-0.000008,  27.439
  2687.0,0.000515,0.000428,0.001930,0.000054,  27.434
  2688.0,0.000554,0.000456,0.002023,0.000094,  27.439
  2689.0,0.000578,0.000476,0.001939,0.000072,  27.443
  2690.0,0.000605,0.000494,0.001959,0.000108,  27.443
  2691.0,0.000609,0.000498,0.001997,0.000086,  27.448
  2692.0,0.000606,0.000510,0.001979,0.000135,  27.444
  2693.0,0.000578,0.000483,0.001826,0.000108,  27.450
  2694.0,0.000589,0.000489,0.001744,0.000086,  27.450
  2695.0,0.000594,0.000484,0.001917,0.000157,  27.455
  2696.0,0.000605,0.000489,0.001858,0.000121,  27.456
  2697.0,0.000599,0.000489,0.002035,0.000099,  27.454
  2698.0,0.000607,0.000493,0.000590,0.000086,  27.459
  2699.0,0.000607,0.000498,0.001314,0.000099,  27.463
  2700.0,0.000558,0.000480,0.001939,0.000045,  27.453
  2701.0,0.000522,0.000449,0.002059,0.000068,  27.465
  2702.0,0.000558,0.000464,0.001668,0.000086,  27.469
  2703.0,0.000581,0.000475,0.001152,0.000135,  27.470
  2704.0,0.000594,0.000488,0.001288,0.000135,  27.473
  2705.0,0.000610,0.000502,0.001528,0.000099,  27.470
  2706.0,0.000607,0.000504,0.001448,0.000135,  27.470
  2707.0,0.000584,0.000494,0.000626,0.000121,  27.475
  2708.0,0.000591,0.000493,0.001660,0.000135,  27.473
  2709.0,0.000600,0.000494,0.001496,0.000135,  27.474
  2710.0,0.000597,0.000496,0.001222,0.000099,  27.475
  2711.0,0.000594,0.000499,0.000415,0.000161,  27.478
  2712.0,0.000597,0.000489,0.000138,0.000148,  27.481
  2713.0,0.000592,0.000496,0.001406,0.000099,  27.478
  2714.0,0.000562,0.000486,0.001868,0.000081,  27.471
  2715.0,0.000502,0.000441,0.002007,0.000054,  27.469
  2716.0,0.000522,0.000443,0.002031,0.000094,  27.468
  2717.0,0.000548,0.000457,0.002022,0.000108,  27.468
  2718.0,0.000564,0.000468,0.001921,0.000099,  27.470
  2719.0,0.000568,0.000481,0.001855,0.000135,  27.463
  2720.0,0.000582,0.000486,0.001947,0.000121,  27.464
  2721.0,0.000551,0.000472,0.002002,0.000059,  27.459
  2722.0,0.000556,0.000462,0.001849,0.000094,  27.456
  2723.0,0.000560,0.000459,0.001587,0.000130,  27.456
  2724.0,0.000550,0.000473,0.001532,0.000108,  27.449
  2725.0,0.000560,0.000466,0.001671,0.000157,  27.444
  2726.0,0.000553,0.000461,0.001752,0.000170,  27.439
  2727.0,0.000550,0.000467,0.001673,0.000170,  27.430
  2728.0,0.000519,0.000451,0.002044,0.000117,  27.429
  2729.0,0.000467,0.000415,0.002019,0.000090,  27.429
  2730.0,0.000493,0.000419,0.001793,0.000090,  27.424
  2731.0,0.000519,0.000433,0.001787,0.000130,  27.424
  2732.0,0.000535,0.000453,0.001157,0.000143,  27.417
  2733.0,0.000542,0.000455,0.001384,0.000157,  27.414
  2734.0,0.000548,0.000465,0.001671,0.000170,  27.409
  2735.0,0.000530,0.000450,0.001765,0.000143,  27.413
  2736.0,0.000530,0.000444,0.001567,0.000108,  27.405
  2737.0,0.000535,0.000440,-0.000117,0.000072,  27.400
  2738.0,0.000535,0.000445,0.001079,0.000135,  27.398
  2739.0,0.000540,0.000448,0.001418,0.000108,  27.399
  2740.0,0.000543,0.000447,0.001538,0.000072,  27.401
  2741.0,0.000549,0.000445,0.000174,0.000121,  27.403
  2742.0,0.000529,0.000443,0.000987,0.000059,  27.399
  2743.0,0.000455,0.000400,0.001505,0.000041,  27.407
  2744.0,0.000477,0.000387,0.001263,0.000068,  27.403
  2745.0,0.000505,0.000412,0.000567,0.000072,  27.400
  2746.0,0.000525,0.000426,0.000990,0.000121,  27.408
  2747.0,0.000539,0.000454,0.001363,0.000121,  27.405
  2748.0,0.000550,0.000459,0.001308,0.000099,  27.409
  2749.0,0.000526,0.000450,0.000903,0.000117,  27.409
  2750.0,0.000506,0.000424,0.001250,0.000094,  27.409
  2751.0,0.000521,0.000432,0.001378,0.000157,  27.398
  2752.0,0.000531,0.000443,0.001125,0.000143,  27.389
  2753.0,0.000534,0.000446,0.001231,0.000143,  27.386
  2754.0,0.000539,0.000446,0.001310,0.000157,  27.385
  2755.0,0.000539,0.000455,0.001064,0.000157,  27.384
  2756.0,0.000525,0.000450,0.001159,0.000143,  27.392
  2757.0,0.000474,0.000415,0.001606,0.000076,  27.394
  2758.0,0.000470,0.000406,0.001505,0.000103,  27.395
  2759.0,0.000516,0.000428,0.001231,0.000143,  27.396
  2760.0,0.000538,0.000446,0.001386,0.000157,  27.403
  2761.0,0.000555,0.000466,0.000597,0.000170,  27.413
  2762.0,0.000548,0.000468,0.000547,0.000170,  27.419
  2763.0,0.000546,0.000477,0.000495,0.000157,  27.427
  2764.0,0.000533,0.000457,0.000795,0.000157,  27.434
  2765.0,0.000532,0.000466,0.001299,0.000170,  27.443
  2766.0,0.000542,0.000467,0.001184,0.000170,  27.442
  2767.0,0.000550,0.000465,0.001137,0.000170,  27.445
  2768.0,0.000544,0.000463,0.000991,0.000170,  27.444
  2769.0,0.000555,0.000468,0.001078,0.000219,  27.446
  2770.0,0.000531,0.000469,0.001426,0.000135,  27.442
  2771.0,0.000474,0.000431,0.001414,0.000068,  27.437
  2772.0,0.000464,0.000401,0.001537,0.000032,  27.438
  2773.0,0.000503,0.000419,0.001361,0.000121,  27.425
  2774.0,0.000518,0.000434,0.001420,0.000135,  27.424
  2775.0,0.000531,0.000450,0.001461,0.000126,  27.411
  2776.0,0.000541,0.000458,0.001449,0.000148,  27.390
  2777.0,0.000533,0.000458,0.001450,0.000148,  27.379
  2778.0,0.000510,0.000431,0.001460,0.000135,  27.371
  2779.0,0.000520,0.000436,0.001369,0.000135,  27.356
  2780.0,0.000527,0.000438,0.001348,0.000112,  27.348
  2781.0,0.000517,0.000434,0.001689,0.000148,  27.342
  2782.0,0.000525,0.000430,0.001440,0.000148,  27.338
  2783.0,0.000519,0.000445,0.001286,0.000112,  27.332
  2784.0,0.000519,0.000449,0.001377,0.000121,  27.332
  2785.0,0.000471,0.000412,0.001472,0.000081,  27.337
  2786.0,0.000435,0.000383,0.000397,0.000032,  27.328
  2787.0,0.000466,0.000399,0.000913,0.000094,  27.313
  2788.0,0.000490,0.000416,0.001015,0.000086,  27.316
  2789.0,0.000499,0.000427,0.001144,0.000135,  27.316
  2790.0,0.000515,0.000429,0.000743,0.000135,  27.309
  2791.0,0.000513,0.000442,0.000903,0.000099,  27.316
  2792.0,0.000491,0.000425,0.000976,0.000135,  27.321
  2793.0,0.000502,0.000421,0.001164,0.000148,  27.325
  2794.0,0.000504,0.000431,0.001261,0.000148,  27.330
  2795.0,0.000506,0.000432,0.001280,0.000148,  27.342
  2796.0,0.000514,0.000439,0.001145,0.000112,  27.354
  2797.0,0.000514,0.000444,0.001192,0.000148,  27.360
  2798.0,0.000520,0.000447,0.001062,0.000148,  27.367
  2799.0,0.000482,0.000429,0.000808,0.000059,  27.376
  2800.0,0.000440,0.000396,0.000613,0.000068,  27.387
  2801.0,0.000474,0.000406,0.000960,0.000108,  27.392
  2802.0,0.000496,0.000422,0.001026,0.000099,  27.401
  2803.0,0.000513,0.000434,0.000788,0.000148,  27.403
  2804.0,0.000515,0.000437,0.000905,0.000148,  27.410
  2805.0,0.000507,0.000445,0.000799,0.000135,  27.406
  2806.0,0.000484,0.000429,0.001113,0.000157,  27.414
  2807.0,0.000491,0.000419,0.001151,0.000170,  27.417
  2808.0,0.000509,0.000424,0.001090,0.000170,  27.410
  2809.0,0.000507,0.000433,0.001131,0.000135,  27.407
  2810.0,0.000501,0.000430,0.001130,0.000112,  27.402
  2811.0,0.000504,0.000423,0.001041,0.000148,  27.396
  2812.0,0.000507,0.000435,0.001071,0.000148,  27.396
  2813.0,0.000471,0.000418,-0.000281,0.000086,  27.396
  2814.0,0.000422,0.000383,0.000739,0.000027,  27.395
  2815.0,0.000443,0.000392,0.000996,0.000059,  27.394
  2816.0,0.000463,0.000394,0.000992,0.000135,  27.401
  2817.0,0.000476,0.000412,0.000852,0.000135,  27.399
  2818.0,0.000490,0.000419,0.001039,0.000099,  27.403
  2819.0,0.000480,0.000424,0.001026,0.000135,  27.408
  2820.0,0.000458,0.000410,0.001138,0.000108,  27.412
  2821.0,0.000458,0.000398,0.000481,0.000121,  27.413
  2822.0,0.000467,0.000402,0.000828,0.000135,  27.419
  2823.0,0.000465,0.000402,0.000808,0.000099,  27.421
  2824.0,0.000475,0.000413,0.000895,0.000135,  27.424
  2825.0,0.000484,0.000414,0.000902,0.000135,  27.424
  2826.0,0.000483,0.000428,0.000704,0.000099,  27.425
  2827.0,0.000448,0.000418,0.000232,0.000121,  27.424
  2828.0,0.000398,0.000382,0.000955,0.000027,  27.423
  2829.0,0.000408,0.000371,0.001017,0.000059,  27.428
  2830.0,0.000452,0.000389,0.000929,0.000108,  27.428
  2831.0,0.000467,0.000403,0.000832,0.000086,  27.432
  2832.0,0.000481,0.000410,0.000852,0.000135,  27.430
  2833.0,0.000488,0.000418,0.000903,0.000170,  27.432
  2834.0,0.000467,0.000414,0.001004,0.000170,  27.434
  2835.0,0.000466,0.000399,0.000945,0.000170,  27.439
  2836.0,0.000482,0.000399,0.000902,0.000157,  27.437
  2837.0,0.000478,0.000399,0.000985,0.000170,  27.440
  2838.0,0.000475,0.000402,0.000956,0.000170,  27.444
  2839.0,0.000472,0.000406,0.000906,0.000184,  27.444
  2840.0,0.000466,0.000403,0.001033,0.000170,  27.440
  2841.0,0.000452,0.000400,0.001030,0.000143,  27.439
  2842.0,0.000393,0.000365,0.001049,0.000090,  27.441
  2843.0,0.000390,0.000350,0.001041,0.000103,  27.428
  2844.0,0.000435,0.000372,0.000845,0.000094,  27.424
  2845.0,0.000448,0.000387,0.000898,0.000086,  27.413
  2846.0,0.000461,0.000397,0.000828,0.000228,  27.411
  2847.0,0.000463,0.000403,0.000904,0.000192,  27.401
  2848.0,0.000458,0.000409,0.000959,0.000157,  27.404
  2849.0,0.000437,0.000379,0.000942,0.000130,  27.403
  2850.0,0.000455,0.000392,0.000738,0.000143,  27.403
  2851.0,0.000463,0.000399,0.000187,0.000170,  27.407
  2852.0,0.000471,0.000410,0.000059,0.000157,  27.409
  2853.0,0.000467,0.000413,0.000563,0.000170,  27.411
  2854.0,0.000476,0.000408,0.000801,0.000197,  27.414
  2855.0,0.000468,0.000419,0.000939,0.000157,  27.423
  2856.0,0.000412,0.000380,0.000777,0.000090,  27.426
  2857.0,0.000398,0.000364,-0.000902,0.000103,  27.428
  2858.0,0.000435,0.000391,-0.000010,0.000143,  27.430
  2859.0,0.000455,0.000396,0.000518,0.000170,  27.437
  2860.0,0.000472,0.000399,0.000187,0.000184,  27.446
  2861.0,0.000474,0.000403,0.000558,0.000184,  27.449
  2862.0,0.000461,0.000404,-0.000849,0.000157,  27.452
  2863.0,0.000453,0.000390,0.000171,0.000157,  27.456
  2864.0,0.000446,0.000396,0.000455,0.000157,  27.453
  2865.0,0.000457,0.000404,0.000632,0.000170,  27.453
  2866.0,0.000466,0.000409,0.000667,0.000170,  27.452
  2867.0,0.000471,0.000408,0.000727,0.000184,  27.451
  2868.0,0.000473,0.000404,0.000675,0.000170,  27.456
  2869.0,0.000473,0.000413,0.000824,0.000170,  27.455
  2870.0,0.000420,0.000389,0.000741,0.000081,  27.459
  2871.0,0.000408,0.000362,0.000584,0.000068,  27.461
  2872.0,0.000436,0.000373,0.000600,0.000086,  27.464
  2873.0,0.000445,0.000393,0.000734,0.000135,  27.463
  2874.0,0.000458,0.000408,0.000699,0.000135,  27.466
  2875.0,0.000463,0.000405,-0.000274,0.000112,  27.468
  2876.0,0.000474,0.000409,-0.000314,0.000148,  27.467
  2877.0,0.000437,0.000388,0.000474,0.000072,  27.469
  2878.0,0.000445,0.000387,0.000555,0.000135,  27.466
  2879.0,0.000450,0.000397,0.000548,0.000157,  27.466
  2880.0,0.000448,0.000393,0.000515,0.000170,  27.463
  2881.0,0.000450,0.000392,0.000523,0.000170,  27.465
  2882.0,0.000452,0.000395,0.000682,0.000170,  27.467
  2883.0,0.000448,0.000393,0.000585,0.000170,  27.464
  2884.0,0.000407,0.000370,0.000836,0.000117,  27.469
  2885.0,0.000370,0.000337,0.000914,0.000068,  27.469
  2886.0,0.000402,0.000359,0.000828,0.000108,  27.471
  2887.0,0.000431,0.000372,0.000584,0.000121,  27.469
  2888.0,0.000439,0.000379,0.000218,0.000099,  27.472
  2889.0,0.000443,0.000392,-0.000211,0.000148,  27.472
  2890.0,0.000453,0.000405,-0.000056,0.000135,  27.478
  2891.0,0.000435,0.000378,0.000435,0.000072,  27.485
  2892.0,0.000437,0.000381,0.000419,0.000121,  27.486
  2893.0,0.000451,0.000384,0.000450,0.000148,  27.481
  2894.0,0.000448,0.000389,0.000508,0.000135,  27.487
  2895.0,0.000456,0.000389,0.000557,0.000148,  27.482
  2896.0,0.000454,0.000391,0.000455,0.000112,  27.482
  2897.0,0.000450,0.000387,-0.000745,0.000135,  27.486
  2898.0,0.000417,0.000385,0.000141,0.000094,  27.490
  2899.0,0.000371,0.000333,0.000639,0.000045,  27.490
  2900.0,0.000397,0.000346,0.000432,0.000108,  27.493
  2901.0,0.000417,0.000368,-0.000221,0.000135,  27.495
  2902.0,0.000437,0.000383,0.000290,0.000148,  27.492
  2903.0,0.000450,0.000388,0.000073,0.000148,  27.495
  2904.0,0.000456,0.000404,0.000498,0.000112,  27.493
  2905.0,0.000430,0.000388,0.000543,0.000121,  27.495
  2906.0,0.000437,0.000388,-0.000643,0.000148,  27.496
  2907.0,0.000448,0.000388,0.000246,0.000112,  27.497
  2908.0,0.000448,0.000389,0.000049,0.000148,  27.502
  2909.0,0.000455,0.000400,0.000032,0.000148,  27.501
  2910.0,0.000466,0.000401,0.000022,0.000161,  27.505
  2911.0,0.000455,0.000401,0.000360,0.000184,  27.507
  2912.0,0.000425,0.000389,0.000680,0.000143,  27.498
  2913.0,0.000379,0.000355,0.000119,0.000094,  27.497
  2914.0,0.000397,0.000341,0.000434,0.000108,  27.496
  2915.0,0.000420,0.000363,0.000501,0.000099,  27.492
  2916.0,0.000435,0.000375,0.000635,0.000170,  27.494
  2917.0,0.000440,0.000385,0.000687,0.000170,  27.492
  2918.0,0.000445,0.000385,0.000726,0.000197,  27.491
  2919.0,0.000432,0.000373,0.000641,0.000143,  27.492
  2920.0,0.000430,0.000360,0.000632,0.000157,  27.491
  2921.0,0.000432,0.000370,0.000717,0.000184,  27.494
  2922.0,0.000441,0.000377,0.000408,0.000184,  27.499
  2923.0,0.000446,0.000382,-0.000299,0.000211,  27.496
  2924.0,0.000443,0.000377,0.000261,0.000197,  27.500
  2925.0,0.000443,0.000377,0.000479,0.000184,  27.505
  2926.0,0.000420,0.000378,0.000592,0.000143,  27.511
  2927.0,0.000350,0.000333,0.000853,0.000076,  27.514
  2928.0,0.000374,0.000333,0.000702,0.000130,  27.516
  2929.0,0.000416,0.000354,0.000618,0.000170,  27.515
  2930.0,0.000426,0.000368,0.000437,0.000170,  27.516
  2931.0,0.000450,0.000383,0.000436,0.000197,  27.514
  2932.0,0.000454,0.000400,0.000556,0.000197,  27.518
  2933.0,0.000442,0.000403,0.000595,0.000157,  27.518
  2934.0,0.000429,0.000372,0.000409,0.000170,  27.526
  2935.0,0.000447,0.000386,0.000192,0.000184,  27.529
  2936.0,0.000452,0.000392,0.000308,0.000184,  27.531
  2937.0,0.000465,0.000399,0.000477,0.000197,  27.537
  2938.0,0.000457,0.000392,0.000557,0.000197,  27.542
  2939.0,0.000457,0.000402,0.000789,0.000184,  27.549
  2940.0,0.000432,0.000390,-0.000683,0.000170,  27.546
  2941.0,0.000373,0.000352,0.000214,0.000090,  27.555
  2942.0,0.000378,0.000329,0.000460,0.000130,  27.554
  2943.0,0.000409,0.000353,0.000383,0.000170,  27.558
  2944.0,0.000432,0.000375,0.000202,0.000184,  27.554
  2945.0,0.000444,0.000395,0.000070,0.000197,  27.559
  2946.0,0.000450,0.000379,0.000285,0.000219,  27.562
  2947.0,0.000434,0.000397,0.000503,0.000157,  27.558
  2948.0,0.000424,0.000378,0.000553,0.000170,  27.564
  2949.0,0.000433,0.000376,0.000754,0.000170,  27.555
  2950.0,0.000441,0.000390,0.000613,0.000184,  27.553
  2951.0,0.000440,0.000396,0.000545,0.000184,  27.554
  2952.0,0.000443,0.000384,0.000475,0.000197,  27.554
  2953.0,0.000435,0.000385,0.000231,0.000211,  27.558
  2954.0,0.000430,0.000385,-0.000647,0.000148,  27.552
  2955.0,0.000373,0.000358,0.000264,0.000068,  27.555
  2956.0,0.000361,0.000334,0.000343,0.000130,  27.554
  2957.0,0.000397,0.000355,0.000064,0.000157,  27.553
  2958.0,0.000413,0.000359,0.000437,0.000170,  27.554
  2959.0,0.000420,0.000367,0.000047,0.000184,  27.550
  2960.0,0.000437,0.000380,-0.000084,0.000184,  27.547
  2961.0,0.000434,0.000392,0.000247,0.000170,  27.544
  2962.0,0.000421,0.000378,0.000448,0.000170,  27.547
  2963.0,0.000428,0.000378,0.000392,0.000161,  27.544
  2964.0,0.000422,0.000372,-0.000114,0.000197,  27.546
  2965.0,0.000433,0.000374,-0.000119,0.000175,  27.546
  2966.0,0.000427,0.000384,0.000128,0.000139,  27.543
  2967.0,0.000430,0.000372,0.000192,0.000161,  27.547
  2968.0,0.000427,0.000385,-0.000476,0.000161,  27.551
  2969.0,0.000380,0.000363,-0.000375,0.000059,  27.555
  2970.0,0.000325,0.000314,-0.000062,0.000094,  27.556
  2971.0,0.000382,0.000336,-0.000277,0.000121,  27.555
  2972.0,0.000404,0.000350,0.000018,0.000112,  27.552
  2973.0,0.000422,0.000368,0.000133,0.000148,  27.554
  2974.0,0.000427,0.000377,0.000266,0.000112,  27.552
  2975.0,0.000427,0.000389,0.000248,0.000135,  27.550
  2976.0,0.000410,0.000370,0.000304,0.000135,  27.555
  2977.0,0.000420,0.000372,-0.000044,0.000099,  27.548
  2978.0,0.000425,0.000377,-0.000280,0.000148,  27.549
  2979.0,0.000430,0.000383,0.000227,0.000161,  27.540
  2980.0,0.000435,0.000388,0.000362,0.000139,  27.543
  2981.0,0.000429,0.000388,0.000355,0.000161,  27.550
  2982.0,0.000435,0.000390,0.000368,0.000139,  27.552
  2983.0,0.000402,0.000375,-0.000685,0.000121,  27.556
  2984.0,0.000348,0.000338,0.000135,0.000081,  27.561
  2985.0,0.000389,0.000349,0.000127,0.000086,  27.559
  2986.0,0.000409,0.000372,0.000176,0.000148,  27.558
  2987.0,0.000433,0.000381,0.000087,0.000148,  27.557
  2988.0,0.000433,0.000388,-0.000369,0.000192,  27.557
  2989.0,0.000441,0.000391,0.000223,0.000184,  27.558
  2990.0,0.000418,0.000378,0.000283,0.000148,  27.563
  2991.0,0.000423,0.000383,0.000380,0.000161,  27.566
  2992.0,0.000433,0.000379,-0.000065,0.000161,  27.568
  2993.0,0.000433,0.000374,0.000398,0.000139,  27.570
  2994.0,0.000427,0.000376,0.000478,0.000161,  27.564
  2995.0,0.000433,0.000372,0.000385,0.000161,  27.561
  2996.0,0.000420,0.000381,0.000161,0.000112,  27.564
  2997.0,0.000390,0.000369,0.000187,0.000121,  27.562
  2998.0,0.000340,0.000326,0.000344,0.000081,  27.563
  2999.0,0.000366,0.000338,-0.000452,0.000121,  27.559
  3000.0,0.000391,0.000353,0.000226,0.000135,  27.565
  3001.0,0.000412,0.000369,0.000249,0.000099,  27.563
  3002.0,0.000422,0.000379,0.000355,0.000161,  27.567
  3003.0,0.000422,0.000372,0.000269,0.000161,  27.562
  3004.0,0.000402,0.000366,0.000415,0.000112,  27.559
  3005.0,0.000404,0.000356,0.000424,0.000148,  27.563
  3006.0,0.000408,0.000356,0.000243,0.000148,  27.560
  3007.0,0.000404,0.000359,-0.000485,0.000126,  27.563
  3008.0,0.000418,0.000359,-0.000004,0.000126,  27.563
  3009.0,0.000418,0.000362,0.000093,0.000126,  27.560
  3010.0,0.000425,0.000368,0.000165,0.000148,  27.574
  3011.0,0.000402,0.000369,0.000227,0.000121,  27.575
  3012.0,0.000334,0.000328,0.000482,0.000032,  27.582
  3013.0,0.000358,0.000316,0.000299,0.000108,  27.588
  3014.0,0.000381,0.000345,0.000199,0.000121,  27.592
  3015.0,0.000402,0.000361,0.000114,0.000099,  27.589
  3016.0,0.000414,0.000365,0.000176,0.000148,  27.598
  3017.0,0.000420,0.000375,0.000274,0.000112,  27.599
  3018.0,0.000394,0.000360,0.000412,0.000108,  27.610
  3019.0,0.000392,0.000344,0.000159,0.000121,  27.614
  3020.0,0.000403,0.000353,0.000058,0.000099,  27.614
  3021.0,0.000409,0.000359,0.000137,0.000161,  27.615
  3022.0,0.000409,0.000369,0.000107,0.000148,  27.625
  3023.0,0.000412,0.000372,0.000174,0.000112,  27.619
  3024.0,0.000418,0.000378,0.000218,0.000148,  27.621
  3025.0,0.000405,0.000363,0.000352,0.000135,  27.627
  3026.0,0.000348,0.000330,0.000397,0.000068,  27.625
  3027.0,0.000354,0.000321,0.000391,0.000081,  27.630
  3028.0,0.000375,0.000334,0.000280,0.000086,  27.636
  3029.0,0.000400,0.000354,0.000348,0.000148,  27.646
  3030.0,0.000415,0.000362,0.000221,0.000148,  27.646
  3031.0,0.000407,0.000366,0.000210,0.000157,  27.649
  3032.0,0.000408,0.000361,0.000217,0.000170,  27.650
  3033.0,0.000380,0.000336,0.000297,0.000143,  27.651
  3034.0,0.000386,0.000345,-0.000627,0.000170,  27.662
  3035.0,0.000389,0.000351,-0.000160,0.000184,  27.666
  3036.0,0.000401,0.000348,0.000032,0.000184,  27.665
  3037.0,0.000403,0.000355,-0.000382,0.000148,  27.667
  3038.0,0.000405,0.000364,-0.000374,0.000148,  27.673
  3039.0,0.000390,0.000362,0.000022,0.000072,  27.675
  3040.0,0.000333,0.000326,0.000288,0.000068,  27.671
  3041.0,0.000328,0.000297,0.000239,0.000103,  27.676
  3042.0,0.000358,0.000326,0.000588,0.000130,  27.686
  3043.0,0.000379,0.000336,0.000290,0.000157,  27.690
  3044.0,0.000391,0.000348,0.000253,0.000170,  27.692
  3045.0,0.000404,0.000363,0.000185,0.000170,  27.695
  3046.0,0.000405,0.000363,0.000280,0.000157,  27.691
  3047.0,0.000373,0.000339,0.000254,0.000170,  27.697
  3048.0,0.000381,0.000334,0.000069,0.000157,  27.699
  3049.0,0.000386,0.000341,0.000210,0.000135,  27.701
  3050.0,0.000394,0.000349,-0.000054,0.000157,  27.700
  3051.0,0.000404,0.000350,-0.000041,0.000170,  27.703
  3052.0,0.000402,0.000349,0.000081,0.000170,  27.705
  3053.0,0.000397,0.000361,0.000228,0.000170,  27.699
  3054.0,0.000346,0.000337,0.000093,0.000103,  27.693
  3055.0,0.000331,0.000305,0.000030,0.000103,  27.693
  3056.0,0.000361,0.000321,-0.000047,0.000143,  27.697
  3057.0,0.000387,0.000335,-0.000340,0.000157,  27.697
  3058.0,0.000389,0.000351,-0.000007,0.000170,  27.694
  3059.0,0.000394,0.000353,0.000057,0.000184,  27.696
  3060.0,0.000397,0.000370,0.000068,0.000148,  27.694
  3061.0,0.000373,0.000351,0.000283,0.000121,  27.688
  3062.0,0.000395,0.000353,0.000215,0.000135,  27.686
  3063.0,0.000403,0.000359,0.000122,0.000126,  27.690
  3064.0,0.000402,0.000363,0.000172,0.000161,  27.692
  3065.0,0.000410,0.000359,0.000114,0.000148,  27.688
  3066.0,0.000407,0.000358,-0.000154,0.000126,  27.694
  3067.0,0.000410,0.000368,-0.000719,0.000135,  27.696
  3068.0,0.000361,0.000341,-0.000400,0.000068,  27.695
  3069.0,0.000325,0.000305,-0.000084,0.000018,  27.697
  3070.0,0.000351,0.000324,0.000061,0.000081,  27.707
  3071.0,0.000374,0.000350,0.000119,0.000086,  27.707
  3072.0,0.000385,0.000353,0.000067,0.000135,  27.710
  3073.0,0.000398,0.000356,0.000212,0.000135,  27.711
  3074.0,0.000394,0.000354,0.000117,0.000099,  27.712
  3075.0,0.000363,0.000341,0.000150,0.000108,  27.713
  3076.0,0.000363,0.000326,-0.000026,0.000121,  27.720
  3077.0,0.000379,0.000342,-0.000213,0.000135,  27.730
  3078.0,0.000384,0.000344,-0.000984,0.000135,  27.729
  3079.0,0.000391,0.000352,-0.000194,0.000126,  27.734
  3080.0,0.000399,0.000360,-0.000553,0.000148,  27.736
  3081.0,0.000404,0.000362,-0.000144,0.000148,  27.745
  3082.0,0.000356,0.000350,-0.000213,0.000072,  27.740
  3083.0,0.000317,0.000314,-0.000161,0.000068,  27.736
  3084.0,0.000359,0.000315,0.000046,0.000108,  27.748
  3085.0,0.000371,0.000344,0.000074,0.000099,  27.754
  3086.0,0.000381,0.000355,0.000072,0.000157,  27.754
  3087.0,0.000386,0.000359,0.000014,0.000148,  27.758
  3088.0,0.000404,0.000375,0.000002,0.000170,  27.755
  3089.0,0.000386,0.000358,0.000127,0.000121,  27.752
  3090.0,0.000398,0.000351,0.000007,0.000099,  27.755
  3091.0,0.000397,0.000356,-0.000526,0.000135,  27.750
  3092.0,0.000397,0.000357,-0.000797,0.000135,  27.743
  3093.0,0.000403,0.000369,-0.000308,0.000112,  27.749
  3094.0,0.000397,0.000362,-0.000368,0.000157,  27.741
  3095.0,0.000405,0.000369,0.000156,0.000170,  27.729
  3096.0,0.000384,0.000357,-0.001052,0.000170,  27.725
  3097.0,0.000333,0.000317,-0.000092,0.000090,  27.724
  3098.0,0.000345,0.000327,0.000026,0.000130,  27.721
  3099.0,0.000373,0.000337,0.000113,0.000184,  27.712
  3100.0,0.000400,0.000352,0.000071,0.000184,  27.711
  3101.0,0.000400,0.000363,-0.000009,0.000184,  27.707
  3102.0,0.000402,0.000364,-0.000263,0.000197,  27.709
  3103.0,0.000387,0.000358,0.000125,0.000157,  27.708
  3104.0,0.000376,0.000343,0.000031,0.000184,  27.705
  3105.0,0.000401,0.000351,-0.000019,0.000170,  27.710
  3106.0,0.000403,0.000357,-0.000025,0.000170,  27.713
  3107.0,0.000402,0.000365,0.000022,0.000197,  27.720
  3108.0,0.000413,0.000359,-0.000232,0.000197,  27.720
  3109.0,0.000408,0.000366,-0.000112,0.000170,  27.727
  3110.0,0.000382,0.000361,0.000046,0.000170,  27.734
  3111.0,0.000333,0.000323,0.000103,0.000090,  27.738
  3112.0,0.000330,0.000326,0.000010,0.000130,  27.745
  3113.0,0.000369,0.000338,-0.000356,0.000157,  27.748
  3114.0,0.000392,0.000353,-0.000054,0.000184,  27.751
  3115.0,0.000404,0.000360,-0.000017,0.000184,  27.756
  3116.0,0.000406,0.000369,-0.000021,0.000184,  27.755
  3117.0,0.000387,0.000371,0.000239,0.000143,  27.762
  3118.0,0.000379,0.000345,0.000121,0.000157,  27.768
  3119.0,0.000395,0.000353,-0.000019,0.000170,  27.772
  3120.0,0.000397,0.000363,-0.000020,0.000197,  27.774
  3121.0,0.000402,0.000363,0.000146,0.000184,  27.777
  3122.0,0.000408,0.000364,-0.000018,0.000148,  27.777
  3123.0,0.000402,0.000363,0.000094,0.000184,  27.776
  3124.0,0.000403,0.000364,-0.000034,0.000184,  27.778
  3125.0,0.000346,0.000340,0.000043,0.000117,  27.778
  3126.0,0.000343,0.000322,0.000066,0.000143,  27.774
  3127.0,0.000373,0.000333,0.000051,0.000170,  27.780
  3128.0,0.000386,0.000358,0.000085,0.000211,  27.781
  3129.0,0.000394,0.000357,0.000104,0.000197,  27.780
  3130.0,0.000396,0.000362,-0.000118,0.000197,  27.784
  3131.0,0.000390,0.000371,-0.000169,0.000184,  27.782
  3132.0,0.000375,0.000346,-0.000227,0.000157,  27.783
  3133.0,0.000378,0.000351,-0.000081,0.000170,  27.780
  3134.0,0.000386,0.000351,0.000182,0.000170,  27.778
  3135.0,0.000392,0.000349,-0.000743,0.000170,  27.780
  3136.0,0.000392,0.000353,-0.000102,0.000219,  27.774
  3137.0,0.000394,0.000358,-0.000019,0.000184,  27.769
  3138.0,0.000391,0.000359,0.000128,0.000170,  27.769
  3139.0,0.000348,0.000335,0.000316,0.000143,  27.763
  3140.0,0.000322,0.000310,0.000110,0.000117,  27.763
  3141.0,0.000350,0.000325,0.000051,0.000143,  27.766
  3142.0,0.000373,0.000338,0.000017,0.000170,  27.763
  3143.0,0.000381,0.000354,0.000017,0.000157,  27.762
  3144.0,0.000381,0.000358,0.000125,0.000170,  27.765
  3145.0,0.000379,0.000360,0.000040,0.000170,  27.763
  3146.0,0.000350,0.000338,0.000197,0.000143,  27.760
  3147.0,0.000372,0.000342,0.000057,0.000170,  27.762
  3148.0,0.000385,0.000350,0.000031,0.000135,  27.753
  3149.0,0.000386,0.000352,-0.000032,0.000148,  27.753
  3150.0,0.000389,0.000359,-0.000021,0.000161,  27.746
  3151.0,0.000394,0.000358,0.000090,0.000148,  27.745
  3152.0,0.000391,0.000360,0.000065,0.000099,  27.743
  3153.0,0.000315,0.000341,0.000252,0.000081,  27.748
  3154.0,0.000309,0.000301,-0.000061,0.000054,  27.749
  3155.0,0.000348,0.000320,0.000030,0.000059,  27.751
  3156.0,0.000366,0.000332,0.000050,0.000148,  27.753
  3157.0,0.000379,0.000348,0.000044,0.000148,  27.754
  3158.0,0.000381,0.000358,0.000071,0.000126,  27.750
  3159.0,0.000391,0.000361,0.000025,0.000148,  27.754
  3160.0,0.000372,0.000337,0.000183,0.000086,  27.755
  3161.0,0.000367,0.000344,0.000138,0.000135,  27.769
  3162.0,0.000386,0.000351,0.000008,0.000135,  27.772
  3163.0,0.000387,0.000351,-0.001331,0.000112,  27.776
  3164.0,0.000391,0.000352,-0.000228,0.000148,  27.779
  3165.0,0.000392,0.000358,-0.000132,0.000148,  27.782
  3166.0,0.000390,0.000361,-0.000111,0.000135,  27.785
  3167.0,0.000359,0.000341,0.000181,0.000117,  27.780
  3168.0,0.000321,0.000313,0.000236,0.000103,  27.779
  3169.0,0.000355,0.000334,-0.000332,0.000143,  27.788
  3170.0,0.000380,0.000352,-0.000431,0.000157,  27.804
  3171.0,0.000391,0.000358,-0.000005,0.000184,  27.804
  3172.0,0.000387,0.000360,0.000141,0.000184,  27.801
  3173.0,0.000395,0.000359,0.000186,0.000184,  27.805
  3174.0,0.000368,0.000359,0.000140,0.000157,  27.799
  3175.0,0.000371,0.000344,0.000099,0.000157,  27.800
  3176.0,0.000386,0.000352,0.000042,0.000121,  27.795
  3177.0,0.000384,0.000360,0.000145,0.000170,  27.791
  3178.0,0.000384,0.000353,-0.000380,0.000170,  27.796
  3179.0,0.000389,0.000358,-0.000033,0.000197,  27.786
  3180.0,0.000399,0.000370,0.000157,0.000197,  27.785
  3181.0,0.000363,0.000363,0.000267,0.000170,  27.773
  3182.0,0.000327,0.000321,0.000282,0.000143,  27.771
  3183.0,0.000340,0.000333,-0.000073,0.000157,  27.773
  3184.0,0.000361,0.000335,0.000076,0.000170,  27.775
  3185.0,0.000379,0.000351,0.000148,0.000197,  27.772
  3186.0,0.000390,0.000359,0.000085,0.000184,  27.778
  3187.0,0.000394,0.000358,0.000152,0.000184,  27.784
  3188.0,0.000368,0.000362,0.000177,0.000157,  27.776
  3189.0,0.000369,0.000340,-0.000642,0.000170,  27.783
  3190.0,0.000376,0.000353,-0.001613,0.000184,  27.781
  3191.0,0.000384,0.000353,-0.000489,0.000184,  27.786
  3192.0,0.000380,0.000353,-0.000215,0.000197,  27.785
  3193.0,0.000386,0.000347,-0.000010,0.000184,  27.782
  3194.0,0.000392,0.000356,-0.000265,0.000197,  27.779
  3195.0,0.000374,0.000342,-0.000349,0.000170,  27.782
  3196.0,0.000317,0.000315,0.000071,0.000130,  27.773
  3197.0,0.000333,0.000314,0.000184,0.000143,  27.773
  3198.0,0.000369,0.000333,0.000136,0.000112,  27.772
  3199.0,0.000386,0.000351,-0.001215,0.000148,  27.770
  3200.0,0.000392,0.000365,-0.000325,0.000184,  27.768
  3201.0,0.000397,0.000371,0.000027,0.000197,  27.772
  3202.0,0.000393,0.000363,0.000194,0.000170,  27.769
  3203.0,0.000372,0.000341,0.000036,0.000148,  27.764
  3204.0,0.000379,0.000359,0.000038,0.000197,  27.766
  3205.0,0.000392,0.000359,-0.000378,0.000184,  27.752
  3206.0,0.000392,0.000366,-0.000250,0.000161,  27.750
  3207.0,0.000391,0.000361,-0.000190,0.000161,  27.752
  3208.0,0.000381,0.000356,0.000010,0.000148,  27.747
  3209.0,0.000374,0.000359,0.000096,0.000099,  27.754
  3210.0,0.000331,0.000318,0.000186,0.000081,  27.747
  3211.0,0.000326,0.000313,-0.000327,0.000108,  27.758
  3212.0,0.000356,0.000337,-0.000134,0.000148,  27.757
  3213.0,0.000385,0.000346,0.000046,0.000161,  27.757
  3214.0,0.000379,0.000341,0.000108,0.000112,  27.757
  3215.0,0.000386,0.000349,-0.000395,0.000148,  27.758
  3216.0,0.000384,0.000355,0.000107,0.000148,  27.759
  3217.0,0.000371,0.000346,-0.001104,0.000112,  27.763
  3218.0,0.000382,0.000350,-0.000201,0.000161,  27.768
  3219.0,0.000395,0.000355,-0.000033,0.000161,  27.766
  3220.0,0.000389,0.000352,0.000058,0.000175,  27.764
  3221.0,0.000386,0.000353,0.000099,0.000161,  27.771
  3222.0,0.000388,0.000365,-0.000123,0.000139,  27.765
  3223.0,0.000382,0.000372,-0.000138,0.000148,  27.762
  3224.0,0.000339,0.000344,-0.000413,0.000130,  27.767
  3225.0,0.000334,0.000312,-0.000354,0.000157,  27.767
  3226.0,0.000370,0.000337,-0.000717,0.000148,  27.765
  3227.0,0.000382,0.000348,-0.000221,0.000161,  27.766
  3228.0,0.000384,0.000360,-0.000024,0.000139,  27.768
  3229.0,0.000389,0.000359,0.000126,0.000161,  27.769
  3230.0,0.000386,0.000359,0.000108,0.000126,  27.774
  3231.0,0.000379,0.000344,0.000153,0.000148,  27.773
  3232.0,0.000386,0.000348,-0.000402,0.000175,  27.779
  3233.0,0.000387,0.000351,-0.000034,0.000161,  27.785
  3234.0,0.000386,0.000356,-0.000026,0.000184,  27.783
  3235.0,0.000405,0.000367,-0.001022,0.000211,  27.792
  3236.0,0.000397,0.000369,-0.000633,0.000211,  27.793
  3237.0,0.000400,0.000372,-0.000112,0.000184,  27.793
  3238.0,0.000349,0.000335,-0.000150,0.000117,  27.794
  3239.0,0.000317,0.000304,-0.000086,0.000130,  27.796
  3240.0,0.000348,0.000323,-0.000112,0.000170,  27.801
  3241.0,0.000374,0.000331,-0.000031,0.000224,  27.799
  3242.0,0.000381,0.000347,-0.000083,0.000197,  27.799
  3243.0,0.000389,0.000351,-0.000134,0.000197,  27.799
  3244.0,0.000376,0.000362,-0.001415,0.000197,  27.797
  3245.0,0.000362,0.000344,-0.000384,0.000157,  27.797
  3246.0,0.000373,0.000344,-0.000094,0.000184,  27.799
  3247.0,0.000386,0.000357,-0.000121,0.000211,  27.799
  3248.0,0.000397,0.000371,-0.000025,0.000197,  27.793
  3249.0,0.000408,0.000370,0.000046,0.000211,  27.798
  3250.0,0.000403,0.000373,0.000113,0.000197,  27.796
  3251.0,0.000395,0.000371,0.000166,0.000197,  27.794
  3252.0,0.000350,0.000358,-0.000570,0.000157,  27.797
  3253.0,0.000314,0.000323,0.000014,0.000143,  27.804
  3254.0,0.000356,0.000332,-0.000054,0.000157,  27.803
  3255.0,0.000380,0.000355,0.000084,0.000184,  27.808
  3256.0,0.000392,0.000365,0.000260,0.000197,  27.807
  3257.0,0.000390,0.000361,0.000096,0.000211,  27.807
  3258.0,0.000394,0.000375,-0.000039,0.000211,  27.810
  3259.0,0.000369,0.000360,0.000136,0.000170,  27.810
  3260.0,0.000388,0.000357,0.000245,0.000197,  27.812
  3261.0,0.000386,0.000366,0.000141,0.000197,  27.810
  3262.0,0.000397,0.000366,0.000142,0.000211,  27.813
  3263.0,0.000397,0.000367,0.000179,0.000211,  27.813
  3264.0,0.000400,0.000373,0.000189,0.000197,  27.812
  3265.0,0.000408,0.000376,-0.000260,0.000197,  27.810
  3266.0,0.000373,0.000359,0.000116,0.000157,  27.808
  3267.0,0.000322,0.000319,0.000244,0.000117,  27.810
  3268.0,0.000356,0.000325,0.000153,0.000121,  27.809
  3269.0,0.000371,0.000346,0.000124,0.000148,  27.809
  3270.0,0.000384,0.000351,-0.000608,0.000161,  27.810
  3271.0,0.000389,0.000361,-0.000551,0.000139,  27.810
  3272.0,0.000399,0.000369,-0.000069,0.000175,  27.804
  3273.0,0.000373,0.000357,0.000232,0.000135,  27.801
  3274.0,0.000371,0.000355,0.000273,0.000148,  27.806
  3275.0,0.000389,0.000364,0.000155,0.000148,  27.803
  3276.0,0.000394,0.000362,0.000046,0.000139,  27.805
  3277.0,0.000397,0.000361,0.000048,0.000175,  27.803
  3278.0,0.000393,0.000364,0.000089,0.000175,  27.796
  3279.0,0.000398,0.000374,-0.001150,0.000139,  27.799
  3280.0,0.000361,0.000362,-0.000140,0.000135,  27.800
  3281.0,0.000317,0.000325,0.000165,0.000081,  27.807
  3282.0,0.000343,0.000330,0.000084,0.000099,  27.804
  3283.0,0.000368,0.000346,0.000115,0.000148,  27.805
  3284.0,0.000386,0.000362,0.000065,0.000139,  27.804
  3285.0,0.000402,0.000364,0.000211,0.000161,  27.802
  3286.0,0.000399,0.000372,0.000202,0.000175,  27.804
  3287.0,0.000373,0.000368,0.000442,0.000148,  27.804
  3288.0,0.000364,0.000354,0.000456,0.000211,  27.810
  3289.0,0.000386,0.000349,0.000246,0.000224,  27.804
  3290.0,0.000391,0.000357,0.000172,0.000237,  27.806
  3291.0,0.000394,0.000359,0.000081,0.000224,  27.798
  3292.0,0.000396,0.000367,-0.000752,0.000224,  27.789
  3293.0,0.000404,0.000364,-0.000876,0.000224,  27.777
  3294.0,0.000386,0.000366,-0.000154,0.000197,  27.774
  3295.0,0.000327,0.000329,0.000171,0.000143,  27.773
  3296.0,0.000333,0.000313,0.000109,0.000170,  27.766
  3297.0,0.000373,0.000344,-0.000654,0.000197,  27.751
  3298.0,0.000390,0.000358,-0.001076,0.000211,  27.750
  3299.0,0.000401,0.000363,-0.000564,0.000233,  27.744
  3300.0,0.000402,0.000368,-0.000162,0.000211,  27.746
  3301.0,0.000391,0.000377,0.000043,0.000211,  27.747
  3302.0,0.000389,0.000365,0.000172,0.000211,  27.754
  3303.0,0.000399,0.000369,0.000176,0.000211,  27.748
  3304.0,0.000392,0.000373,0.000111,0.000211,  27.753
  3305.0,0.000409,0.000367,0.000057,0.000175,  27.758
  3306.0,0.000404,0.000369,-0.001166,0.000166,  27.767
  3307.0,0.000407,0.000371,-0.000317,0.000211,  27.766
  3308.0,0.000402,0.000374,-0.000244,0.000184,  27.774
  3309.0,0.000350,0.000352,-0.000559,0.000108,  27.778
  3310.0,0.000338,0.000327,-0.000067,0.000121,  27.780
  3311.0,0.000371,0.000348,0.000041,0.000112,  27.783
  3312.0,0.000390,0.000356,0.000069,0.000175,  27.789
  3313.0,0.000403,0.000359,0.000032,0.000188,  27.796
  3314.0,0.000399,0.000371,0.000005,0.000166,  27.798
  3315.0,0.000379,0.000376,0.000141,0.000175,  27.803
  3316.0,0.000367,0.000353,0.000218,0.000161,  27.801
  3317.0,0.000383,0.000359,0.000153,0.000153,  27.805
  3318.0,0.000385,0.000361,0.000135,0.000188,  27.809
  3319.0,0.000397,0.000363,0.000023,0.000188,  27.808
  3320.0,0.000407,0.000372,-0.000536,0.000188,  27.812
  3321.0,0.000409,0.000367,-0.000184,0.000188,  27.811
  3322.0,0.000399,0.000374,0.000092,0.000188,  27.813
  3323.0,0.000333,0.000355,0.000254,0.000143,  27.817
  3324.0,0.000312,0.000310,0.000136,0.000143,  27.813
  3325.0,0.000356,0.000336,0.000062,0.000148,  27.820
  3326.0,0.000376,0.000355,0.000111,0.000161,  27.817
  3327.0,0.000394,0.000359,0.000066,0.000161,  27.816
  3328.0,0.000399,0.000375,-0.001392,0.000139,  27.815
  3329.0,0.000397,0.000374,-0.001120,0.000161,  27.808
  3330.0,0.000380,0.000354,-0.000254,0.000139,  27.806
  3331.0,0.000389,0.000352,-0.000119,0.000161,  27.803
  3332.0,0.000397,0.000363,0.000032,0.000175,  27.797
  3333.0,0.000399,0.000375,0.000076,0.000139,  27.795
  3334.0,0.000396,0.000373,0.000076,0.000175,  27.790
  3335.0,0.000396,0.000373,0.000131,0.000175,  27.788
  3336.0,0.000399,0.000379,-0.000105,0.000126,  27.789
  3337.0,0.000352,0.000349,-0.001742,0.000108,  27.792
  3338.0,0.000335,0.000322,-0.000710,0.000059,  27.791
  3339.0,0.000354,0.000352,-0.000717,0.000148,  27.793
  3340.0,0.000391,0.000365,-0.000191,0.000175,  27.793
  3341.0,0.000402,0.000374,-0.000185,0.000139,  27.799
  3342.0,0.000414,0.000381,-0.000292,0.000175,  27.796
  3343.0,0.000416,0.000391,0.000065,0.000175,  27.804
  3344.0,0.000398,0.000372,0.000150,0.000139,  27.802
  3345.0,0.000401,0.000381,-0.000406,0.000175,  27.814
  3346.0,0.000401,0.000384,-0.000405,0.000188,  27.818
  3347.0,0.000395,0.000382,-0.000213,0.000188,  27.817
  3348.0,0.000404,0.000384,0.000114,0.000188,  27.822
  3349.0,0.000401,0.000380,0.000123,0.000166,  27.822
  3350.0,0.000400,0.000384,0.000214,0.000202,  27.825
  3351.0,0.000367,0.000379,-0.000837,0.000148,  27.832
  3352.0,0.000332,0.000337,-0.000045,0.000072,  27.840
  3353.0,0.000357,0.000341,0.000100,0.000161,  27.839
  3354.0,0.000378,0.000369,0.000060,0.000161,  27.839
  3355.0,0.000387,0.000369,-0.000005,0.000175,  27.847
  3356.0,0.000407,0.000377,-0.000539,0.000175,  27.841
  3357.0,0.000408,0.000379,-0.000177,0.000166,  27.846
  3358.0,0.000385,0.000363,0.000093,0.000161,  27.841
  3359.0,0.000399,0.000368,0.000019,0.000175,  27.840
  3360.0,0.000399,0.000382,-0.000219,0.000139,  27.839
  3361.0,0.000402,0.000370,-0.000190,0.000175,  27.836
  3362.0,0.000409,0.000371,-0.000307,0.000188,  27.839
  3363.0,0.000412,0.000370,-0.000131,0.000166,  27.840
  3364.0,0.000412,0.000378,0.000109,0.000202,  27.838
  3365.0,0.000386,0.000365,0.000127,0.000161,  27.834
  3366.0,0.000335,0.000325,0.000287,0.000108,  27.835
  3367.0,0.000362,0.000334,0.000159,0.000161,  27.835
  3368.0,0.000385,0.000357,-0.000065,0.000166,  27.834
  3369.0,0.000408,0.000378,-0.000245,0.000188,  27.834
  3370.0,0.000413,0.000382,-0.000014,0.000188,  27.828
  3371.0,0.000420,0.000390,-0.000015,0.000166,  27.829
  3372.0,0.000397,0.000376,-0.000056,0.000161,  27.827
  3373.0,0.000395,0.000363,-0.000657,0.000175,  27.829
  3374.0,0.000404,0.000379,-0.001311,0.000188,  27.826
  3375.0,0.000425,0.000373,-0.000345,0.000202,  27.827
  3376.0,0.000430,0.000395,-0.000101,0.000166,  27.822
  3377.0,0.000419,0.000394,-0.000064,0.000215,  27.824
  3378.0,0.000420,0.000396,0.000073,0.000202,  27.823
  3379.0,0.000397,0.000390,0.000124,0.000153,  27.821
  3380.0,0.000363,0.000350,-0.000350,0.000121,  27.822
  3381.0,0.000374,0.000349,-0.000031,0.000175,  27.826
  3382.0,0.000397,0.000366,0.000055,0.000153,  27.824
  3383.0,0.000420,0.000383,0.000055,0.000202,  27.825
  3384.0,0.000428,0.000387,0.000037,0.000237,  27.823
  3385.0,0.000422,0.000389,-0.000359,0.000251,  27.829
  3386.0,0.000420,0.000390,-0.000052,0.000224,  27.829
  3387.0,0.000410,0.000378,0.000088,0.000237,  27.841
  3388.0,0.000408,0.000382,0.000195,0.000251,  27.845
  3389.0,0.000414,0.000379,0.000183,0.000237,  27.839
  3390.0,0.000420,0.000376,0.000231,0.000237,  27.844
  3391.0,0.000403,0.000367,0.000021,0.000237,  27.844
  3392.0,0.000403,0.000378,0.000111,0.000237,  27.850
  3393.0,0.000387,0.000384,0.000067,0.000211,  27.848
  3394.0,0.000348,0.000343,0.000244,0.000143,  27.851
  3395.0,0.000353,0.000324,0.000103,0.000161,  27.855
  3396.0,0.000372,0.000340,-0.001501,0.000161,  27.856
  3397.0,0.000386,0.000355,-0.000576,0.000175,  27.853
  3398.0,0.000401,0.000369,-0.000213,0.000166,  27.851
  3399.0,0.000408,0.000369,-0.000271,0.000188,  27.846
  3400.0,0.000409,0.000388,0.000074,0.000175,  27.845
  3401.0,0.000399,0.000377,-0.000067,0.000139,  27.843
  3402.0,0.000414,0.000377,-0.000359,0.000175,  27.843
  3403.0,0.000425,0.000385,-0.000059,0.000166,  27.835
  3404.0,0.000425,0.000392,-0.000242,0.000215,  27.838
  3405.0,0.000436,0.000395,-0.000507,0.000215,  27.836
  3406.0,0.000420,0.000394,-0.000155,0.000193,  27.838
  3407.0,0.000417,0.000402,0.000075,0.000215,  27.831
  3408.0,0.000376,0.000372,0.000319,0.000135,  27.831
  3409.0,0.000356,0.000347,-0.000084,0.000126,  27.839
  3410.0,0.000389,0.000362,-0.000011,0.000175,  27.834
  3411.0,0.000412,0.000376,0.000162,0.000166,  27.838
  3412.0,0.000415,0.000392,0.000197,0.000229,  27.836
  3413.0,0.000420,0.000385,0.000173,0.000215,  27.834
  3414.0,0.000426,0.000400,0.000345,0.000179,  27.830
  3415.0,0.000402,0.000383,0.000268,0.000202,  27.834
  3416.0,0.000416,0.000375,0.000136,0.000202,  27.830
  3417.0,0.000418,0.000389,0.000166,0.000179,  27.833
  3418.0,0.000424,0.000384,0.000167,0.000229,  27.832
  3419.0,0.000424,0.000388,-0.000467,0.000264,  27.831
  3420.0,0.000415,0.000385,-0.000146,0.000264,  27.836
  3421.0,0.000416,0.000381,0.000179,0.000224,  27.837
  3422.0,0.000357,0.000351,0.000381,0.000184,  27.836
  3423.0,0.000331,0.000320,0.000139,0.000184,  27.846
  3424.0,0.000367,0.000341,0.000097,0.000175,  27.848
  3425.0,0.000390,0.000359,0.000013,0.000166,  27.852
  3426.0,0.000406,0.000369,0.000174,0.000215,  27.850
  3427.0,0.000408,0.000382,0.000067,0.000202,  27.859
  3428.0,0.000402,0.000381,-0.000047,0.000215,  27.852
  3429.0,0.000385,0.000364,-0.000154,0.000188,  27.858
  3430.0,0.000396,0.000366,-0.000570,0.000166,  27.865
  3431.0,0.000405,0.000370,-0.000161,0.000215,  27.866
  3432.0,0.000399,0.000369,-0.000065,0.000215,  27.868
  3433.0,0.000413,0.000379,-0.000052,0.000179,  27.868
  3434.0,0.000402,0.000376,0.000044,0.000188,  27.880
  3435.0,0.000416,0.000375,0.000222,0.000188,  27.883
  3436.0,0.000382,0.000372,0.000448,0.000112,  27.880
  3437.0,0.000345,0.000340,0.000110,0.000135,  27.881
  3438.0,0.000375,0.000352,0.000093,0.000153,  27.887
  3439.0,0.000387,0.000365,-0.000127,0.000188,  27.888
  3440.0,0.000401,0.000371,0.000009,0.000215,  27.888
  3441.0,0.000414,0.000378,0.000133,0.000193,  27.889
  3442.0,0.000413,0.000382,0.000134,0.000202,  27.884
  3443.0,0.000390,0.000387,0.000241,0.000188,  27.885
  3444.0,0.000395,0.000381,-0.000059,0.000166,  27.891
  3445.0,0.000416,0.000387,-0.000187,0.000202,  27.885
  3446.0,0.000411,0.000384,-0.000101,0.000166,  27.887
  3447.0,0.000415,0.000389,0.000077,0.000215,  27.888
  3448.0,0.000432,0.000390,-0.000140,0.000215,  27.887
  3449.0,0.000430,0.000390,-0.000152,0.000179,  27.889
  3450.0,0.000393,0.000380,-0.000014,0.000161,  27.889
  3451.0,0.000337,0.000348,0.000292,0.000135,  27.885
  3452.0,0.000367,0.000352,0.000293,0.000166,  27.891
  3453.0,0.000393,0.000371,0.000174,0.000188,  27.895
  3454.0,0.000408,0.000385,0.000008,0.000202,  27.897
  3455.0,0.000408,0.000385,-0.000118,0.000215,  27.895
  3456.0,0.000411,0.000394,0.000093,0.000215,  27.898
  3457.0,0.000385,0.000378,0.000076,0.000202,  27.896
  3458.0,0.000377,0.000365,0.000016,0.000188,  27.899
  3459.0,0.000401,0.000368,-0.001047,0.000202,  27.901
  3460.0,0.000416,0.000378,-0.000197,0.000193,  27.906
  3461.0,0.000427,0.000389,-0.000072,0.000229,  27.910
  3462.0,0.000427,0.000387,-0.000317,0.000215,  27.911
  3463.0,0.000430,0.000390,-0.000227,0.000179,  27.917
  3464.0,0.000408,0.000384,0.000067,0.000202,  27.927
  3465.0,0.000352,0.000354,0.000374,0.000112,  27.930
  3466.0,0.000374,0.000362,0.000143,0.000175,  27.938
  3467.0,0.000403,0.000379,0.000126,0.000188,  27.944
  3468.0,0.000419,0.000383,0.000189,0.000166,  27.950
  3469.0,0.000420,0.000392,0.000174,0.000215,  27.954
  3470.0,0.000426,0.000400,0.000232,0.000202,  27.957
  3471.0,0.000414,0.000393,0.000037,0.000153,  27.959
  3472.0,0.000398,0.000369,-0.000922,0.000175,  27.960
  3473.0,0.000406,0.000379,-0.000385,0.000166,  27.964
  3474.0,0.000419,0.000390,-0.000046,0.000202,  27.963
  3475.0,0.000425,0.000382,0.000046,0.000202,  27.962
  3476.0,0.000421,0.000393,0.000072,0.000166,  27.965
  3477.0,0.000415,0.000385,0.000036,0.000215,  27.966
  3478.0,0.000408,0.000391,0.000230,0.000188,  27.966
  3479.0,0.000352,0.000346,0.000387,0.000099,  27.965
  3480.0,0.000346,0.000332,0.000257,0.000175,  27.966
  3481.0,0.000388,0.000360,-0.001410,0.000175,  27.979
  3482.0,0.000397,0.000378,-0.001043,0.000202,  27.983
  3483.0,0.000414,0.000379,-0.000261,0.000188,  27.984
  3484.0,0.000416,0.000389,-0.000101,0.000166,  27.986
  3485.0,0.000405,0.000391,-0.000074,0.000215,  27.989
  3486.0,0.000403,0.000369,0.000041,0.000202,  27.988
  3487.0,0.000421,0.000380,-0.000057,0.000193,  27.992
  3488.0,0.000427,0.000389,0.000117,0.000229,  27.995
  3489.0,0.000430,0.000392,0.000084,0.000215,  27.991
  3490.0,0.000428,0.000394,0.000232,0.000179,  27.995
  3491.0,0.000434,0.000402,-0.000167,0.000202,  27.992
  3492.0,0.000434,0.000403,-0.000036,0.000166,  27.986
  3493.0,0.000374,0.000377,0.000221,0.000148,  27.982
  3494.0,0.000373,0.000349,0.000169,0.000139,  27.983
  3495.0,0.000393,0.000360,0.000248,0.000166,  27.987
  3496.0,0.000413,0.000378,0.000069,0.000179,  27.989
  3497.0,0.000422,0.000392,0.000168,0.000179,  27.984
  3498.0,0.000427,0.000396,0.000048,0.000193,  27.975
  3499.0,0.000427,0.000401,0.000175,0.000179,  27.978
  3500.0,0.000409,0.000381,0.000196,0.000179,  27.975
  3501.0,0.000417,0.000381,0.000160,0.000179,  27.980
  3502.0,0.000427,0.000385,0.000097,0.000179,  27.977
  3503.0,0.000430,0.000386,0.000064,0.000166,  27.975
  3504.0,0.000418,0.000392,-0.001061,0.000215,  27.976
  3505.0,0.000429,0.000398,-0.000251,0.000202,  27.974
  3506.0,0.000426,0.000405,0.000064,0.000153,  27.975
  3507.0,0.000373,0.000378,0.000384,0.000121,  27.974
  3508.0,0.000361,0.000353,0.000313,0.000135,  27.972
  3509.0,0.000402,0.000373,0.000138,0.000188,  27.982
  3510.0,0.000412,0.000377,0.000026,0.000188,  27.981
  3511.0,0.000419,0.000387,-0.000001,0.000202,  27.985
  3512.0,0.000429,0.000391,0.000067,0.000251,  27.994
  3513.0,0.000425,0.000389,0.000175,0.000237,  27.994
  3514.0,0.000406,0.000383,0.000213,0.000237,  27.994
  3515.0,0.000419,0.000382,0.000304,0.000202,  28.002
  3516.0,0.000416,0.000385,0.000203,0.000202,  27.995
  3517.0,0.000418,0.000388,-0.000451,0.000215,  27.995
  3518.0,0.000429,0.000389,-0.000008,0.000202,  27.996
  3519.0,0.000431,0.000398,-0.000285,0.000166,  27.993
  3520.0,0.000431,0.000402,0.000068,0.000224,  27.984
  3521.0,0.000399,0.000398,-0.000094,0.000184,  27.988
  3522.0,0.000366,0.000346,0.000071,0.000108,  27.986
  3523.0,0.000399,0.000364,0.000261,0.000202,  27.994
  3524.0,0.000419,0.000384,0.000156,0.000215,  27.997
  3525.0,0.000428,0.000395,0.000171,0.000215,  27.997
  3526.0,0.000437,0.000398,-0.000174,0.000215,  27.997
  3527.0,0.000437,0.000409,0.000014,0.000193,  28.001
  3528.0,0.000402,0.000381,0.000215,0.000135,  27.998
  3529.0,0.000420,0.000373,-0.000274,0.000188,  28.005
  3530.0,0.000432,0.000392,-0.000193,0.000179,  28.002
  3531.0,0.000437,0.000396,-0.000260,0.000229,  28.006
  3532.0,0.000435,0.000401,0.000151,0.000215,  28.010
  3533.0,0.000445,0.000403,0.000139,0.000193,  28.015
  3534.0,0.000442,0.000416,0.000109,0.000215,  28.021
  3535.0,0.000408,0.000395,0.000388,0.000153,  28.017
  3536.0,0.000374,0.000362,0.000331,0.000135,  28.021
  3537.0,0.000399,0.000376,-0.000051,0.000175,  28.025
  3538.0,0.000422,0.000382,-0.000526,0.000166,  28.027
  3539.0,0.000440,0.000392,-0.000013,0.000229,  28.029
  3540.0,0.000450,0.000412,0.000264,0.000237,  28.030
  3541.0,0.000445,0.000411,0.000409,0.000237,  28.023
  3542.0,0.000432,0.000402,0.000543,0.000224,  28.029
  3543.0,0.000440,0.000402,-0.000105,0.000202,  28.025
