Run Name,50%B CRL Group7 25/Feb
Run Date,02:31:43 PM   02-25-14
Method Name,50%B-Isocratic.3
Export Format Version, 1.00
Method ID, 1814
Points/Second, 5.00
Number of Records,   3120
Offset from Run Start Time,00:00:00
Run End Time,00:10:23
Time,Second
QuadTec 1, (280.0 nm), AU
QuadTec 2, (260.0 nm), AU
Gradient Pump,<Not Selected>
QuadTec 3, (214.0 nm), AU
QuadTec 4, (405.0 nm), AU
Conductivity,mS/cm
Trace 6,<Not Available>
GP Pressure,<Not Selected>
Volume,<Not Selected>
Fraction,<Not Available>
Time,QuadTec 1,QuadTec 2,QuadTec 3,QuadTec 4,Conductivity
     0.0,0.001075,0.001010,-0.003396,0.000806,  49.242
     0.2,0.001086,0.001015,-0.003442,0.000819,  49.240
     0.4,0.001077,0.001014,-0.003497,0.000806,  49.239
     0.6,0.001088,0.001019,-0.003563,0.000806,  49.241
     0.8,0.000000,0.001018,-0.003584,0.000819,  49.239
     1.0,0.000000,0.001018,-0.003590,0.000793,  49.241
     1.2,0.000000,0.000000,-0.003590,0.000851,  49.246
     1.4,0.000000,0.000000,-0.003611,0.000851,  49.241
     1.6,0.000000,0.000000,-0.003637,0.000838,  49.250
     1.8,0.000000,0.000000,-0.003657,0.000861,  49.263
     2.0,0.000000,0.000000,-0.003692,0.000838,  49.266
     2.2,0.000000,0.000000,-0.003626,0.000000,  49.275
     2.4,0.000000,0.000000,-0.003526,0.000000,  49.255
     2.6,0.000000,0.000000,-0.014729,0.000000,  49.255
     2.8,0.000000,0.000000,-0.014729,0.000000,  49.254
     3.0,0.000000,0.000000,-0.014729,0.000000,  49.256
     3.2,0.000000,0.000000,-0.014729,0.000000,  49.252
     3.4,0.000000,0.000000,0.000000,0.000000,  49.249
     3.6,0.000000,0.000000,0.000000,0.000000,  49.254
     3.8,0.000000,0.000000,0.000000,0.000000,  49.257
     4.0,0.000000,0.000000,0.000000,0.000000,  49.254
     4.2,0.000000,0.000000,0.000000,0.000000,  49.257
     4.4,-0.000006,0.000000,0.000000,0.000000,  49.257
     4.6,-0.000009,0.000000,0.000000,0.000000,  49.261
     4.8,-0.000003,0.000000,0.000000,0.000000,  49.262
     5.0,-0.000009,0.000000,0.000000,0.000000,  49.265
     5.2,-0.000006,0.000000,0.000000,0.000000,  49.266
     5.4,0.000000,0.000000,0.000000,0.000000,  49.263
     5.6,-0.000006,0.000000,0.000000,0.000000,  49.266
     5.8,-0.000004,0.000013,0.000000,0.000000,  49.263
     6.0,0.000003,0.000003,0.000000,0.000000,  49.266
     6.2,-0.000004,-0.000004,0.000000,0.000000,  49.271
     6.4,-0.000001,-0.000005,0.000000,0.000000,  49.270
     6.6,-0.000004,-0.000010,0.000000,-0.000013,  49.268
     6.8,-0.000001,-0.000014,0.000000,-0.000049,  49.269
     7.0,-0.000001,-0.000008,0.000000,0.000000,  49.271
     7.2,0.000005,-0.000008,0.000159,-0.000013,  49.269
     7.4,0.000001,-0.000006,0.000163,0.000000,  49.272
     7.6,-0.000001,-0.000007,0.000142,-0.000036,  49.276
     7.8,0.000005,-0.000004,0.000112,-0.000023,  49.273
     8.0,-0.000001,-0.000010,0.000076,-0.000010,  49.269
     8.2,-0.000004,-0.000006,0.000021,-0.000046,  49.275
     8.4,0.000000,-0.000002,-0.000045,-0.000046,  49.274
     8.6,-0.000006,-0.000002,-0.000070,-0.000033,  49.273
     8.8,-0.000004,0.000000,-0.000096,-0.000068,  49.272
     9.0,0.000003,-0.000000,-0.000111,-0.000033,  49.276
     9.2,-0.000009,-0.000001,-0.000102,-0.000033,  49.275
     9.4,-0.000017,-0.000002,-0.000072,-0.000068,  49.274
     9.6,-0.000026,-0.000002,-0.000025,-0.000033,  49.271
     9.8,-0.000044,-0.000004,-0.000010,-0.000033,  49.274
    10.0,-0.000051,-0.000009,-0.000037,-0.000068,  49.270
    10.2,-0.000058,-0.000002,-0.000057,-0.000046,  49.274
    10.4,-0.000061,-0.000004,-0.000057,-0.000033,  49.283
    10.6,-0.000056,-0.000009,-0.000063,-0.000068,  49.291
    10.8,-0.000053,-0.000016,-0.000067,-0.000046,  49.283
    11.0,-0.000045,-0.000024,-0.000097,-0.000033,  49.279
    11.2,-0.000040,-0.000035,-0.000154,-0.000068,  49.264
    11.4,-0.000031,-0.000051,-0.000235,-0.000046,  49.266
    11.6,-0.000023,-0.000055,-0.000260,-0.000046,  49.264
    11.8,-0.000026,-0.000057,-0.000260,-0.000107,  49.262
    12.0,-0.000015,-0.000051,-0.000250,-0.000111,  49.258
    12.2,-0.000015,-0.000049,-0.000203,-0.000111,  49.257
    12.4,-0.000019,-0.000047,-0.000121,-0.000133,  49.256
    12.6,-0.000009,-0.000037,-0.000013,-0.000098,  49.254
    12.8,-0.000007,-0.000036,0.000008,-0.000085,  49.256
    13.0,-0.000011,-0.000033,-0.000018,-0.000107,  49.250
    13.2,-0.000004,-0.000028,-0.000096,-0.000072,  49.257
    13.4,-0.000004,-0.000026,-0.000087,-0.000059,  49.256
    13.6,-0.000005,-0.000020,-0.000067,-0.000081,  49.252
    13.8,0.000006,-0.000014,-0.000037,-0.000046,  49.252
    14.0,0.000009,-0.000015,-0.000058,-0.000046,  49.255
    14.2,0.000008,-0.000013,-0.000109,-0.000081,  49.250
    14.4,0.000014,-0.000008,-0.000190,-0.000046,  49.253
    14.6,0.000018,-0.000009,-0.000171,-0.000046,  49.253
    14.8,0.000012,-0.000005,-0.000120,-0.000068,  49.249
    15.0,0.000012,-0.000001,-0.000045,-0.000046,  49.249
    15.2,0.000016,-0.000006,-0.000055,-0.000046,  49.249
    15.4,0.000012,-0.000001,-0.000079,-0.000033,  49.247
    15.6,0.000012,0.000003,-0.000144,-0.000068,  49.242
    15.8,0.000018,-0.000002,-0.000144,-0.000046,  49.239
    16.0,0.000014,-0.000001,-0.000118,-0.000020,  49.244
    16.2,0.000017,0.000001,-0.000088,-0.000055,  49.241
    16.4,0.000020,-0.000000,-0.000033,-0.000020,  49.237
    16.6,0.000016,-0.000002,-0.000029,-0.000020,  49.233
    16.8,0.000022,-0.000001,-0.000018,-0.000055,  49.230
    17.0,0.000022,0.000003,-0.000018,-0.000033,  49.229
    17.2,0.000018,0.000001,0.000012,-0.000046,  49.229
    17.4,0.000028,0.000006,0.000048,-0.000081,  49.229
    17.6,0.000028,0.000004,0.000084,-0.000033,  49.227
    17.8,0.000016,0.000008,0.000069,-0.000033,  49.224
    18.0,0.000012,0.000010,0.000018,-0.000068,  49.219
    18.2,-0.000007,0.000009,-0.000046,-0.000033,  49.219
    18.4,-0.000021,0.000009,-0.000066,-0.000033,  49.216
    18.6,-0.000028,0.000008,-0.000097,-0.000068,  49.219
    18.8,-0.000036,0.000010,-0.000112,-0.000033,  49.223
    19.0,-0.000038,0.000005,-0.000072,-0.000020,  49.226
    19.2,-0.000033,-0.000003,-0.000016,-0.000055,  49.234
    19.4,-0.000037,-0.000000,0.000064,-0.000020,  49.229
    19.6,-0.000029,-0.000007,-0.000130,-0.000007,  49.218
    19.8,-0.000024,-0.000020,-0.000435,-0.000042,  49.209
    20.0,-0.000019,-0.000030,-0.000871,-0.000020,  49.208
    20.2,-0.000013,-0.000034,-0.000907,-0.000068,  49.206
    20.4,-0.000014,-0.000033,-0.000799,-0.000094,  49.200
    20.6,-0.000005,-0.000026,-0.000544,-0.000120,  49.197
    20.8,0.000004,-0.000026,-0.000422,-0.000156,  49.195
    21.0,0.000000,-0.000024,-0.000293,-0.000133,  49.197
    21.2,0.000006,-0.000022,-0.000175,-0.000120,  49.200
    21.4,0.000001,-0.000021,-0.000109,-0.000107,  49.201
    21.6,-0.000005,-0.000015,-0.000079,-0.000120,  49.197
    21.8,-0.000005,-0.000011,-0.000075,-0.000085,  49.200
    22.0,-0.000005,-0.000009,-0.000070,-0.000072,  49.204
    22.2,-0.000009,-0.000009,-0.000075,-0.000107,  49.203
    22.4,-0.000006,-0.000009,-0.000117,-0.000059,  49.197
    22.6,0.000005,-0.000007,-0.000103,-0.000046,  49.197
    22.8,0.000001,-0.000007,-0.000052,-0.000081,  49.200
    23.0,0.000001,-0.000013,0.000003,-0.000046,  49.204
    23.2,0.000011,-0.000017,0.000012,-0.000033,  49.199
    23.4,0.000007,-0.000013,0.000022,-0.000068,  49.201
    23.6,0.000011,-0.000007,0.000003,-0.000046,  49.205
    23.8,0.000017,-0.000003,-0.000033,-0.000046,  49.205
    24.0,0.000013,-0.000004,-0.000078,-0.000081,  49.207
    24.2,0.000013,-0.000005,-0.000153,-0.000046,  49.203
    24.4,0.000016,-0.000003,-0.000169,-0.000046,  49.206
    24.6,0.000009,-0.000003,-0.000154,-0.000068,  49.206
    24.8,0.000009,-0.000000,-0.000124,-0.000033,  49.203
    25.0,0.000016,0.000003,-0.000105,-0.000033,  49.205
    25.2,0.000009,0.000003,-0.000075,-0.000033,  49.207
    25.4,0.000009,0.000009,-0.000035,-0.000068,  49.210
    25.6,0.000016,0.000006,0.000006,-0.000033,  49.206
    25.8,0.000009,0.000010,0.000016,-0.000033,  49.209
    26.0,0.000007,0.000007,0.000027,-0.000068,  49.209
    26.2,0.000011,0.000004,0.000022,-0.000033,  49.212
    26.4,-0.000001,0.000003,0.000006,-0.000033,  49.205
    26.6,-0.000012,0.000003,-0.000020,-0.000046,  49.209
    26.8,-0.000021,0.000003,-0.000049,-0.000023,  49.213
    27.0,-0.000033,0.000007,-0.000035,-0.000010,  49.215
    27.2,-0.000041,0.000011,-0.000020,-0.000010,  49.213
    27.4,-0.000042,0.000010,0.000016,-0.000010,  49.224
    27.6,-0.000046,0.000006,0.000027,0.000003,  49.228
    27.8,-0.000044,-0.000001,0.000012,-0.000033,  49.241
    28.0,-0.000029,-0.000006,-0.000014,-0.000046,  49.229
    28.2,-0.000030,-0.000012,-0.000060,-0.000033,  49.213
    28.4,-0.000025,-0.000025,-0.000109,-0.000068,  49.213
    28.6,-0.000013,-0.000029,-0.000180,-0.000033,  49.207
    28.8,-0.000011,-0.000029,-0.000226,-0.000046,  49.207
    29.0,-0.000005,-0.000029,-0.000256,-0.000107,  49.203
    29.2,-0.000005,-0.000025,-0.000265,-0.000111,  49.203
    29.4,-0.000005,-0.000023,-0.000208,-0.000098,  49.203
    29.6,-0.000005,-0.000019,-0.000142,-0.000133,  49.205
    29.8,-0.000005,-0.000012,-0.000018,-0.000085,  49.203
    30.0,-0.000008,-0.000012,-0.000003,-0.000072,  49.188
    30.2,-0.000017,-0.000014,-0.000043,-0.000107,  49.188
    30.4,-0.000017,-0.000015,-0.000115,-0.000059,  49.187
    30.6,-0.000008,-0.000015,-0.000269,-0.000046,  49.185
    30.8,-0.000014,-0.000018,-0.000493,-0.000094,  49.186
    31.0,-0.000014,-0.000019,-0.000779,-0.000059,  49.182
    31.2,-0.000008,-0.000015,-0.000770,-0.000046,  49.187
    31.4,-0.000014,-0.000019,-0.000638,-0.000081,  49.180
    31.6,-0.000017,-0.000025,-0.000395,-0.000046,  49.181
    31.8,-0.000013,-0.000023,-0.000308,-0.000033,  49.183
    32.0,-0.000017,-0.000022,-0.000242,-0.000068,  49.182
    32.2,-0.000020,-0.000019,-0.000202,-0.000046,  49.182
    32.4,-0.000013,-0.000025,-0.000156,-0.000033,  49.183
    32.6,-0.000017,-0.000025,-0.000147,-0.000068,  49.185
    32.8,-0.000020,-0.000024,-0.000153,-0.000046,  49.182
    33.0,-0.000013,-0.000029,-0.000174,-0.000033,  49.179
    33.2,-0.000017,-0.000031,-0.000235,-0.000068,  49.177
    33.4,-0.000020,-0.000029,-0.000310,-0.000033,  49.178
    33.6,-0.000016,-0.000029,-0.000280,-0.000033,  49.181
    33.8,-0.000022,-0.000033,-0.000220,-0.000055,  49.182
    34.0,-0.000022,-0.000027,-0.000120,-0.000033,  49.183
    34.2,-0.000021,-0.000029,-0.000094,-0.000046,  49.183
    34.4,-0.000028,-0.000036,-0.000094,-0.000033,  49.177
    34.6,-0.000021,-0.000033,-0.000120,-0.000068,  49.178
    34.8,-0.000017,-0.000035,-0.000120,-0.000046,  49.172
    35.0,-0.000032,-0.000039,-0.000126,-0.000033,  49.170
    35.2,-0.000041,-0.000036,-0.000115,-0.000081,  49.170
    35.4,-0.000060,-0.000040,-0.000121,-0.000059,  49.172
    35.6,-0.000074,-0.000042,-0.000524,-0.000046,  49.166
    35.8,-0.000078,-0.000040,-0.001092,-0.000094,  49.174
    36.0,-0.000083,-0.000040,-0.001838,-0.000072,  49.178
    36.2,-0.000087,-0.000048,-0.001889,-0.000094,  49.189
    36.4,-0.000073,-0.000054,-0.001687,-0.000094,  49.196
    36.6,-0.000062,-0.000063,-0.001225,-0.000107,  49.175
    36.8,-0.000061,-0.000074,-0.001053,-0.000130,  49.158
    37.0,-0.000053,-0.000081,-0.000882,-0.000094,  49.156
    37.2,-0.000050,-0.000091,-0.000715,-0.000107,  49.152
    37.4,-0.000051,-0.000095,-0.000639,-0.000156,  49.148
    37.6,-0.000046,-0.000090,-0.000609,-0.000146,  49.146
    37.8,-0.000040,-0.000081,-0.000612,-0.000185,  49.147
    38.0,-0.000037,-0.000075,-0.000545,-0.000221,  49.141
    38.2,-0.000034,-0.000074,-0.000483,-0.000172,  49.140
    38.4,-0.000032,-0.000067,-0.000416,-0.000159,  49.138
    38.6,-0.000029,-0.000061,-0.000386,-0.000146,  49.141
    38.8,-0.000026,-0.000062,-0.000388,-0.000120,  49.141
    39.0,-0.000026,-0.000057,-0.000394,-0.000098,  49.140
    39.2,-0.000026,-0.000055,-0.000772,-0.000085,  49.138
    39.4,-0.000030,-0.000053,-0.001341,-0.000120,  49.137
    39.6,-0.000025,-0.000052,-0.002102,-0.000085,  49.136
    39.8,-0.000022,-0.000050,-0.002103,-0.000072,  49.130
    40.0,-0.000020,-0.000047,-0.001815,-0.000120,  49.134
    40.2,-0.000020,-0.000048,-0.001237,-0.000085,  49.126
    40.4,-0.000016,-0.000044,-0.001091,-0.000072,  49.125
    40.6,-0.000020,-0.000043,-0.001005,-0.000107,  49.126
    40.8,-0.000020,-0.000040,-0.000967,-0.000072,  49.126
    41.0,-0.000016,-0.000041,-0.000872,-0.000059,  49.125
    41.2,-0.000020,-0.000044,-0.000776,-0.000094,  49.123
    41.4,-0.000020,-0.000039,-0.000664,-0.000059,  49.120
    41.6,-0.000016,-0.000037,-0.000584,-0.000046,  49.118
    41.8,-0.000020,-0.000035,-0.000518,-0.000094,  49.118
    42.0,-0.000017,-0.000033,-0.000472,-0.000059,  49.119
    42.2,-0.000008,-0.000034,-0.000440,-0.000059,  49.117
    42.4,-0.000012,-0.000027,-0.000440,-0.000094,  49.117
    42.6,-0.000006,-0.000025,-0.000460,-0.000059,  49.120
    42.8,0.000003,-0.000026,-0.000475,-0.000072,  49.116
    43.0,0.000001,-0.000024,-0.000504,-0.000094,  49.116
    43.2,0.000004,-0.000020,-0.000555,-0.000059,  49.114
    43.4,0.000008,-0.000023,-0.000576,-0.000059,  49.114
    43.6,-0.000006,-0.000020,-0.000591,-0.000046,  49.117
    43.8,-0.000020,-0.000017,-0.000595,-0.000094,  49.119
    44.0,-0.000041,-0.000021,-0.000610,-0.000059,  49.120
    44.2,-0.000046,-0.000019,-0.000631,-0.000046,  49.118
    44.4,-0.000049,-0.000015,-0.000651,-0.000094,  49.126
    44.6,-0.000051,-0.000017,-0.000676,-0.000059,  49.133
    44.8,-0.000046,-0.000023,-0.000676,-0.000046,  49.149
    45.0,-0.000036,-0.000026,-0.000666,-0.000059,  49.154
    45.2,-0.000021,-0.000027,-0.000634,-0.000023,  49.132
    45.4,-0.000020,-0.000031,-0.000604,-0.000010,  49.119
    45.6,-0.000012,-0.000041,-0.000558,-0.000010,  49.125
    45.8,0.000000,-0.000048,-0.000512,-0.000010,  49.119
    46.0,-0.000001,-0.000053,-0.000465,-0.000010,  49.119
    46.2,0.000004,-0.000048,-0.000425,-0.000036,  49.125
    46.4,0.000016,-0.000039,-0.000383,-0.000088,  49.127
    46.6,0.000015,-0.000035,-0.000316,-0.000088,  49.129
    46.8,0.000017,-0.000030,-0.000249,-0.000098,  49.128
    47.0,0.000029,-0.000018,-0.000181,-0.000098,  49.127
    47.2,0.000032,-0.000017,-0.000156,-0.000085,  49.127
    47.4,0.000034,-0.000006,-0.000166,-0.000107,  49.133
    47.6,0.000034,-0.000000,-0.000193,-0.000059,  49.136
    47.8,0.000034,-0.000001,-0.000174,-0.000046,  49.135
    48.0,0.000037,0.000006,-0.000138,-0.000081,  49.136
    48.2,0.000040,0.000008,-0.000087,-0.000046,  49.139
    48.4,0.000042,0.000009,-0.000163,-0.000033,  49.135
    48.6,0.000041,0.000015,-0.000278,-0.000068,  49.132
    48.8,0.000044,0.000021,-0.000438,-0.000033,  49.135
    49.0,0.000053,0.000022,-0.000428,-0.000033,  49.136
    49.2,0.000049,0.000028,-0.000362,-0.000068,  49.137
    49.4,0.000058,0.000034,-0.000235,-0.000033,  49.137
    49.6,0.000070,0.000031,-0.000163,-0.000033,  49.140
    49.8,0.000066,0.000036,-0.000123,-0.000068,  49.139
    50.0,0.000073,0.000039,-0.000087,-0.000033,  49.136
    50.2,0.000073,0.000039,-0.000076,-0.000020,  49.136
    50.4,0.000069,0.000039,-0.000096,-0.000055,  49.134
    50.6,0.000075,0.000046,-0.000130,-0.000020,  49.144
    50.8,0.000073,0.000045,-0.000135,-0.000007,  49.144
    51.0,0.000066,0.000049,-0.000145,-0.000042,  49.143
    51.2,0.000073,0.000057,-0.000150,-0.000020,  49.146
    51.4,0.000073,0.000057,-0.000118,-0.000020,  49.147
    51.6,0.000063,0.000057,-0.000082,-0.000042,  49.144
    51.8,0.000070,0.000061,-0.000046,-0.000020,  49.149
    52.0,0.000067,0.000060,-0.000031,-0.000007,  49.151
    52.2,0.000050,0.000059,-0.000021,-0.000029,  49.148
    52.4,0.000041,0.000065,-0.000009,-0.000007,  49.151
    52.6,0.000020,0.000064,0.000023,-0.000007,  49.151
    52.8,0.000008,0.000062,0.000052,-0.000007,  49.155
    53.0,0.000009,0.000060,0.000099,-0.000029,  49.155
    53.2,0.000004,0.000051,0.000130,-0.000007,  49.164
    53.4,0.000003,0.000046,0.000135,-0.000007,  49.179
    53.6,0.000017,0.000039,0.000156,-0.000029,  49.185
    53.8,0.000025,0.000036,0.000156,-0.000007,  49.158
    54.0,0.000024,0.000023,0.000130,-0.000007,  49.149
    54.2,0.000036,0.000022,0.000100,-0.000029,  49.146
    54.4,0.000038,0.000012,0.000055,-0.000007,  49.143
    54.6,0.000034,0.000012,0.000055,-0.000020,  49.156
    54.8,0.000034,0.000016,0.000051,-0.000081,  49.152
    55.0,0.000034,0.000018,0.000068,-0.000085,  49.159
    55.2,0.000030,0.000022,0.000118,-0.000085,  49.153
    55.4,0.000028,0.000022,0.000180,-0.000120,  49.157
    55.6,0.000034,0.000030,0.000279,-0.000072,  49.154
    55.8,0.000030,0.000032,0.000283,-0.000059,  49.155
    56.0,0.000028,0.000033,0.000267,-0.000081,  49.154
    56.2,0.000034,0.000032,0.000216,-0.000033,  49.156
    56.4,0.000032,0.000032,0.000038,-0.000033,  49.160
    56.6,0.000034,0.000037,-0.000223,-0.000068,  49.158
    56.8,0.000032,0.000042,-0.000563,-0.000033,  49.157
    57.0,0.000032,0.000038,-0.000568,-0.000033,  49.153
    57.2,0.000032,0.000035,-0.000472,-0.000068,  49.158
    57.4,0.000032,0.000037,-0.000244,-0.000033,  49.158
    57.6,0.000029,0.000034,-0.000188,-0.000033,  49.161
    57.8,0.000025,0.000034,-0.000163,-0.000068,  49.163
    58.0,0.000023,0.000030,-0.000140,-0.000033,  49.158
    58.2,0.000029,0.000024,-0.000070,-0.000033,  49.162
    58.4,0.000023,0.000026,0.000005,-0.000068,  49.161
    58.6,0.000023,0.000025,0.000111,-0.000033,  49.164
    58.8,0.000026,0.000023,0.000126,-0.000033,  49.167
    59.0,0.000020,0.000016,0.000084,-0.000068,  49.162
    59.2,0.000020,0.000018,0.000014,-0.000033,  49.167
    59.4,0.000024,0.000018,0.000033,-0.000033,  49.167
    59.6,0.000017,0.000016,0.000088,-0.000068,  49.169
    59.8,0.000017,0.000015,0.000159,-0.000033,  49.166
    60.0,0.000024,0.000012,0.000121,-0.000033,  49.166
    60.2,0.000017,0.000018,0.000076,-0.000068,  49.171
    60.4,0.000024,0.000018,-0.000009,-0.000033,  49.171
    60.6,0.000030,0.000017,-0.000004,-0.000033,  49.175
    60.8,0.000011,0.000021,0.000040,-0.000055,  49.173
    61.0,-0.000001,0.000023,0.000121,-0.000033,  49.177
    61.2,-0.000028,0.000022,0.000168,-0.000033,  49.173
    61.4,-0.000040,0.000024,0.000187,-0.000068,  49.177
    61.6,-0.000040,0.000022,0.000202,-0.000020,  49.189
    61.8,-0.000034,0.000014,-0.000048,-0.000020,  49.198
    62.0,-0.000033,0.000010,-0.000446,-0.000007,  49.201
    62.2,-0.000025,-0.000004,-0.000972,-0.000042,  49.199
    62.4,-0.000011,-0.000018,-0.001069,-0.000020,  49.191
    62.6,-0.000006,-0.000019,-0.001004,-0.000033,  49.188
    62.8,-0.000004,-0.000028,-0.000797,-0.000068,  49.185
    63.0,0.000005,-0.000032,-0.000431,-0.000033,  49.188
    63.2,0.000004,-0.000028,-0.000344,-0.000059,  49.189
    63.4,0.000007,-0.000027,-0.000287,-0.000133,  49.190
    63.6,0.000016,-0.000021,-0.000251,-0.000137,  49.190
    63.8,0.000009,-0.000017,-0.000226,-0.000137,  49.196
    64.0,0.000009,-0.000010,-0.000203,-0.000146,  49.200
    64.2,0.000016,-0.000003,-0.000206,-0.000098,  49.197
    64.4,0.000012,-0.000001,-0.000166,-0.000085,  49.194
    64.6,0.000015,0.000005,-0.000127,-0.000107,  49.199
    64.8,0.000021,0.000011,-0.000063,-0.000059,  49.201
    65.0,0.000020,0.000015,-0.000043,-0.000046,  49.195
    65.2,0.000023,0.000012,-0.000033,-0.000094,  49.198
    65.4,0.000029,0.000016,-0.000043,-0.000059,  49.193
    65.6,0.000032,0.000018,-0.000024,-0.000046,  49.192
    65.8,0.000034,0.000022,0.000001,-0.000081,  49.192
    66.0,0.000040,0.000024,0.000031,-0.000033,  49.194
    66.2,0.000042,0.000023,0.000051,-0.000033,  49.195
    66.4,0.000045,0.000027,0.000076,-0.000068,  49.192
    66.6,0.000048,0.000029,0.000091,-0.000033,  49.191
    66.8,0.000048,0.000026,0.000076,-0.000020,  49.194
    67.0,0.000041,0.000029,0.000031,-0.000055,  49.190
    67.2,0.000041,0.000032,-0.000049,-0.000020,  49.195
    67.4,0.000045,0.000034,-0.000064,-0.000007,  49.190
    67.6,0.000038,0.000032,-0.000090,-0.000042,  49.194
    67.8,0.000041,0.000034,-0.000105,-0.000020,  49.192
    68.0,0.000045,0.000034,-0.000120,-0.000020,  49.188
    68.2,0.000038,0.000033,-0.000145,-0.000055,  49.193
    68.4,0.000041,0.000032,-0.000175,-0.000020,  49.192
    68.6,0.000045,0.000029,-0.000196,-0.000020,  49.195
    68.8,0.000038,0.000036,-0.000196,-0.000055,  49.194
    69.0,0.000038,0.000032,-0.000196,-0.000020,  49.197
    69.2,0.000042,0.000027,-0.000198,-0.000020,  49.198
    69.4,0.000023,0.000034,-0.000187,-0.000055,  49.198
    69.6,0.000001,0.000032,-0.000166,-0.000020,  49.198
    69.8,-0.000019,0.000027,-0.000115,-0.000020,  49.199
    70.0,-0.000030,0.000034,-0.000060,-0.000055,  49.203
    70.2,-0.000033,0.000037,0.000016,-0.000020,  49.206
    70.4,-0.000019,0.000028,0.000018,-0.000020,  49.213
    70.6,-0.000020,0.000020,-0.000048,-0.000055,  49.221
    70.8,-0.000014,0.000010,-0.000139,-0.000020,  49.217
    71.0,-0.000006,-0.000001,-0.000159,-0.000020,  49.205
    71.2,-0.000001,-0.000005,-0.000159,-0.000033,  49.201
    71.4,0.000004,-0.000008,-0.000169,-0.000068,  49.202
    71.6,0.000013,-0.000013,-0.000148,-0.000033,  49.206
    71.8,0.000009,-0.000009,-0.000127,-0.000059,  49.202
    72.0,0.000016,0.000002,-0.000112,-0.000133,  49.207
    72.2,0.000022,0.000004,-0.000091,-0.000137,  49.209
    72.4,0.000018,0.000006,-0.000072,-0.000124,  49.206
    72.6,0.000025,0.000008,-0.000019,-0.000146,  49.204
    72.8,0.000025,0.000012,0.000033,-0.000085,  49.206
    73.0,0.000024,0.000012,0.000048,-0.000072,  49.203
    73.2,0.000033,0.000016,0.000042,-0.000107,  49.210
    73.4,0.000036,0.000015,0.000000,-0.000059,  49.209
    73.6,0.000032,0.000015,0.000000,-0.000046,  49.208
    73.8,0.000038,0.000018,0.000000,-0.000081,  49.207
    74.0,0.000038,0.000018,-0.000010,-0.000046,  49.207
    74.2,0.000034,0.000016,-0.000031,-0.000033,  49.203
    74.4,0.000041,0.000018,-0.000036,-0.000068,  49.203
    74.6,0.000038,0.000020,-0.000061,-0.000046,  49.199
    74.8,0.000038,0.000019,-0.000087,-0.000033,  49.203
    75.0,0.000041,0.000019,-0.000102,-0.000068,  49.201
    75.2,0.000041,0.000025,-0.000132,-0.000046,  49.198
    75.4,0.000038,0.000023,-0.000117,-0.000033,  49.201
    75.6,0.000038,0.000025,-0.000076,-0.000068,  49.198
    75.8,0.000032,0.000029,-0.000025,-0.000033,  49.198
    76.0,0.000032,0.000023,-0.000051,-0.000033,  49.203
    76.2,0.000028,0.000025,-0.000123,-0.000068,  49.203
    76.4,0.000028,0.000031,-0.000212,-0.000033,  49.203
    76.6,0.000034,0.000026,-0.000212,-0.000033,  49.199
    76.8,0.000030,0.000026,-0.000182,-0.000068,  49.203
    77.0,0.000025,0.000026,-0.000138,-0.000033,  49.202
    77.2,0.000023,0.000022,-0.000138,-0.000033,  49.200
    77.4,0.000023,0.000029,-0.000153,-0.000068,  49.209
    77.6,0.000020,0.000028,-0.000182,-0.000033,  49.207
    77.8,0.000015,0.000023,-0.000148,-0.000033,  49.201
    78.0,0.000001,0.000025,-0.000093,-0.000068,  49.205
    78.2,-0.000020,0.000023,-0.000012,-0.000033,  49.198
    78.4,-0.000049,0.000020,-0.000033,-0.000033,  49.199
    78.6,-0.000054,0.000020,-0.000078,-0.000068,  49.196
    78.8,-0.000051,0.000020,-0.000180,-0.000033,  49.201
    79.0,-0.000032,0.000010,-0.000181,-0.000033,  49.207
    79.2,-0.000033,0.000002,-0.000145,-0.000055,  49.213
    79.4,-0.000028,-0.000012,-0.000075,-0.000033,  49.203
    79.6,-0.000013,-0.000025,-0.000060,-0.000033,  49.181
    79.8,-0.000012,-0.000029,-0.000075,-0.000068,  49.182
    80.0,-0.000003,-0.000035,-0.000105,-0.000046,  49.180
    80.2,0.000006,-0.000034,-0.000105,-0.000059,  49.180
    80.4,0.000005,-0.000029,-0.000105,-0.000059,  49.178
    80.6,0.000014,-0.000019,-0.000105,-0.000120,  49.174
    80.8,0.000017,-0.000013,-0.000105,-0.000124,  49.172
    81.0,0.000013,-0.000009,-0.000236,-0.000111,  49.174
    81.2,0.000013,-0.000009,-0.000440,-0.000133,  49.172
    81.4,0.000016,-0.000007,-0.000687,-0.000085,  49.167
    81.6,0.000012,-0.000005,-0.000708,-0.000072,  49.173
    81.8,0.000017,-0.000003,-0.000622,-0.000107,  49.167
    82.0,0.000026,0.000002,-0.000455,-0.000072,  49.166
    82.2,0.000023,0.000002,-0.000410,-0.000059,  49.163
    82.4,0.000023,0.000002,-0.000380,-0.000094,  49.164
    82.6,0.000021,0.000008,-0.000359,-0.000072,  49.163
    82.8,0.000015,0.000010,-0.000583,-0.000059,  49.158
    83.0,0.000020,0.000014,-0.000965,-0.000081,  49.155
    83.2,0.000026,0.000020,-0.001451,-0.000046,  49.155
    83.4,0.000020,0.000017,-0.001451,-0.000033,  49.152
    83.6,0.000023,0.000017,-0.001268,-0.000068,  49.142
    83.8,0.000026,0.000024,-0.000917,-0.000046,  49.142
    84.0,0.000026,0.000019,-0.000776,-0.000033,  49.142
    84.2,0.000029,0.000015,-0.000653,-0.000068,  49.137
    84.4,0.000029,0.000016,-0.000562,-0.000046,  49.138
    84.6,0.000029,0.000013,-0.000496,-0.000033,  49.138
    84.8,0.000029,0.000015,-0.000446,-0.000068,  49.139
    85.0,0.000029,0.000019,-0.000425,-0.000046,  49.137
    85.2,0.000029,0.000016,-0.000395,-0.000033,  49.132
    85.4,0.000025,0.000018,-0.000380,-0.000068,  49.126
    85.6,0.000023,0.000020,-0.000359,-0.000046,  49.129
    85.8,0.000029,0.000017,-0.000746,-0.000033,  49.130
    86.0,0.000025,0.000017,-0.001372,-0.000068,  49.127
    86.2,0.000025,0.000020,-0.002193,-0.000033,  49.122
    86.4,0.000032,0.000023,-0.002183,-0.000033,  49.124
    86.6,0.000012,0.000024,-0.001863,-0.000068,  49.119
    86.8,-0.000012,0.000022,-0.001260,-0.000033,  49.117
    87.0,-0.000046,0.000022,-0.001043,-0.000033,  49.118
    87.2,-0.000049,0.000029,-0.000859,-0.000068,  49.122
    87.4,-0.000044,0.000031,-0.000732,-0.000046,  49.132
    87.6,-0.000024,0.000020,-0.000620,-0.000033,  49.141
    87.8,-0.000022,0.000006,-0.000528,-0.000068,  49.147
    88.0,-0.000014,-0.000012,-0.000475,-0.000046,  49.124
    88.2,0.000000,-0.000021,-0.000420,-0.000046,  49.119
    88.4,-0.000001,-0.000021,-0.000375,-0.000081,  49.115
    88.6,0.000004,-0.000020,-0.000340,-0.000059,  49.111
    88.8,0.000013,-0.000018,-0.000274,-0.000072,  49.106
    89.0,0.000009,-0.000013,-0.000204,-0.000107,  49.091
    89.2,0.000009,-0.000001,-0.000111,-0.000085,  49.094
    89.4,0.000016,0.000001,-0.000100,-0.000098,  49.090
    89.6,0.000012,0.000007,-0.000099,-0.000085,  49.094
    89.8,0.000015,0.000015,-0.000154,-0.000107,  49.096
    90.0,0.000024,0.000014,-0.000229,-0.000072,  49.096
    90.2,0.000023,0.000014,-0.000250,-0.000059,  49.099
    90.4,0.000025,0.000016,-0.000265,-0.000094,  49.094
    90.6,0.000032,0.000018,-0.000280,-0.000059,  49.098
    90.8,0.000028,0.000017,-0.000265,-0.000046,  49.101
    91.0,0.000030,0.000021,-0.000250,-0.000081,  49.102
    91.2,0.000037,0.000023,-0.000209,-0.000046,  49.106
    91.4,0.000033,0.000023,-0.000199,-0.000033,  49.105
    91.6,0.000037,0.000023,-0.000220,-0.000068,  49.106
    91.8,0.000041,0.000024,-0.000245,-0.000046,  49.114
    92.0,0.000037,0.000016,-0.000205,-0.000033,  49.127
    92.2,0.000034,0.000020,-0.000156,-0.000068,  49.128
    92.4,0.000034,0.000028,-0.000069,-0.000046,  49.129
    92.6,0.000034,0.000032,-0.000079,-0.000033,  49.135
    92.8,0.000037,0.000030,-0.000130,-0.000068,  49.132
    93.0,0.000034,0.000033,-0.000200,-0.000046,  49.138
    93.2,0.000037,0.000039,-0.000207,-0.000033,  49.146
    93.4,0.000040,0.000037,-0.000186,-0.000068,  49.141
    93.6,0.000042,0.000037,-0.000156,-0.000033,  49.148
    93.8,0.000036,0.000035,-0.000181,-0.000033,  49.146
    94.0,0.000038,0.000035,-0.000221,-0.000068,  49.152
    94.2,0.000038,0.000037,-0.000302,-0.000033,  49.146
    94.4,0.000036,0.000037,-0.000575,-0.000033,  49.151
    94.6,0.000033,0.000037,-0.000981,-0.000068,  49.155
    94.8,0.000033,0.000038,-0.001503,-0.000033,  49.151
    95.0,0.000033,0.000033,-0.001484,-0.000033,  49.154
    95.2,0.000017,0.000038,-0.001262,-0.000068,  49.155
    95.4,-0.000004,0.000036,-0.000816,-0.000033,  49.162
    95.6,-0.000026,0.000033,-0.000685,-0.000033,  49.159
    95.8,-0.000033,0.000038,-0.000614,-0.000068,  49.166
    96.0,-0.000022,0.000038,-0.000577,-0.000033,  49.170
    96.2,-0.000003,0.000027,-0.000490,-0.000033,  49.177
    96.4,-0.000001,0.000016,-0.000420,-0.000068,  49.179
    96.6,0.000009,-0.000000,-0.000348,-0.000033,  49.165
    96.8,0.000024,-0.000005,-0.000266,-0.000046,  49.162
    97.0,0.000025,-0.000001,-0.000221,-0.000068,  49.162
    97.2,0.000036,0.000005,-0.000181,-0.000046,  49.163
    97.4,0.000050,0.000010,-0.000120,-0.000059,  49.165
    97.6,0.000049,0.000017,-0.000048,-0.000107,  49.171
    97.8,0.000054,0.000025,0.000003,-0.000072,  49.172
    98.0,0.000063,0.000026,-0.000002,-0.000085,  49.167
    98.2,0.000060,0.000030,-0.000031,-0.000072,  49.165
    98.4,0.000062,0.000039,-0.000102,-0.000107,  49.172
    98.6,0.000071,0.000042,-0.000191,-0.000072,  49.173
    98.8,0.000070,0.000043,-0.000589,-0.000059,  49.174
    99.0,0.000073,0.000045,-0.001133,-0.000094,  49.176
    99.2,0.000082,0.000047,-0.001804,-0.000072,  49.176
    99.4,0.000081,0.000048,-0.002006,-0.000059,  49.182
    99.6,0.000083,0.000047,-0.002061,-0.000081,  49.180
    99.8,0.000095,0.000054,-0.001943,-0.000046,  49.183
   100.0,0.000094,0.000056,-0.001731,-0.000033,  49.177
   100.2,0.000097,0.000053,-0.001402,-0.000068,  49.179
   100.4,0.000106,0.000062,-0.000946,-0.000046,  49.182
   100.6,0.000104,0.000068,-0.000681,-0.000033,  49.177
   100.8,0.000110,0.000069,-0.000478,-0.000068,  49.181
   101.0,0.000122,0.000075,-0.000316,-0.000046,  49.184
   101.2,0.000123,0.000082,-0.000208,-0.000033,  49.182
   101.4,0.000128,0.000080,-0.000145,-0.000068,  49.183
   101.6,0.000137,0.000078,-0.000143,-0.000033,  49.188
   101.8,0.000145,0.000085,-0.000093,-0.000033,  49.187
   102.0,0.000153,0.000089,-0.000025,-0.000068,  49.186
   102.2,0.000161,0.000088,0.000053,-0.000033,  49.186
   102.4,0.000169,0.000090,0.000090,-0.000033,  49.187
   102.6,0.000177,0.000091,0.000102,-0.000068,  49.182
   102.8,0.000188,0.000094,0.000083,-0.000033,  49.183
   103.0,0.000198,0.000098,0.000165,-0.000033,  49.181
   103.2,0.000205,0.000107,0.000288,-0.000068,  49.180
   103.4,0.000218,0.000116,0.000451,-0.000033,  49.178
   103.6,0.000238,0.000127,0.000160,-0.000033,  49.179
   103.8,0.000234,0.000133,-0.000321,-0.000068,  49.172
   104.0,0.000229,0.000132,-0.000994,-0.000033,  49.172
   104.2,0.000222,0.000138,-0.000931,-0.000033,  49.171
   104.4,0.000234,0.000148,-0.000613,-0.000068,  49.176
   104.6,0.000263,0.000159,-0.000026,-0.000033,  49.189
   104.8,0.000307,0.000155,0.000261,-0.000033,  49.188
   105.0,0.000335,0.000153,0.000508,-0.000068,  49.186
   105.2,0.000369,0.000151,0.000740,-0.000033,  49.175
   105.4,0.000410,0.000155,0.000932,-0.000033,  49.166
   105.6,0.000440,0.000155,0.001111,-0.000081,  49.166
   105.8,0.000475,0.000173,0.001239,-0.000059,  49.165
   106.0,0.000518,0.000190,0.001426,-0.000072,  49.160
   106.2,0.000551,0.000211,0.001641,-0.000094,  49.166
   106.4,0.000600,0.000236,0.001861,-0.000072,  49.162
   106.6,0.000649,0.000258,0.001906,-0.000072,  49.164
   106.8,0.000690,0.000283,0.001865,-0.000094,  49.159
   107.0,0.000747,0.000303,0.001748,-0.000059,  49.161
   107.2,0.000807,0.000328,0.001871,-0.000059,  49.161
   107.4,0.000861,0.000350,0.002086,-0.000046,  49.162
   107.6,0.000927,0.000375,0.002363,-0.000059,  49.164
   107.8,0.001002,0.000400,0.002727,-0.000023,  49.162
   108.0,0.001065,0.000428,0.003083,-0.000010,  49.161
   108.2,0.001128,0.000457,0.003465,-0.000023,  49.164
   108.4,0.001199,0.000485,0.003900,-0.000023,  49.160
   108.6,0.001264,0.000511,0.004067,-0.000010,  49.159
   108.8,0.001338,0.000539,0.004112,-0.000010,  49.164
   109.0,0.001416,0.000561,0.004056,0.000003,  49.165
   109.2,0.001492,0.000588,0.004488,0.000003,  49.162
   109.4,0.001584,0.000629,0.005107,0.000003,  49.166
   109.6,0.001684,0.000673,0.005920,-0.000010,  49.167
   109.8,0.001775,0.000706,0.006508,0.000003,  49.161
   110.0,0.001882,0.000753,0.007083,0.000003,  49.163
   110.2,0.001988,0.000794,0.007633,0.000003,  49.166
   110.4,0.002074,0.000835,0.008261,0.000016,  49.166
   110.6,0.002162,0.000886,0.008933,0.000016,  49.165
   110.8,0.002241,0.000937,0.009622,0.000016,  49.166
   111.0,0.002322,0.000993,0.010259,0.000029,  49.169
   111.2,0.002434,0.001047,0.010898,0.000029,  49.174
   111.4,0.002556,0.001105,0.011529,0.000016,  49.172
   111.6,0.002692,0.001167,0.012267,0.000016,  49.174
   111.8,0.002818,0.001228,0.013031,0.000029,  49.175
   112.0,0.002960,0.001287,0.013868,0.000029,  49.177
   112.2,0.003102,0.001351,0.014760,0.000029,  49.175
   112.4,0.003210,0.001421,0.015703,0.000029,  49.182
   112.6,0.003320,0.001494,0.016703,0.000016,  49.176
   112.8,0.003410,0.001567,0.017668,0.000016,  49.176
   113.0,0.003553,0.001646,0.018646,0.000016,  49.183
   113.2,0.003727,0.001722,0.019650,0.000016,  49.188
   113.4,0.003914,0.001785,0.020710,0.000016,  49.197
   113.6,0.004092,0.001844,0.021812,0.000029,  49.194
   113.8,0.004285,0.001897,0.022938,0.000029,  49.187
   114.0,0.004474,0.001972,0.024181,0.000016,  49.184
   114.2,0.004663,0.002065,0.025522,0.000016,  49.183
   114.4,0.004871,0.002161,0.026922,0.000003,  49.181
   114.6,0.005073,0.002258,0.028206,-0.000010,  49.176
   114.8,0.005275,0.002366,0.029454,-0.000010,  49.182
   115.0,0.005493,0.002475,0.030680,-0.000010,  49.177
   115.2,0.005712,0.002582,0.032015,-0.000023,  49.175
   115.4,0.005933,0.002695,0.033377,-0.000046,  49.182
   115.6,0.006172,0.002807,0.034761,-0.000023,  49.183
   115.8,0.006413,0.002916,0.036313,-0.000010,  49.178
   116.0,0.006667,0.003033,0.037974,-0.000033,  49.180
   116.2,0.006943,0.003151,0.039745,-0.000033,  49.175
   116.4,0.007234,0.003272,0.041075,0.000003,  49.175
   116.6,0.007497,0.003402,0.042224,0.000003,  49.174
   116.8,0.007763,0.003539,0.043204,0.000003,  49.176
   117.0,0.008031,0.003682,0.044012,0.000003,  49.169
   117.2,0.008293,0.003828,0.045760,0.000016,  49.168
   117.4,0.008563,0.003979,0.047783,0.000016,  49.164
   117.6,0.008842,0.004110,0.050086,0.000016,  49.167
   117.8,0.009138,0.004223,0.052243,0.000029,  49.165
   118.0,0.009446,0.004338,0.054464,0.000029,  49.163
   118.2,0.009781,0.004438,0.056751,0.000016,  49.163
   118.4,0.010108,0.004578,0.059068,0.000016,  49.158
   118.6,0.010434,0.004728,0.061428,-0.000020,  49.158
   118.8,0.010782,0.004894,0.063838,-0.000020,  49.158
   119.0,0.011119,0.005056,0.066144,-0.000020,  49.158
   119.2,0.011467,0.005226,0.068431,-0.000055,  49.155
   119.4,0.011817,0.005401,0.070679,-0.000020,  49.153
   119.6,0.012169,0.005580,0.073121,-0.000020,  49.153
   119.8,0.012534,0.005763,0.075627,-0.000042,  49.156
   120.0,0.012893,0.005950,0.078236,-0.000007,  49.151
   120.2,0.013207,0.006138,0.080962,-0.000007,  49.147
   120.4,0.013494,0.006329,0.083757,-0.000029,  49.146
   120.6,0.013764,0.006530,0.086673,0.000006,  49.146
   120.8,0.014016,0.006727,0.089607,0.000006,  49.148
   121.0,0.014288,0.006928,0.092567,-0.000029,  49.143
   121.2,0.014567,0.007139,0.095591,0.000006,  49.143
   121.4,0.014843,0.007353,0.098684,0.000006,  49.143
   121.6,0.015211,0.007563,0.101853,-0.000029,  49.147
   121.8,0.015640,0.007780,0.105065,0.000006,  49.160
   122.0,0.016118,0.007966,0.108280,0.000006,  49.169
   122.2,0.016547,0.008135,0.111512,-0.000016,  49.155
   122.4,0.016993,0.008289,0.114774,0.000019,  49.145
   122.6,0.017439,0.008491,0.118180,0.000019,  49.141
   122.8,0.017870,0.008713,0.121655,-0.000016,  49.141
   123.0,0.018309,0.008950,0.125220,-0.000007,  49.140
   123.2,0.018736,0.009187,0.128578,-0.000007,  49.144
   123.4,0.019180,0.009432,0.131864,-0.000042,  49.143
   123.6,0.019639,0.009686,0.135104,-0.000020,  49.144
   123.8,0.020104,0.009929,0.138539,-0.000020,  49.150
   124.0,0.020568,0.010178,0.142022,-0.000042,  49.147
   124.2,0.021052,0.010433,0.145602,-0.000007,  49.145
   124.4,0.021535,0.010680,0.149353,-0.000007,  49.147
   124.6,0.022051,0.010940,0.153216,-0.000029,  49.149
   124.8,0.022600,0.011202,0.157202,0.000006,  49.148
   125.0,0.023162,0.011467,0.161206,0.000006,  49.145
   125.2,0.023666,0.011732,0.165234,-0.000029,  49.150
   125.4,0.024161,0.012006,0.169326,0.000006,  49.146
   125.6,0.024631,0.012296,0.172888,0.000019,  49.142
   125.8,0.025114,0.012590,0.176197,0.000019,  49.143
   126.0,0.025608,0.012892,0.179250,-0.000003,  49.139
   126.2,0.026091,0.013171,0.182022,0.000019,  49.145
   126.4,0.026603,0.013457,0.186013,0.000019,  49.145
   126.6,0.027150,0.013741,0.190324,-0.000003,  49.145
   126.8,0.027704,0.013981,0.194989,0.000019,  49.150
   127.0,0.028230,0.014191,0.199540,0.000032,  49.150
   127.2,0.028770,0.014386,0.204201,0.000010,  49.146
   127.4,0.029304,0.014552,0.208957,0.000045,  49.148
   127.6,0.029844,0.014825,0.213698,0.000058,  49.149
   127.8,0.030396,0.015123,0.218485,0.000045,  49.147
   128.0,0.030955,0.015450,0.223297,0.000068,  49.143
   128.2,0.031497,0.015752,0.227878,0.000081,  49.146
   128.4,0.032032,0.016057,0.232305,0.000068,  49.148
   128.6,0.032574,0.016363,0.236627,0.000068,  49.148
   128.8,0.033121,0.016674,0.241236,0.000081,  49.146
   129.0,0.033671,0.016983,0.245950,0.000081,  49.145
   129.2,0.034231,0.017297,0.250716,0.000081,  49.147
   129.4,0.034632,0.017606,0.255598,0.000094,  49.147
   129.6,0.034949,0.017910,0.260599,0.000094,  49.143
   129.8,0.035190,0.018218,0.265696,0.000094,  49.151
   130.0,0.035356,0.018524,0.270563,0.000107,  49.148
   130.2,0.035855,0.018833,0.275364,0.000094,  49.155
   130.4,0.036441,0.019144,0.280088,0.000094,  49.168
   130.6,0.037111,0.019408,0.284949,0.000107,  49.180
   130.8,0.037692,0.019648,0.289811,0.000094,  49.162
   131.0,0.038280,0.019864,0.294679,0.000094,  49.160
   131.2,0.038873,0.020157,0.299827,0.000094,  49.157
   131.4,0.039431,0.020471,0.305102,0.000081,  49.150
   131.6,0.039987,0.020810,0.310549,0.000055,  49.159
   131.8,0.040535,0.021144,0.315359,0.000055,  49.156
   132.0,0.041083,0.021477,0.319923,0.000055,  49.158
   132.2,0.041635,0.021810,0.324195,0.000042,  49.154
   132.4,0.042198,0.022127,0.329090,0.000042,  49.161
   132.6,0.042754,0.022441,0.334184,0.000042,  49.159
   132.8,0.043311,0.022746,0.339458,0.000078,  49.156
   133.0,0.043879,0.023057,0.344515,0.000091,  49.159
   133.2,0.044495,0.023377,0.349497,0.000055,  49.159
   133.4,0.045146,0.023700,0.354488,0.000068,  49.158
   133.6,0.045833,0.024020,0.359781,0.000068,  49.163
   133.8,0.046394,0.024343,0.365187,0.000045,  49.158
   134.0,0.046914,0.024666,0.370725,0.000081,  49.156
   134.2,0.047395,0.025013,0.376098,0.000081,  49.158
   134.4,0.047911,0.025368,0.381419,0.000045,  49.156
   134.6,0.048430,0.025732,0.386716,0.000045,  49.153
   134.8,0.048954,0.026062,0.392086,0.000081,  49.154
   135.0,0.049486,0.026376,0.397414,0.000094,  49.159
   135.2,0.050032,0.026682,0.402781,0.000094,  49.160
   135.4,0.050590,0.026979,0.407458,0.000081,  49.159
   135.6,0.051124,0.027277,0.411780,0.000094,  49.155
   135.8,0.051666,0.027567,0.415720,0.000107,  49.157
   136.0,0.052206,0.027831,0.419268,0.000107,  49.155
   136.2,0.052733,0.028076,0.424284,0.000120,  49.156
   136.4,0.053268,0.028311,0.429725,0.000120,  49.154
   136.6,0.053797,0.028525,0.435561,0.000107,  49.158
   136.8,0.054305,0.028813,0.440642,0.000120,  49.156
   137.0,0.054818,0.029115,0.445550,0.000120,  49.153
   137.2,0.055313,0.029442,0.450247,0.000107,  49.154
   137.4,0.055823,0.029748,0.455259,0.000120,  49.152
   137.6,0.056350,0.030060,0.460366,0.000107,  49.156
   137.8,0.056868,0.030377,0.465528,0.000094,  49.152
   138.0,0.057247,0.030681,0.470690,0.000107,  49.155
   138.2,0.057573,0.030973,0.475852,0.000094,  49.155
   138.4,0.057827,0.031262,0.481013,0.000094,  49.148
   138.6,0.058264,0.031567,0.486178,0.000107,  49.149
   138.8,0.058779,0.031877,0.491334,0.000094,  49.160
   139.0,0.059351,0.032191,0.496394,0.000094,  49.171
   139.2,0.059785,0.032428,0.501320,0.000107,  49.170
   139.4,0.060179,0.032625,0.506181,0.000094,  49.156
   139.6,0.060537,0.032786,0.510870,0.000094,  49.150
   139.8,0.060862,0.033040,0.515620,0.000094,  49.144
   140.0,0.061288,0.033323,0.520325,0.000068,  49.144
   140.2,0.061730,0.033636,0.524969,0.000042,  49.139
   140.4,0.062201,0.033918,0.529019,0.000042,  49.142
   140.6,0.062625,0.034206,0.532691,0.000042,  49.143
   140.8,0.063030,0.034496,0.536034,0.000042,  49.140
   141.0,0.063430,0.034764,0.540298,0.000042,  49.143
   141.2,0.063846,0.035022,0.544899,0.000042,  49.137
   141.4,0.064272,0.035275,0.549810,0.000042,  49.141
   141.6,0.064701,0.035522,0.554413,0.000042,  49.140
   141.8,0.065164,0.035767,0.559045,0.000042,  49.140
   142.0,0.065659,0.036011,0.563732,0.000029,  49.135
   142.2,0.066169,0.036249,0.568196,0.000029,  49.135
   142.4,0.066554,0.036496,0.572510,0.000029,  49.137
   142.6,0.066902,0.036737,0.576697,0.000016,  49.134
   142.8,0.067189,0.037007,0.580931,0.000003,  49.130
   143.0,0.067525,0.037296,0.585053,0.000003,  49.134
   143.2,0.067875,0.037603,0.589104,-0.000010,  49.135
   143.4,0.068221,0.037836,0.593146,-0.000023,  49.133
   143.6,0.068570,0.038044,0.597101,-0.000059,  49.136
   143.8,0.068926,0.038230,0.600944,-0.000036,  49.135
   144.0,0.069282,0.038429,0.605104,-0.000036,  49.138
   144.2,0.069629,0.038622,0.609378,-0.000072,  49.138
   144.4,0.069977,0.038818,0.613707,-0.000085,  49.135
   144.6,0.070322,0.039022,0.617656,-0.000075,  49.141
   144.8,0.070645,0.039225,0.621423,-0.000075,  49.143
   145.0,0.070962,0.039432,0.625018,-0.000088,  49.136
   145.2,0.071277,0.039636,0.627996,-0.000101,  49.133
   145.4,0.071576,0.039842,0.630636,-0.000114,  49.131
   145.6,0.071875,0.040041,0.632824,-0.000127,  49.130
   145.8,0.072168,0.040237,0.634582,-0.000117,  49.128
   146.0,0.072455,0.040435,0.637666,-0.000130,  49.129
   146.2,0.072749,0.040619,0.641047,-0.000179,  49.120
   146.4,0.073040,0.040778,0.644697,-0.000156,  49.101
   146.6,0.073274,0.040918,0.647941,-0.000169,  49.102
   146.8,0.073487,0.041040,0.651062,-0.000218,  49.095
   147.0,0.073678,0.041140,0.654118,-0.000195,  49.085
   147.2,0.073919,0.041302,0.657290,-0.000208,  49.088
   147.4,0.074189,0.041472,0.660498,-0.000270,  49.092
   147.6,0.074477,0.041661,0.663682,-0.000283,  49.098
   147.8,0.074734,0.041800,0.666639,-0.000283,  49.087
   148.0,0.074998,0.041931,0.669476,-0.000309,  49.074
   148.2,0.075262,0.042044,0.672190,-0.000335,  49.065
   148.4,0.075492,0.042192,0.675101,-0.000348,  49.056
   148.6,0.075718,0.042347,0.678075,-0.000348,  49.051
   148.8,0.075935,0.042514,0.681026,-0.000361,  49.046
   149.0,0.076115,0.042665,0.683239,-0.000361,  49.042
   149.2,0.076279,0.042814,0.685011,-0.000374,  49.032
   149.4,0.076417,0.042961,0.686333,-0.000374,  49.026
   149.6,0.076537,0.043096,0.688579,-0.000387,  49.013
   149.8,0.076729,0.043235,0.691048,-0.000425,  49.004
   150.0,0.076937,0.043369,0.693744,-0.000464,  48.981
   150.2,0.077165,0.043490,0.696237,-0.000490,  48.973
   150.4,0.077404,0.043599,0.698738,-0.000503,  48.960
   150.6,0.077670,0.043709,0.701266,-0.000529,  48.954
   150.8,0.077961,0.043829,0.702605,-0.000542,  48.936
   151.0,0.078131,0.043952,0.703426,-0.000555,  48.930
   151.2,0.078267,0.044081,0.703625,-0.000581,  48.914
   151.4,0.078363,0.044230,0.705546,-0.000594,  48.897
   151.6,0.078511,0.044393,0.707967,-0.000620,  48.888
   151.8,0.078676,0.044573,0.711017,-0.000633,  48.854
   152.0,0.078853,0.044679,0.713375,-0.000646,  48.846
   152.2,0.079021,0.044751,0.715540,-0.000672,  48.824
   152.4,0.079202,0.044797,0.717620,-0.000698,  48.812
   152.6,0.079386,0.044878,0.720156,-0.000724,  48.790
   152.8,0.079564,0.044969,0.722787,-0.000750,  48.765
   153.0,0.079758,0.045060,0.725551,-0.000789,  48.741
   153.2,0.079945,0.045154,0.727605,-0.000815,  48.718
   153.4,0.080113,0.045255,0.729219,-0.000851,  48.698
   153.6,0.080288,0.045361,0.730520,-0.000841,  48.682
   153.8,0.080447,0.045464,0.731874,-0.000841,  48.652
   154.0,0.080603,0.045569,0.733063,-0.000877,  48.637
   154.2,0.080772,0.045675,0.733977,-0.000903,  48.600
   154.4,0.080928,0.045774,0.735165,-0.000893,  48.575
   154.6,0.081093,0.045875,0.736294,-0.000906,  48.553
   154.8,0.081278,0.045972,0.737425,-0.000932,  48.517
   155.0,0.081463,0.046063,0.738497,-0.000957,  48.479
   155.2,0.081673,0.046151,0.739928,-0.000970,  48.454
   155.4,0.081909,0.046235,0.741480,-0.000996,  48.423
   155.6,0.082155,0.046312,0.743101,-0.001009,  48.393
   155.8,0.082344,0.046382,0.744670,-0.001022,  48.354
   156.0,0.082519,0.046446,0.746298,-0.001035,  48.337
   156.2,0.082670,0.046508,0.747884,-0.001061,  48.322
   156.4,0.082845,0.046631,0.749300,-0.001061,  48.287
   156.6,0.083037,0.046780,0.750603,-0.001087,  48.230
   156.8,0.083226,0.046952,0.751856,-0.001100,  48.186
   157.0,0.083421,0.047081,0.753404,-0.001074,  48.161
   157.2,0.083633,0.047198,0.754951,-0.001048,  48.110
   157.4,0.083848,0.047299,0.756618,-0.001009,  48.072
   157.6,0.084062,0.047394,0.757810,-0.000983,  48.036
   157.8,0.084287,0.047489,0.758772,-0.000970,  47.976
   158.0,0.084515,0.047578,0.759434,-0.000970,  47.938
   158.2,0.084727,0.047696,0.760942,-0.000983,  47.881
   158.4,0.084939,0.047817,0.762644,-0.001022,  47.840
   158.6,0.085141,0.047950,0.764547,-0.001087,  47.800
   158.8,0.085341,0.048079,0.766453,-0.001100,  47.727
   159.0,0.085659,0.048200,0.768489,-0.001113,  47.692
   159.2,0.086023,0.048324,0.770480,-0.001139,  47.626
   159.4,0.086439,0.048470,0.772455,-0.001139,  47.580
   159.6,0.086719,0.048623,0.774371,-0.001126,  47.508
   159.8,0.086978,0.048801,0.776233,-0.001139,  47.446
   160.0,0.087191,0.049014,0.777389,-0.001126,  47.386
   160.2,0.087495,0.049247,0.778218,-0.001100,  47.331
   160.4,0.087828,0.049509,0.778485,-0.001087,  47.268
   160.6,0.088193,0.049691,0.780565,-0.001061,  47.204
   160.8,0.088550,0.049847,0.783345,-0.001048,  47.122
   161.0,0.088913,0.049976,0.786724,-0.001035,  47.059
   161.2,0.089295,0.050158,0.789858,-0.001022,  46.994
   161.4,0.089698,0.050363,0.793241,-0.000996,  46.916
   161.6,0.090130,0.050582,0.796680,-0.000996,  46.839
   161.8,0.090583,0.050784,0.799737,-0.000970,  46.766
   162.0,0.091019,0.050990,0.802727,-0.000932,  46.697
   162.2,0.091476,0.051202,0.805439,-0.000906,  46.612
   162.4,0.091923,0.051443,0.808163,-0.000893,  46.542
   162.6,0.092397,0.051704,0.810792,-0.000890,  46.460
   162.8,0.092891,0.051988,0.813245,-0.000841,  46.361
   163.0,0.093398,0.052258,0.816136,-0.000828,  46.297
   163.2,0.093897,0.052543,0.819133,-0.000825,  46.223
   163.4,0.094402,0.052825,0.822313,-0.000799,  46.140
   163.6,0.094915,0.053109,0.825941,-0.000724,  46.045
   163.8,0.095369,0.053410,0.829870,-0.000672,  45.931
   164.0,0.095803,0.053708,0.834104,-0.000633,  45.866
   164.2,0.096225,0.054016,0.837670,-0.000594,  45.792
   164.4,0.096753,0.054333,0.841115,-0.000529,  45.714
   164.6,0.097338,0.054659,0.844234,-0.000490,  45.648
   164.8,0.097973,0.054920,0.847222,-0.000451,  45.581
   165.0,0.098577,0.055145,0.851215,-0.000400,  45.502
   165.2,0.099207,0.055348,0.855564,-0.000335,  45.403
   165.4,0.099842,0.055517,0.860203,-0.000296,  45.315
   165.6,0.100451,0.055834,0.865085,-0.000231,  45.226
   165.8,0.101067,0.056198,0.870173,-0.000189,  45.117
   166.0,0.101675,0.056609,0.875472,-0.000124,  45.049
   166.2,0.102273,0.056993,0.879729,-0.000059,  44.969
   166.4,0.102878,0.057389,0.883388,-0.000042,  44.876
   166.6,0.103475,0.057795,0.886518,0.000032,  44.780
   166.8,0.104136,0.058184,0.891382,0.000084,  44.664
   167.0,0.104835,0.058570,0.896885,0.000088,  44.595
   167.2,0.105559,0.058956,0.902877,0.000162,  44.497
   167.4,0.106193,0.059340,0.908699,0.000214,  44.403
   167.6,0.106791,0.059722,0.914870,0.000231,  44.311
   167.8,0.107366,0.060103,0.921130,0.000305,  44.201
   168.0,0.107911,0.060508,0.927132,0.000370,  44.119
   168.2,0.108515,0.060932,0.932883,0.000374,  44.016
   168.4,0.109136,0.061364,0.938625,0.000448,  43.927
   168.6,0.109771,0.061849,0.944492,0.000501,  43.829
   168.8,0.110422,0.062370,0.950334,0.000530,  43.721
   169.0,0.111091,0.062923,0.956049,0.000605,  43.651
   169.2,0.111767,0.063379,0.962038,0.000657,  43.568
   169.4,0.112428,0.063794,0.968197,0.000686,  43.475
   169.6,0.113099,0.064183,0.974248,0.000774,  43.380
   169.8,0.113764,0.064604,0.981194,0.000839,  43.277
   170.0,0.114431,0.065021,0.988565,0.000855,  43.209
   170.2,0.115112,0.065445,0.996290,0.000943,  43.124
   170.4,0.115795,0.065869,1.003087,0.001008,  43.045
   170.6,0.116441,0.066292,1.009562,0.001047,  42.958
   170.8,0.117084,0.066722,1.015605,0.001122,  42.860
   171.0,0.117711,0.067159,1.021843,0.001174,  42.799
   171.2,0.118339,0.067604,1.027836,0.001227,  42.739
   171.4,0.118974,0.068049,1.033585,0.001279,  42.662
   171.6,0.119614,0.068483,1.039738,0.001318,  42.590
   171.8,0.120172,0.068908,1.045857,0.001321,  42.515
   172.0,0.120695,0.069334,1.051827,0.001383,  42.460
   172.2,0.121183,0.069753,1.058007,0.001396,  42.396
   172.4,0.121522,0.070158,1.064154,0.001399,  42.342
   172.6,0.121774,0.070559,1.070144,0.001425,  42.283
   172.8,0.121938,0.070963,1.076098,0.001513,  42.233
   173.0,0.122436,0.071358,1.082015,0.001566,  42.198
   173.2,0.123060,0.071753,1.087768,0.001592,  42.181
   173.4,0.123814,0.071947,1.092677,0.001605,  42.158
   173.6,0.124388,0.072034,1.097242,0.001657,  42.100
   173.8,0.124944,0.072024,1.100930,0.001683,  42.059
   174.0,0.125483,0.072231,1.104254,0.001709,  42.024
   174.2,0.125946,0.072493,1.109354,0.001670,  41.996
   174.4,0.126370,0.072814,1.114787,0.001579,  41.968
   174.6,0.126759,0.073192,1.120704,0.001435,  41.940
   174.8,0.127124,0.073556,1.124736,0.001409,  41.919
   175.0,0.127471,0.073967,1.127967,0.001422,  41.910
   175.2,0.127790,0.074402,1.130230,0.001448,  41.900
   175.4,0.128156,0.074744,1.134489,0.001487,  41.875
   175.6,0.128543,0.075050,1.139211,0.001552,  41.872
   175.8,0.128951,0.075331,1.144570,0.001631,  41.873
   176.0,0.129343,0.075591,1.149429,0.001683,  41.875
   176.2,0.129738,0.075831,1.154205,0.001722,  41.875
   176.4,0.130147,0.076044,1.159039,0.001761,  41.878
   176.6,0.130401,0.076283,1.163451,0.001787,  41.888
   176.8,0.130579,0.076536,1.167446,0.001800,  41.907
   177.0,0.130686,0.076782,1.171005,0.001800,  41.931
   177.2,0.130721,0.077057,1.174425,0.001813,  41.953
   177.4,0.130918,0.077355,1.177399,0.001813,  41.978
   177.6,0.131140,0.077665,1.179759,0.001787,  42.003
   177.8,0.131389,0.077869,1.182622,0.001787,  42.052
   178.0,0.131583,0.078028,1.185350,0.001800,  42.074
   178.2,0.131776,0.078142,1.187952,0.001787,  42.112
   178.4,0.131951,0.078290,1.191364,0.001787,  42.156
   178.6,0.132117,0.078425,1.195138,0.001800,  42.207
   178.8,0.132292,0.078558,1.199116,0.001787,  42.267
   179.0,0.132449,0.078694,1.202098,0.001774,  42.312
   179.2,0.132583,0.078827,1.204249,0.001774,  42.367
   179.4,0.132708,0.078957,1.206074,0.001761,  42.421
   179.6,0.132808,0.079086,1.208094,0.001735,  42.484
   179.8,0.132916,0.079203,1.209450,0.001722,  42.565
   180.0,0.133009,0.079322,1.210652,0.001696,  42.621
   180.2,0.133105,0.079431,1.212352,0.001683,  42.696
   180.4,0.133155,0.079526,1.213710,0.001670,  42.753
   180.6,0.133170,0.079612,1.215243,0.001644,  42.830
   180.8,0.133177,0.079698,1.216789,0.001631,  42.923
   181.0,0.133137,0.079781,1.218172,0.001582,  42.983
   181.2,0.133052,0.079850,1.219381,0.001618,  43.057
   181.4,0.132951,0.079915,1.220598,0.001592,  43.141
   181.6,0.132997,0.079979,1.221651,0.001543,  43.218
   181.8,0.133088,0.080034,1.222356,0.001530,  43.315
   182.0,0.133252,0.079991,1.223220,0.001552,  43.370
   182.2,0.133321,0.079898,1.223915,0.001539,  43.437
   182.4,0.133368,0.079753,1.224606,0.001513,  43.495
   182.6,0.133407,0.079769,1.224952,0.001474,  43.579
   182.8,0.133403,0.079838,1.225298,0.001396,  43.683
   183.0,0.133371,0.079965,1.225468,0.001266,  43.741
   183.2,0.133316,0.080043,1.225650,0.001122,  43.822
   183.4,0.133266,0.080115,1.225486,0.001083,  43.907
   183.6,0.133198,0.080186,1.224988,0.001070,  43.996
   183.8,0.133115,0.080224,1.224320,0.001083,  44.101
   184.0,0.133087,0.080234,1.224320,0.001096,  44.172
   184.2,0.133069,0.080236,1.224478,0.001122,  44.264
   184.4,0.133065,0.080212,1.224800,0.001135,  44.354
   184.6,0.133061,0.080200,1.224988,0.001148,  44.454
   184.8,0.133065,0.080181,1.225012,0.001148,  44.565
   185.0,0.133072,0.080150,1.224866,0.001135,  44.639
   185.2,0.132964,0.080141,1.224380,0.001135,  44.735
   185.4,0.132803,0.080139,1.223219,0.001122,  44.827
   185.6,0.132584,0.080148,1.221723,0.001096,  44.911
   185.8,0.132455,0.080172,1.220845,0.001096,  45.026
   186.0,0.132348,0.080213,1.219939,0.001083,  45.103
   186.2,0.132251,0.080267,1.219004,0.001070,  45.193
   186.4,0.132158,0.080227,1.218293,0.001057,  45.284
   186.6,0.132075,0.080155,1.217415,0.001044,  45.384
   186.8,0.131997,0.080041,1.216379,0.001018,  45.488
   187.0,0.131939,0.079969,1.216183,0.001005,  45.565
   187.2,0.131836,0.079912,1.216504,0.000992,  45.650
   187.4,0.131725,0.079858,1.216652,0.000979,  45.723
   187.6,0.131610,0.079807,1.215624,0.000966,  45.819
   187.8,0.131485,0.079757,1.214266,0.000953,  45.918
   188.0,0.131352,0.079717,1.212083,0.000927,  45.985
   188.2,0.131217,0.079669,1.210378,0.000914,  46.078
   188.4,0.131084,0.079619,1.208674,0.000901,  46.142
   188.6,0.130941,0.079567,1.206790,0.000875,  46.230
   188.8,0.130799,0.079507,1.205094,0.000875,  46.323
   189.0,0.130659,0.079448,1.203584,0.000862,  46.380
   189.2,0.130506,0.079388,1.202253,0.000836,  46.453
   189.4,0.130360,0.079324,1.200740,0.000823,  46.522
   189.6,0.130217,0.079258,1.199233,0.000810,  46.603
   189.8,0.130061,0.079195,1.197737,0.000797,  46.680
   190.0,0.129918,0.079129,1.196241,0.000784,  46.735
   190.2,0.129793,0.079057,1.194415,0.000771,  46.805
   190.4,0.129669,0.078986,1.192608,0.000758,  46.867
   190.6,0.129572,0.078907,1.190978,0.000758,  46.926
   190.8,0.129441,0.078827,1.188880,0.000709,  46.963
   191.0,0.129306,0.078741,1.186798,0.000745,  47.008
   191.2,0.129164,0.078675,1.185023,0.000732,  47.062
   191.4,0.128990,0.078615,1.182930,0.000670,  47.121
   191.6,0.128815,0.078568,1.181005,0.000605,  47.168
   191.8,0.128609,0.078513,1.179594,0.000575,  47.225
   192.0,0.128414,0.078451,1.178352,0.000562,  47.271
   192.2,0.128225,0.078394,1.177138,0.000562,  47.320
   192.4,0.128030,0.078318,1.176096,0.000575,  47.382
   192.6,0.127868,0.078221,1.174515,0.000588,  47.426
   192.8,0.127729,0.078123,1.172772,0.000588,  47.500
   193.0,0.127597,0.078040,1.170539,0.000588,  47.526
   193.2,0.127456,0.077964,1.168675,0.000588,  47.590
   193.4,0.127335,0.077888,1.166830,0.000588,  47.633
   193.6,0.127204,0.077824,1.164699,0.000588,  47.686
   193.8,0.126985,0.077746,1.162554,0.000588,  47.742
   194.0,0.126737,0.077658,1.160268,0.000588,  47.786
   194.2,0.126443,0.077578,1.157994,0.000588,  47.828
   194.4,0.126221,0.077523,1.155582,0.000588,  47.860
   194.6,0.126026,0.077478,1.153040,0.000588,  47.913
   194.8,0.125843,0.077442,1.150211,0.000588,  47.961
   195.0,0.125646,0.077340,1.147853,0.000588,  47.983
   195.2,0.125465,0.077210,1.145368,0.000575,  48.034
   195.4,0.125275,0.077044,1.142764,0.000562,  48.060
   195.6,0.125109,0.076924,1.141008,0.000575,  48.094
   195.8,0.124954,0.076810,1.139542,0.000562,  48.149
   196.0,0.124817,0.076699,1.138514,0.000549,  48.168
   196.2,0.124697,0.076590,1.136344,0.000562,  48.195
   196.4,0.124500,0.076488,1.133757,0.000562,  48.224
   196.6,0.124285,0.076394,1.130625,0.000549,  48.261
   196.8,0.124060,0.076294,1.127931,0.000562,  48.300
   197.0,0.123849,0.076190,1.125393,0.000549,  48.312
   197.2,0.123649,0.076094,1.122592,0.000536,  48.334
   197.4,0.123438,0.075994,1.120097,0.000536,  48.370
   197.6,0.123241,0.075890,1.117490,0.000536,  48.386
   197.8,0.123055,0.075782,1.114912,0.000523,  48.414
   198.0,0.122865,0.075675,1.112355,0.000523,  48.431
   198.2,0.122675,0.075562,1.109684,0.000523,  48.454
   198.4,0.122486,0.075451,1.106780,0.000497,  48.483
   198.6,0.122297,0.075335,1.104381,0.000497,  48.512
   198.8,0.122112,0.075222,1.101850,0.000510,  48.542
   199.0,0.121923,0.075116,1.099454,0.000497,  48.562
   199.2,0.121734,0.075015,1.097070,0.000497,  48.587
   199.4,0.121545,0.074923,1.094445,0.000510,  48.581
   199.6,0.121349,0.074838,1.091694,0.000497,  48.588
   199.8,0.121153,0.074737,1.089101,0.000471,  48.605
   200.0,0.120933,0.074633,1.086675,0.000445,  48.614
   200.2,0.120700,0.074520,1.083881,0.000393,  48.627
   200.4,0.120448,0.074416,1.082093,0.000380,  48.636
   200.6,0.120194,0.074311,1.080684,0.000344,  48.652
   200.8,0.119940,0.074200,1.079658,0.000406,  48.663
   201.0,0.119669,0.074078,1.077510,0.000419,  48.679
   201.2,0.119450,0.073948,1.074632,0.000396,  48.695
   201.4,0.119245,0.073812,1.071537,0.000396,  48.713
   201.6,0.119060,0.073671,1.069195,0.000432,  48.723
   201.8,0.118862,0.073535,1.067110,0.000445,  48.732
   202.0,0.118657,0.073398,1.065157,0.000422,  48.739
   202.2,0.118469,0.073274,1.063468,0.000422,  48.750
   202.4,0.118216,0.073159,1.060928,0.000436,  48.761
   202.6,0.117925,0.073053,1.058163,0.000400,  48.768
   202.8,0.117613,0.072962,1.055070,0.000436,  48.778
   203.0,0.117353,0.072882,1.052099,0.000436,  48.784
   203.2,0.117097,0.072814,1.049149,0.000436,  48.789
   203.4,0.116862,0.072760,1.046102,0.000458,  48.799
   203.6,0.116620,0.072622,1.043192,0.000471,  48.822
   203.8,0.116375,0.072462,1.040416,0.000471,  48.829
   204.0,0.116143,0.072280,1.037772,0.000471,  48.834
   204.2,0.115898,0.072132,1.035479,0.000471,  48.844
   204.4,0.115646,0.071989,1.033436,0.000436,  48.851
   204.6,0.115398,0.071858,1.031516,0.000436,  48.854
   204.8,0.115181,0.071718,1.028931,0.000436,  48.853
   205.0,0.114974,0.071578,1.025916,0.000400,  48.863
   205.2,0.114795,0.071447,1.022486,0.000436,  48.870
   205.4,0.114626,0.071311,1.019632,0.000436,  48.875
   205.6,0.114379,0.071173,1.016693,0.000400,  48.880
   205.8,0.114124,0.071033,1.013659,0.000436,  48.883
   206.0,0.113849,0.070891,1.010099,0.000436,  48.890
   206.2,0.113606,0.070736,1.006092,0.000400,  48.889
   206.4,0.113366,0.070587,1.001758,0.000436,  48.897
   206.6,0.113139,0.070440,0.999033,0.000436,  48.902
   206.8,0.112906,0.070293,0.996883,0.000400,  48.908
   207.0,0.112670,0.070149,0.995182,0.000436,  48.911
   207.2,0.112443,0.070009,0.992849,0.000436,  48.920
   207.4,0.112207,0.069869,0.990443,0.000436,  48.938
   207.6,0.111958,0.069729,0.987648,0.000471,  48.971
   207.8,0.111718,0.069604,0.984984,0.000471,  48.952
   208.0,0.111476,0.069480,0.982247,0.000471,  48.947
   208.2,0.111230,0.069359,0.979345,0.000471,  48.945
   208.4,0.110991,0.069224,0.976544,0.000458,  48.945
   208.6,0.110718,0.069080,0.973860,0.000419,  48.946
   208.8,0.110425,0.068927,0.971099,0.000367,  48.950
   209.0,0.110129,0.068785,0.969222,0.000367,  48.954
   209.2,0.109839,0.068643,0.967645,0.000380,  48.954
   209.4,0.109540,0.068511,0.966570,0.000393,  48.955
   209.6,0.109251,0.068355,0.964229,0.000393,  48.958
   209.8,0.108989,0.068200,0.961223,0.000370,  48.961
   210.0,0.108735,0.068037,0.957868,0.000419,  48.961
   210.2,0.108507,0.067861,0.954776,0.000419,  48.961
   210.4,0.108260,0.067680,0.951361,0.000396,  48.963
   210.6,0.108002,0.067495,0.947818,0.000383,  48.967
   210.8,0.107755,0.067340,0.945242,0.000419,  48.971
   211.0,0.107457,0.067196,0.942848,0.000432,  48.973
   211.2,0.107126,0.067064,0.940984,0.000432,  48.973
   211.4,0.106784,0.066928,0.939299,0.000432,  48.971
   211.6,0.106487,0.066794,0.936544,0.000445,  48.975
   211.8,0.106190,0.066659,0.933362,0.000445,  48.974
   212.0,0.105920,0.066521,0.930107,0.000445,  48.977
   212.2,0.105636,0.066384,0.927243,0.000458,  48.976
   212.4,0.105344,0.066253,0.924492,0.000458,  48.981
   212.6,0.105064,0.066116,0.921764,0.000471,  48.985
   212.8,0.104778,0.065950,0.919238,0.000471,  48.986
   213.0,0.104486,0.065779,0.916740,0.000471,  48.990
   213.2,0.104203,0.065599,0.914428,0.000471,  48.992
   213.4,0.103914,0.065426,0.911676,0.000471,  48.991
   213.6,0.103613,0.065263,0.908602,0.000471,  48.992
   213.8,0.103324,0.065101,0.905369,0.000471,  48.994
   214.0,0.103069,0.064931,0.902423,0.000471,  48.995
   214.2,0.102835,0.064763,0.899419,0.000471,  48.993
   214.4,0.102617,0.064595,0.896530,0.000471,  48.997
   214.6,0.102426,0.064425,0.893725,0.000471,  48.999
   214.8,0.102169,0.064238,0.890932,0.000471,  49.003
   215.0,0.101902,0.064059,0.888156,0.000458,  49.004
   215.2,0.101634,0.063885,0.885329,0.000471,  49.007
   215.4,0.101370,0.063710,0.882527,0.000471,  49.010
   215.6,0.101110,0.063542,0.879504,0.000471,  49.013
   215.8,0.100843,0.063372,0.876570,0.000471,  49.026
   216.0,0.100574,0.063212,0.873660,0.000471,  49.033
   216.2,0.100294,0.063051,0.870609,0.000458,  49.043
   216.4,0.100011,0.062893,0.867733,0.000471,  49.026
   216.6,0.099732,0.062753,0.864805,0.000471,  49.026
   216.8,0.099452,0.062607,0.861897,0.000458,  49.021
   217.0,0.099167,0.062442,0.859078,0.000445,  49.020
   217.2,0.098868,0.062275,0.856208,0.000406,  49.023
   217.4,0.098550,0.062101,0.853288,0.000354,  49.025
   217.6,0.098228,0.061931,0.851200,0.000354,  49.026
   217.8,0.097910,0.061767,0.849485,0.000367,  49.026
   218.0,0.097579,0.061607,0.848079,0.000380,  49.029
   218.2,0.097252,0.061428,0.845501,0.000393,  49.033
   218.4,0.096961,0.061246,0.842354,0.000370,  49.034
   218.6,0.096671,0.061058,0.838802,0.000406,  49.035
   218.8,0.096410,0.060864,0.835853,0.000406,  49.036
   219.0,0.096116,0.060670,0.832852,0.000370,  49.034
   219.2,0.095823,0.060472,0.829943,0.000370,  49.040
   219.4,0.095526,0.060292,0.827335,0.000406,  49.037
   219.6,0.095204,0.060114,0.825011,0.000406,  49.038
   219.8,0.094882,0.059950,0.822857,0.000419,  49.039
   220.0,0.094540,0.059789,0.820840,0.000406,  49.035
   220.2,0.094218,0.059625,0.817923,0.000406,  49.037
   220.4,0.093906,0.059459,0.814684,0.000419,  49.044
   220.6,0.093591,0.059302,0.811197,0.000406,  49.045
   220.8,0.093280,0.059147,0.808110,0.000419,  49.049
   221.0,0.092966,0.058997,0.804996,0.000432,  49.047
   221.2,0.092661,0.058847,0.802002,0.000432,  49.044
   221.4,0.092354,0.058668,0.799425,0.000445,  49.043
   221.6,0.092044,0.058478,0.796977,0.000445,  49.045
   221.8,0.091740,0.058276,0.794661,0.000432,  49.048
   222.0,0.091430,0.058085,0.791908,0.000445,  49.049
   222.2,0.091120,0.057902,0.789037,0.000445,  49.050
   222.4,0.090801,0.057718,0.785941,0.000432,  49.045
   222.6,0.090485,0.057537,0.782833,0.000445,  49.046
   222.8,0.090173,0.057351,0.779696,0.000445,  49.049
   223.0,0.089854,0.057166,0.776419,0.000432,  49.048
   223.2,0.089597,0.056980,0.773329,0.000445,  49.044
   223.4,0.089370,0.056788,0.770329,0.000432,  49.050
   223.6,0.089172,0.056594,0.767344,0.000455,  49.052
   223.8,0.089007,0.056404,0.764581,0.000468,  49.048
   224.0,0.088741,0.056214,0.761933,0.000432,  49.046
   224.2,0.088459,0.056020,0.759403,0.000432,  49.053
   224.4,0.088154,0.055837,0.756786,0.000445,  49.056
   224.6,0.087863,0.055664,0.754005,0.000445,  49.068
   224.8,0.087562,0.055493,0.751194,0.000432,  49.085
   225.0,0.087268,0.055324,0.748465,0.000432,  49.074
   225.2,0.086978,0.055168,0.745637,0.000432,  49.064
   225.4,0.086677,0.055015,0.742787,0.000406,  49.065
   225.6,0.086387,0.054839,0.740065,0.000393,  49.066
   225.8,0.086068,0.054648,0.737314,0.000354,  49.065
   226.0,0.085730,0.054444,0.734530,0.000302,  49.066
   226.2,0.085392,0.054261,0.732481,0.000302,  49.067
   226.4,0.085064,0.054082,0.730723,0.000302,  49.068
   226.6,0.084730,0.053909,0.729254,0.000328,  49.062
   226.8,0.084415,0.053716,0.726620,0.000341,  49.046
   227.0,0.084107,0.053523,0.723504,0.000341,  49.042
   227.2,0.083803,0.053330,0.719975,0.000354,  49.045
   227.4,0.083521,0.053128,0.717014,0.000354,  49.042
   227.6,0.083223,0.052922,0.714032,0.000354,  49.042
   227.8,0.082919,0.052718,0.711190,0.000354,  49.045
   228.0,0.082625,0.052526,0.708330,0.000367,  49.040
   228.2,0.082312,0.052345,0.705424,0.000331,  49.037
   228.4,0.081986,0.052170,0.702543,0.000367,  49.035
   228.6,0.081658,0.051982,0.699541,0.000367,  49.029
   228.8,0.081339,0.051803,0.696357,0.000344,  49.029
   229.0,0.081020,0.051622,0.693053,0.000357,  49.031
   229.2,0.080705,0.051428,0.690534,0.000380,  49.028
   229.4,0.080393,0.051233,0.688284,0.000380,  49.031
   229.6,0.080076,0.051040,0.686351,0.000393,  49.023
   229.8,0.079761,0.050850,0.684680,0.000393,  49.017
   230.0,0.079441,0.050654,0.682342,0.000393,  49.017
   230.2,0.079107,0.050456,0.679815,0.000393,  49.011
   230.4,0.078772,0.050286,0.677147,0.000393,  49.015
   230.6,0.078458,0.050137,0.674464,0.000393,  49.012
   230.8,0.078151,0.050002,0.671600,0.000393,  49.004
   231.0,0.077847,0.049877,0.668669,0.000393,  49.005
   231.2,0.077538,0.049690,0.665850,0.000393,  48.997
   231.4,0.077228,0.049488,0.662958,0.000393,  49.000
   231.6,0.076916,0.049276,0.660085,0.000393,  49.001
   231.8,0.076635,0.049088,0.657273,0.000393,  48.999
   232.0,0.076364,0.048901,0.654485,0.000393,  49.000
   232.2,0.076103,0.048724,0.651721,0.000393,  48.998
   232.4,0.075864,0.048542,0.649044,0.000393,  48.995
   232.6,0.075640,0.048356,0.646378,0.000393,  48.991
   232.8,0.075423,0.048163,0.643721,0.000393,  49.001
   233.0,0.075238,0.047983,0.641041,0.000393,  49.006
   233.2,0.074967,0.047811,0.638286,0.000393,  49.021
   233.4,0.074679,0.047642,0.635553,0.000393,  49.021
   233.6,0.074374,0.047472,0.632877,0.000393,  49.000
   233.8,0.074086,0.047307,0.630179,0.000393,  48.986
   234.0,0.073798,0.047139,0.627542,0.000380,  48.986
   234.2,0.073507,0.046958,0.624970,0.000354,  48.982
   234.4,0.073191,0.046774,0.622388,0.000341,  48.980
   234.6,0.072862,0.046579,0.619827,0.000289,  48.987
   234.8,0.072522,0.046400,0.617754,0.000289,  48.982
   235.0,0.072203,0.046228,0.615950,0.000302,  48.984
   235.2,0.071892,0.046054,0.614332,0.000328,  48.982
   235.4,0.071583,0.045855,0.611789,0.000341,  48.976
   235.6,0.071287,0.045658,0.608909,0.000341,  48.978
   235.8,0.070994,0.045447,0.605702,0.000354,  48.979
   236.0,0.070711,0.045251,0.602992,0.000367,  48.982
   236.2,0.070419,0.045064,0.600299,0.000367,  48.987
   236.4,0.070121,0.044872,0.597629,0.000367,  48.981
   236.6,0.069823,0.044687,0.594892,0.000380,  48.983
   236.8,0.069513,0.044505,0.592144,0.000344,  48.980
   237.0,0.069196,0.044328,0.589337,0.000393,  48.972
   237.2,0.068878,0.044150,0.586496,0.000380,  48.978
   237.4,0.068574,0.043972,0.583565,0.000344,  48.974
   237.6,0.068268,0.043798,0.580620,0.000344,  48.983
   237.8,0.067974,0.043607,0.577961,0.000380,  48.981
   238.0,0.067675,0.043417,0.575312,0.000380,  48.981
   238.2,0.067369,0.043220,0.572802,0.000393,  48.985
   238.4,0.067070,0.043024,0.570613,0.000380,  48.983
   238.6,0.066768,0.042838,0.568661,0.000380,  48.989
   238.8,0.066453,0.042657,0.566957,0.000393,  48.986
   239.0,0.066149,0.042493,0.565439,0.000380,  48.988
   239.2,0.065854,0.042346,0.563133,0.000380,  48.983
   239.4,0.065552,0.042208,0.560584,0.000393,  48.983
   239.6,0.065263,0.042093,0.557861,0.000380,  48.973
   239.8,0.064972,0.041916,0.555294,0.000380,  48.983
   240.0,0.064671,0.041726,0.552673,0.000393,  48.983
   240.2,0.064373,0.041519,0.549981,0.000380,  48.979
   240.4,0.064101,0.041331,0.547479,0.000380,  48.980
   240.6,0.063837,0.041150,0.545033,0.000393,  48.978
   240.8,0.063583,0.040976,0.542596,0.000380,  48.978
   241.0,0.063317,0.040792,0.540001,0.000380,  48.976
   241.2,0.063045,0.040614,0.537362,0.000380,  48.976
   241.4,0.062774,0.040433,0.534607,0.000367,  48.979
   241.6,0.062542,0.040258,0.532126,0.000367,  48.990
   241.8,0.062328,0.040096,0.529729,0.000367,  49.014
   242.0,0.062135,0.039930,0.527374,0.000367,  49.003
   242.2,0.061962,0.039762,0.524945,0.000354,  48.977
   242.4,0.061708,0.039604,0.522500,0.000354,  48.970
   242.6,0.061444,0.039445,0.519971,0.000354,  48.966
   242.8,0.061152,0.039277,0.517624,0.000328,  48.967
   243.0,0.060863,0.039108,0.515323,0.000302,  48.963
   243.2,0.060562,0.038939,0.513069,0.000263,  48.968
   243.4,0.060259,0.038776,0.511194,0.000276,  48.964
   243.6,0.059967,0.038607,0.509491,0.000289,  48.970
   243.8,0.059676,0.038447,0.508009,0.000302,  48.966
   244.0,0.059391,0.038274,0.505719,0.000315,  48.959
   244.2,0.059113,0.038083,0.503046,0.000315,  48.948
   244.4,0.058834,0.037889,0.500131,0.000315,  48.945
   244.6,0.058562,0.037711,0.497678,0.000328,  48.954
   244.8,0.058287,0.037537,0.495299,0.000341,  48.951
   245.0,0.058002,0.037357,0.492965,0.000341,  48.951
   245.2,0.057725,0.037182,0.490481,0.000354,  48.949
   245.4,0.057441,0.037013,0.487979,0.000354,  48.947
   245.6,0.057148,0.036845,0.485369,0.000341,  48.946
   245.8,0.056865,0.036676,0.482845,0.000341,  48.946
   246.0,0.056588,0.036504,0.480309,0.000318,  48.953
   246.2,0.056302,0.036331,0.477743,0.000354,  48.950
   246.4,0.056032,0.036154,0.475382,0.000341,  48.952
   246.6,0.055761,0.035975,0.473089,0.000318,  48.954
   246.8,0.055484,0.035791,0.470865,0.000318,  48.955
   247.0,0.055224,0.035612,0.468608,0.000341,  48.953
   247.2,0.054951,0.035442,0.466374,0.000354,  48.957
   247.4,0.054668,0.035273,0.464128,0.000354,  48.961
   247.6,0.054393,0.035101,0.462209,0.000341,  48.961
   247.8,0.054124,0.034933,0.460469,0.000354,  48.965
   248.0,0.053852,0.034764,0.458886,0.000354,  48.977
   248.2,0.053586,0.034618,0.457483,0.000341,  48.977
   248.4,0.053320,0.034478,0.455348,0.000354,  48.984
   248.6,0.053051,0.034353,0.453027,0.000341,  48.983
   248.8,0.052782,0.034239,0.450553,0.000328,  48.983
   249.0,0.052541,0.034082,0.448317,0.000341,  48.987
   249.2,0.052305,0.033919,0.446057,0.000328,  48.985
   249.4,0.052085,0.033741,0.443814,0.000328,  48.988
   249.6,0.051847,0.033576,0.441548,0.000341,  48.990
   249.8,0.051596,0.033409,0.439253,0.000328,  48.997
   250.0,0.051344,0.033245,0.436913,0.000315,  48.999
   250.2,0.051100,0.033087,0.434654,0.000328,  49.011
   250.4,0.050853,0.032931,0.432390,0.000328,  49.029
   250.6,0.050609,0.032782,0.430151,0.000315,  49.017
   250.8,0.050401,0.032631,0.427933,0.000328,  49.004
   251.0,0.050211,0.032485,0.425732,0.000315,  48.996
   251.2,0.050042,0.032335,0.423509,0.000302,  49.002
   251.4,0.049888,0.032179,0.421451,0.000289,  49.004
   251.6,0.049639,0.032031,0.419464,0.000263,  49.006
   251.8,0.049376,0.031880,0.417590,0.000237,  49.002
   252.0,0.049083,0.031726,0.415854,0.000237,  49.006
   252.2,0.048822,0.031572,0.414267,0.000250,  49.005
   252.4,0.048556,0.031429,0.412761,0.000263,  48.996
   252.6,0.048302,0.031268,0.410753,0.000276,  49.005
   252.8,0.048048,0.031102,0.408545,0.000289,  49.008
   253.0,0.047791,0.030933,0.406114,0.000276,  49.009
   253.2,0.047547,0.030769,0.403956,0.000276,  49.012
   253.4,0.047305,0.030612,0.401836,0.000289,  49.009
   253.6,0.047064,0.030450,0.399752,0.000289,  49.013
   253.8,0.046832,0.030292,0.397599,0.000289,  49.009
   254.0,0.046587,0.030139,0.395367,0.000302,  49.013
   254.2,0.046331,0.029988,0.393100,0.000289,  49.007
   254.4,0.046075,0.029835,0.390903,0.000289,  49.011
   254.6,0.045831,0.029681,0.388723,0.000302,  49.012
   254.8,0.045584,0.029539,0.386534,0.000289,  49.009
   255.0,0.045350,0.029389,0.384426,0.000289,  49.013
   255.2,0.045104,0.029231,0.382373,0.000253,  49.011
   255.4,0.044855,0.029074,0.380336,0.000302,  49.010
   255.6,0.044606,0.028924,0.378170,0.000302,  49.011
   255.8,0.044366,0.028778,0.375907,0.000279,  49.011
   256.0,0.044129,0.028629,0.373583,0.000266,  49.011
   256.2,0.043892,0.028481,0.371864,0.000302,  49.012
   256.4,0.043658,0.028332,0.370418,0.000302,  49.015
   256.6,0.043425,0.028185,0.369209,0.000302,  49.009
   256.8,0.043194,0.028033,0.368262,0.000289,  49.015
   257.0,0.042958,0.027880,0.366448,0.000302,  49.017
   257.2,0.042716,0.027728,0.364467,0.000302,  49.018
   257.4,0.042471,0.027597,0.362319,0.000302,  49.020
   257.6,0.042261,0.027478,0.360171,0.000315,  49.017
   257.8,0.042069,0.027372,0.357931,0.000302,  49.017
   258.0,0.041885,0.027283,0.355562,0.000302,  49.017
   258.2,0.041679,0.027145,0.353630,0.000315,  49.021
   258.4,0.041457,0.026998,0.351859,0.000302,  49.021
   258.6,0.041236,0.026837,0.350235,0.000302,  49.031
   258.8,0.041027,0.026702,0.348466,0.000302,  49.052
   259.0,0.040812,0.026571,0.346710,0.000302,  49.056
   259.2,0.040609,0.026454,0.344972,0.000289,  49.041
   259.4,0.040426,0.026321,0.343206,0.000289,  49.033
   259.6,0.040246,0.026182,0.341424,0.000289,  49.035
   259.8,0.040096,0.026040,0.339609,0.000263,  49.031
   260.0,0.039948,0.025905,0.337928,0.000250,  49.033
   260.2,0.039739,0.025772,0.336287,0.000250,  49.036
   260.4,0.039522,0.025646,0.334705,0.000224,  49.036
   260.6,0.039287,0.025518,0.333138,0.000224,  49.038
   260.8,0.039064,0.025389,0.331596,0.000224,  49.037
   261.0,0.038845,0.025259,0.330081,0.000237,  49.038
   261.2,0.038617,0.025120,0.328330,0.000237,  49.044
   261.4,0.038397,0.024975,0.326487,0.000237,  49.047
   261.6,0.038181,0.024825,0.324491,0.000237,  49.048
   261.8,0.037971,0.024684,0.322696,0.000250,  49.048
   262.0,0.037763,0.024541,0.320987,0.000250,  49.045
   262.2,0.037555,0.024407,0.319278,0.000250,  49.044
   262.4,0.037369,0.024273,0.317402,0.000263,  49.046
   262.6,0.037161,0.024138,0.315453,0.000276,  49.046
   262.8,0.036953,0.024010,0.313433,0.000263,  49.046
   263.0,0.036743,0.023882,0.311603,0.000263,  49.044
   263.2,0.036533,0.023757,0.309754,0.000276,  49.044
   263.4,0.036329,0.023638,0.307967,0.000263,  49.047
   263.6,0.036120,0.023510,0.306063,0.000276,  49.045
   263.8,0.035904,0.023373,0.304080,0.000240,  49.048
   264.0,0.035692,0.023242,0.302041,0.000289,  49.052
   264.2,0.035474,0.023111,0.300399,0.000276,  49.047
   264.4,0.035271,0.022986,0.298892,0.000240,  49.050
   264.6,0.035064,0.022858,0.297526,0.000240,  49.052
   264.8,0.034870,0.022722,0.296179,0.000276,  49.048
   265.0,0.034663,0.022588,0.294946,0.000276,  49.055
   265.2,0.034466,0.022444,0.293749,0.000276,  49.053
   265.4,0.034266,0.022313,0.292664,0.000276,  49.060
   265.6,0.034059,0.022183,0.291188,0.000276,  49.059
   265.8,0.033860,0.022058,0.289607,0.000276,  49.061
   266.0,0.033654,0.021950,0.287910,0.000276,  49.066
   266.2,0.033476,0.021849,0.286148,0.000276,  49.066
   266.4,0.033323,0.021768,0.284330,0.000276,  49.071
   266.6,0.033178,0.021689,0.282404,0.000276,  49.065
   266.8,0.033000,0.021567,0.280775,0.000276,  49.066
   267.0,0.032824,0.021445,0.279248,0.000276,  49.070
   267.2,0.032639,0.021313,0.277807,0.000263,  49.082
   267.4,0.032457,0.021200,0.276248,0.000263,  49.087
   267.6,0.032271,0.021090,0.274674,0.000263,  49.091
   267.8,0.032093,0.020988,0.273091,0.000250,  49.092
   268.0,0.031936,0.020879,0.271549,0.000237,  49.090
   268.2,0.031785,0.020767,0.269986,0.000224,  49.072
   268.4,0.031658,0.020653,0.268449,0.000211,  49.072
   268.6,0.031538,0.020540,0.267109,0.000211,  49.072
   268.8,0.031364,0.020426,0.265837,0.000198,  49.068
   269.0,0.031189,0.020314,0.264672,0.000198,  49.073
   269.2,0.030996,0.020202,0.262941,0.000211,  49.070
   269.4,0.030812,0.020081,0.260949,0.000211,  49.069
   269.6,0.030621,0.019966,0.258736,0.000211,  49.068
   269.8,0.030440,0.019850,0.257250,0.000224,  49.069
   270.0,0.030253,0.019734,0.255986,0.000211,  49.076
   270.2,0.030060,0.019621,0.254954,0.000211,  49.078
   270.4,0.029879,0.019502,0.253600,0.000224,  49.075
   270.6,0.029704,0.019382,0.252219,0.000211,  49.076
   270.8,0.029530,0.019268,0.250792,0.000234,  49.074
   271.0,0.029373,0.019158,0.249352,0.000247,  49.076
   271.2,0.029206,0.019048,0.247903,0.000211,  49.073
   271.4,0.029037,0.018944,0.246423,0.000247,  49.078
   271.6,0.028874,0.018839,0.244959,0.000260,  49.078
   271.8,0.028704,0.018737,0.243519,0.000211,  49.079
   272.0,0.028536,0.018632,0.242028,0.000247,  49.080
   272.2,0.028367,0.018524,0.240634,0.000260,  49.078
   272.4,0.028195,0.018416,0.239268,0.000211,  49.085
   272.6,0.028020,0.018305,0.237925,0.000247,  49.088
   272.8,0.027851,0.018197,0.236609,0.000247,  49.088
   273.0,0.027681,0.018087,0.235310,0.000260,  49.090
   273.2,0.027509,0.017980,0.234008,0.000247,  49.091
   273.4,0.027349,0.017873,0.232657,0.000247,  49.104
   273.6,0.027186,0.017761,0.231280,0.000247,  49.104
   273.8,0.027016,0.017651,0.229896,0.000260,  49.111
   274.0,0.026857,0.017548,0.228752,0.000260,  49.108
   274.2,0.026694,0.017440,0.227718,0.000273,  49.108
   274.4,0.026519,0.017341,0.226774,0.000224,  49.116
   274.6,0.026360,0.017242,0.225939,0.000234,  49.116
   274.8,0.026222,0.017138,0.224373,0.000247,  49.117
   275.0,0.026095,0.017042,0.222564,0.000211,  49.116
   275.2,0.025983,0.016955,0.220531,0.000247,  49.116
   275.4,0.025840,0.016875,0.219176,0.000260,  49.118
   275.6,0.025688,0.016801,0.218048,0.000211,  49.124
   275.8,0.025523,0.016731,0.217122,0.000247,  49.130
   276.0,0.025374,0.016638,0.215948,0.000260,  49.132
   276.2,0.025226,0.016546,0.214727,0.000224,  49.134
   276.4,0.025078,0.016452,0.213446,0.000260,  49.129
   276.6,0.024929,0.016359,0.212196,0.000273,  49.122
   276.8,0.024772,0.016262,0.210962,0.000224,  49.120
   277.0,0.024621,0.016171,0.209668,0.000234,  49.116
   277.2,0.024492,0.016085,0.208593,0.000247,  49.115
   277.4,0.024371,0.015991,0.207595,0.000198,  49.117
   277.6,0.024268,0.015903,0.206695,0.000221,  49.113
   277.8,0.024171,0.015814,0.205589,0.000234,  49.113
   278.0,0.024027,0.015722,0.204402,0.000198,  49.111
   278.2,0.023877,0.015627,0.203158,0.000198,  49.109
   278.4,0.023713,0.015534,0.201774,0.000211,  49.111
   278.6,0.023562,0.015441,0.200274,0.000211,  49.107
   278.8,0.023402,0.015350,0.198698,0.000198,  49.110
   279.0,0.023252,0.015258,0.197479,0.000211,  49.108
   279.2,0.023113,0.015163,0.196382,0.000211,  49.107
   279.4,0.022973,0.015069,0.195434,0.000198,  49.106
   279.6,0.022848,0.014979,0.194343,0.000211,  49.103
   279.8,0.022715,0.014881,0.193205,0.000198,  49.105
   280.0,0.022575,0.014791,0.192050,0.000221,  49.106
   280.2,0.022447,0.014702,0.190882,0.000234,  49.100
   280.4,0.022311,0.014620,0.189706,0.000198,  49.101
   280.6,0.022171,0.014540,0.188491,0.000198,  49.104
   280.8,0.022044,0.014454,0.187348,0.000211,  49.101
   281.0,0.021908,0.014364,0.186263,0.000211,  49.103
   281.2,0.021763,0.014276,0.185190,0.000198,  49.097
   281.4,0.021633,0.014190,0.184135,0.000211,  49.101
   281.6,0.021500,0.014095,0.183095,0.000211,  49.097
   281.8,0.021357,0.014014,0.182058,0.000198,  49.094
   282.0,0.021225,0.013927,0.180966,0.000198,  49.101
   282.2,0.021092,0.013839,0.179824,0.000175,  49.101
   282.4,0.020958,0.013757,0.178661,0.000198,  49.104
   282.6,0.020829,0.013673,0.177581,0.000211,  49.102
   282.8,0.020699,0.013592,0.176529,0.000175,  49.098
   283.0,0.020571,0.013513,0.175479,0.000175,  49.105
   283.2,0.020447,0.013429,0.174564,0.000211,  49.108
   283.4,0.020341,0.013349,0.173722,0.000224,  49.104
   283.6,0.020247,0.013270,0.172941,0.000211,  49.103
   283.8,0.020164,0.013190,0.172239,0.000211,  49.107
   284.0,0.020051,0.013108,0.171193,0.000224,  49.109
   284.2,0.019923,0.013033,0.170058,0.000211,  49.113
   284.4,0.019782,0.012964,0.168840,0.000211,  49.121
   284.6,0.019658,0.012905,0.167821,0.000224,  49.123
   284.8,0.019536,0.012845,0.166839,0.000211,  49.119
   285.0,0.019415,0.012797,0.165892,0.000211,  49.112
   285.2,0.019290,0.012721,0.164849,0.000211,  49.107
   285.4,0.019169,0.012645,0.163760,0.000198,  49.109
   285.6,0.019045,0.012563,0.162618,0.000172,  49.101
   285.8,0.018926,0.012492,0.161774,0.000172,  49.106
   286.0,0.018807,0.012418,0.161033,0.000172,  49.102
   286.2,0.018689,0.012351,0.160414,0.000159,  49.104
   286.4,0.018587,0.012280,0.159544,0.000159,  49.107
   286.6,0.018490,0.012202,0.158583,0.000172,  49.112
   286.8,0.018402,0.012126,0.157563,0.000172,  49.116
   287.0,0.018326,0.012055,0.156618,0.000172,  49.109
   287.2,0.018212,0.011981,0.155630,0.000185,  49.118
   287.4,0.018100,0.011908,0.154665,0.000172,  49.115
   287.6,0.017976,0.011830,0.153712,0.000185,  49.109
   287.8,0.017863,0.011752,0.152730,0.000185,  49.115
   288.0,0.017746,0.011670,0.151763,0.000185,  49.109
   288.2,0.017645,0.011596,0.150703,0.000198,  49.113
   288.4,0.017538,0.011534,0.149613,0.000185,  49.114
   288.6,0.017421,0.011467,0.148462,0.000185,  49.109
   288.8,0.017323,0.011397,0.147499,0.000198,  49.114
   289.0,0.017213,0.011328,0.146592,0.000198,  49.113
   289.2,0.017086,0.011260,0.145764,0.000198,  49.113
   289.4,0.016965,0.011190,0.144850,0.000211,  49.113
   289.6,0.016858,0.011117,0.143915,0.000211,  49.111
   289.8,0.016748,0.011050,0.142985,0.000198,  49.106
   290.0,0.016644,0.010981,0.142126,0.000211,  49.107
   290.2,0.016539,0.010907,0.141292,0.000198,  49.103
   290.4,0.016435,0.010838,0.140486,0.000185,  49.105
   290.6,0.016334,0.010771,0.139641,0.000185,  49.100
   290.8,0.016229,0.010698,0.138792,0.000162,  49.106
   291.0,0.016125,0.010635,0.137935,0.000185,  49.102
   291.2,0.016018,0.010566,0.137080,0.000185,  49.103
   291.4,0.015917,0.010500,0.136202,0.000149,  49.098
   291.6,0.015806,0.010438,0.135340,0.000149,  49.105
   291.8,0.015699,0.010373,0.134619,0.000185,  49.099
   292.0,0.015614,0.010302,0.133987,0.000198,  49.098
   292.2,0.015534,0.010233,0.133433,0.000185,  49.096
   292.4,0.015475,0.010172,0.132945,0.000185,  49.102
   292.6,0.015381,0.010105,0.132163,0.000198,  49.097
   292.8,0.015274,0.010041,0.131303,0.000185,  49.102
   293.0,0.015168,0.009988,0.130346,0.000185,  49.110
   293.2,0.015064,0.009935,0.129269,0.000198,  49.115
   293.4,0.014956,0.009891,0.128079,0.000185,  49.109
   293.6,0.014859,0.009848,0.126790,0.000185,  49.097
   293.8,0.014766,0.009789,0.125983,0.000185,  49.092
   294.0,0.014669,0.009730,0.125346,0.000159,  49.093
   294.2,0.014583,0.009665,0.124890,0.000133,  49.089
   294.4,0.014487,0.009603,0.124163,0.000120,  49.082
   294.6,0.014388,0.009542,0.123369,0.000120,  49.068
   294.8,0.014293,0.009480,0.122523,0.000120,  49.066
   295.0,0.014198,0.009423,0.121845,0.000120,  49.065
   295.2,0.014096,0.009366,0.121191,0.000120,  49.063
   295.4,0.014007,0.009316,0.120595,0.000133,  49.064
   295.6,0.013925,0.009257,0.119930,0.000146,  49.064
   295.8,0.013842,0.009194,0.119251,0.000146,  49.061
   296.0,0.013780,0.009136,0.118544,0.000133,  49.051
   296.2,0.013715,0.009075,0.117527,0.000133,  49.058
   296.4,0.013626,0.009012,0.116363,0.000146,  49.059
   296.6,0.013543,0.008952,0.115020,0.000146,  49.055
   296.8,0.013453,0.008893,0.114082,0.000146,  49.049
   297.0,0.013366,0.008832,0.113258,0.000159,  49.046
   297.2,0.013269,0.008777,0.112554,0.000146,  49.042
   297.4,0.013180,0.008721,0.111754,0.000146,  49.043
   297.6,0.013090,0.008661,0.110969,0.000159,  49.043
   297.8,0.012994,0.008604,0.110185,0.000146,  49.037
   298.0,0.012911,0.008550,0.109631,0.000146,  49.041
   298.2,0.012824,0.008493,0.109193,0.000146,  49.034
   298.4,0.012739,0.008432,0.108859,0.000169,  49.033
   298.6,0.012664,0.008373,0.108346,0.000169,  49.026
   298.8,0.012583,0.008311,0.107798,0.000133,  49.023
   299.0,0.012496,0.008252,0.107190,0.000169,  49.026
   299.2,0.012420,0.008195,0.106583,0.000169,  49.017
   299.4,0.012342,0.008140,0.105969,0.000133,  49.017
   299.6,0.012251,0.008095,0.105329,0.000169,  49.012
   299.8,0.012176,0.008045,0.104689,0.000169,  49.011
   300.0,0.012094,0.007989,0.104030,0.000133,  49.007
   300.2,0.012001,0.007944,0.103359,0.000169,  49.008
   300.4,0.011920,0.007895,0.102694,0.000169,  49.001
   300.6,0.011853,0.007840,0.102031,0.000169,  48.996
   300.8,0.011786,0.007792,0.101348,0.000182,  48.992
   301.0,0.011732,0.007740,0.100688,0.000169,  48.995
   301.2,0.011659,0.007682,0.100048,0.000169,  48.987
   301.4,0.011577,0.007628,0.099415,0.000169,  48.993
   301.6,0.011490,0.007577,0.098843,0.000156,  49.009
   301.8,0.011414,0.007527,0.098317,0.000143,  49.017
   302.0,0.011333,0.007479,0.097831,0.000094,  49.002
   302.2,0.011254,0.007428,0.097383,0.000130,  48.983
   302.4,0.011181,0.007378,0.096827,0.000130,  48.972
   302.6,0.011107,0.007332,0.096219,0.000081,  48.967
   302.8,0.011036,0.007290,0.095598,0.000091,  48.952
   303.0,0.010966,0.007253,0.095095,0.000091,  48.945
   303.2,0.010892,0.007216,0.094606,0.000068,  48.941
   303.4,0.010828,0.007188,0.094142,0.000091,  48.946
   303.6,0.010757,0.007145,0.093609,0.000104,  48.946
   303.8,0.010682,0.007101,0.093046,0.000068,  48.941
   304.0,0.010612,0.007061,0.092438,0.000068,  48.941
   304.2,0.010542,0.007017,0.091810,0.000081,  48.939
   304.4,0.010462,0.006974,0.091163,0.000081,  48.939
   304.6,0.010392,0.006932,0.090498,0.000081,  48.940
   304.8,0.010324,0.006886,0.089885,0.000094,  48.940
   305.0,0.010250,0.006839,0.089286,0.000094,  48.935
   305.2,0.010189,0.006793,0.088726,0.000094,  48.938
   305.4,0.010132,0.006749,0.087966,0.000107,  48.940
   305.6,0.010074,0.006702,0.087104,0.000107,  48.935
   305.8,0.010035,0.006656,0.086158,0.000107,  48.937
   306.0,0.009991,0.006618,0.085519,0.000120,  48.939
   306.2,0.009923,0.006575,0.084984,0.000120,  48.936
   306.4,0.009859,0.006541,0.084553,0.000107,  48.938
   306.6,0.009790,0.006500,0.084096,0.000120,  48.935
   306.8,0.009722,0.006458,0.083659,0.000120,  48.934
   307.0,0.009657,0.006414,0.083248,0.000107,  48.934
   307.2,0.009602,0.006374,0.082375,0.000120,  48.936
   307.4,0.009537,0.006329,0.081306,0.000120,  48.931
   307.6,0.009466,0.006289,0.079992,0.000107,  48.942
   307.8,0.009407,0.006244,0.079458,0.000120,  48.939
   308.0,0.009348,0.006202,0.079209,0.000120,  48.941
   308.2,0.009282,0.006160,0.079221,0.000107,  48.941
   308.4,0.009229,0.006117,0.078878,0.000120,  48.944
   308.6,0.009170,0.006080,0.078490,0.000120,  48.947
   308.8,0.009096,0.006042,0.078064,0.000107,  48.947
   309.0,0.009026,0.005999,0.077645,0.000120,  48.950
   309.2,0.008972,0.005952,0.077195,0.000120,  48.950
   309.4,0.008920,0.005910,0.076732,0.000107,  48.950
   309.6,0.008875,0.005868,0.076308,0.000107,  48.958
   309.8,0.008821,0.005828,0.075878,0.000084,  48.961
   310.0,0.008757,0.005790,0.075455,0.000107,  48.973
   310.2,0.008695,0.005754,0.075013,0.000107,  48.986
   310.4,0.008636,0.005717,0.074552,0.000084,  49.016
   310.6,0.008573,0.005680,0.074086,0.000071,  48.993
   310.8,0.008518,0.005646,0.073657,0.000094,  48.985
   311.0,0.008464,0.005606,0.073254,0.000094,  48.984
   311.2,0.008403,0.005571,0.072850,0.000068,  48.982
   311.4,0.008356,0.005536,0.072471,0.000042,  48.984
   311.6,0.008299,0.005498,0.072168,0.000042,  48.984
   311.8,0.008236,0.005465,0.071902,0.000042,  48.990
   312.0,0.008181,0.005433,0.071668,0.000042,  48.994
   312.2,0.008118,0.005402,0.071248,0.000055,  48.995
   312.4,0.008064,0.005380,0.070754,0.000055,  48.992
   312.6,0.008010,0.005360,0.070174,0.000068,  48.997
   312.8,0.007952,0.005322,0.069687,0.000081,  49.002
   313.0,0.007908,0.005285,0.069183,0.000068,  49.001
   313.2,0.007854,0.005253,0.068649,0.000068,  49.003
   313.4,0.007803,0.005215,0.068189,0.000081,  49.004
   313.6,0.007752,0.005183,0.067748,0.000068,  49.007
   313.8,0.007707,0.005152,0.067331,0.000068,  49.007
   314.0,0.007664,0.005114,0.066860,0.000081,  49.007
   314.2,0.007620,0.005084,0.066353,0.000068,  49.004
   314.4,0.007591,0.005055,0.065834,0.000068,  49.008
   314.6,0.007559,0.005020,0.065376,0.000081,  49.007
   314.8,0.007507,0.004992,0.064932,0.000068,  49.009
   315.0,0.007462,0.004964,0.064482,0.000068,  49.008
   315.2,0.007415,0.004932,0.063862,0.000081,  49.010
   315.4,0.007364,0.004904,0.063127,0.000081,  49.002
   315.6,0.007316,0.004874,0.062303,0.000081,  49.009
   315.8,0.007265,0.004846,0.061911,0.000094,  49.011
   316.0,0.007216,0.004812,0.061693,0.000094,  49.007
   316.2,0.007165,0.004784,0.061633,0.000081,  49.011
   316.4,0.007117,0.004750,0.061332,0.000094,  49.016
   316.6,0.007071,0.004720,0.060994,0.000094,  49.015
   316.8,0.007020,0.004688,0.060590,0.000081,  49.018
   317.0,0.006972,0.004654,0.060253,0.000094,  49.014
   317.2,0.006924,0.004625,0.059946,0.000094,  49.015
   317.4,0.006870,0.004595,0.059621,0.000081,  49.014
   317.6,0.006816,0.004567,0.059261,0.000094,  49.014
   317.8,0.006773,0.004535,0.058888,0.000094,  49.018
   318.0,0.006733,0.004507,0.058486,0.000081,  49.016
   318.2,0.006695,0.004479,0.058109,0.000081,  49.012
   318.4,0.006652,0.004452,0.057731,0.000058,  49.022
   318.6,0.006609,0.004418,0.057342,0.000094,  49.032
   318.8,0.006567,0.004385,0.056954,0.000081,  49.047
   319.0,0.006524,0.004357,0.056560,0.000045,  49.052
   319.2,0.006483,0.004333,0.056154,0.000045,  49.033
   319.4,0.006443,0.004300,0.055820,0.000081,  49.026
   319.6,0.006406,0.004271,0.055528,0.000081,  49.024
   319.8,0.006359,0.004244,0.055266,0.000055,  49.021
   320.0,0.006319,0.004214,0.055046,0.000016,  49.024
   320.2,0.006278,0.004193,0.054820,0.000016,  49.023
   320.4,0.006232,0.004174,0.054612,0.000016,  49.026
   320.6,0.006195,0.004157,0.054446,0.000016,  49.029
   320.8,0.006158,0.004136,0.054125,0.000016,  49.030
   321.0,0.006115,0.004116,0.053752,0.000029,  49.030
   321.2,0.006079,0.004099,0.053301,0.000042,  49.030
   321.4,0.006041,0.004072,0.052922,0.000042,  49.025
   321.6,0.005998,0.004047,0.052561,0.000055,  49.029
   321.8,0.005958,0.004015,0.052188,0.000055,  49.030
   322.0,0.005923,0.003991,0.051834,0.000068,  49.031
   322.2,0.005886,0.003960,0.051480,0.000068,  49.033
   322.4,0.005848,0.003939,0.051126,0.000068,  49.033
   322.6,0.005811,0.003910,0.050808,0.000081,  49.027
   322.8,0.005773,0.003886,0.050478,0.000081,  49.031
   323.0,0.005728,0.003858,0.050171,0.000081,  49.035
   323.2,0.005693,0.003832,0.049871,0.000094,  49.029
   323.4,0.005657,0.003812,0.049571,0.000094,  49.032
   323.6,0.005630,0.003785,0.049289,0.000081,  49.025
   323.8,0.005606,0.003760,0.048768,0.000094,  49.028
   324.0,0.005562,0.003740,0.048125,0.000081,  49.022
   324.2,0.005531,0.003714,0.047368,0.000068,  49.023
   324.4,0.005492,0.003694,0.047058,0.000081,  49.023
   324.6,0.005455,0.003670,0.046888,0.000081,  49.027
   324.8,0.005417,0.003648,0.046886,0.000081,  49.024
   325.0,0.005380,0.003622,0.046676,0.000094,  49.027
   325.2,0.005345,0.003600,0.046448,0.000094,  49.023
   325.4,0.005301,0.003578,0.046191,0.000081,  49.024
   325.6,0.005264,0.003556,0.045940,0.000094,  49.032
   325.8,0.005220,0.003528,0.045689,0.000094,  49.025
   326.0,0.005179,0.003504,0.045416,0.000081,  49.030
   326.2,0.005134,0.003476,0.045142,0.000094,  49.033
   326.4,0.005093,0.003450,0.044875,0.000094,  49.028
   326.6,0.005067,0.003426,0.044579,0.000081,  49.026
   326.8,0.005038,0.003398,0.044317,0.000094,  49.027
   327.0,0.005006,0.003376,0.044085,0.000081,  49.039
   327.2,0.004974,0.003354,0.043841,0.000068,  49.048
   327.4,0.004948,0.003326,0.043402,0.000081,  49.058
   327.6,0.004916,0.003310,0.042865,0.000068,  49.053
   327.8,0.004883,0.003291,0.042221,0.000068,  49.043
   328.0,0.004860,0.003260,0.041921,0.000068,  49.037
   328.2,0.004830,0.003244,0.041736,0.000019,  49.038
   328.4,0.004801,0.003220,0.041671,0.000029,  49.045
   328.6,0.004778,0.003194,0.041520,0.000003,  49.038
   328.8,0.004749,0.003181,0.041393,-0.000033,  49.042
   329.0,0.004714,0.003164,0.041302,-0.000033,  49.047
   329.2,0.004682,0.003146,0.041140,0.000003,  49.044
   329.4,0.004653,0.003133,0.040967,0.000016,  49.042
   329.6,0.004621,0.003115,0.040777,0.000029,  49.046
   329.8,0.004589,0.003097,0.040558,0.000029,  49.047
   330.0,0.004562,0.003079,0.040190,0.000042,  49.053
   330.2,0.004532,0.003060,0.039772,0.000055,  49.048
   330.4,0.004503,0.003044,0.039280,0.000042,  49.051
   330.6,0.004476,0.003027,0.039005,0.000042,  49.054
   330.8,0.004447,0.003015,0.038809,0.000055,  49.055
   331.0,0.004418,0.003001,0.038694,0.000055,  49.056
   331.2,0.004391,0.002977,0.038487,0.000068,  49.059
   331.4,0.004362,0.002957,0.038269,0.000068,  49.058
   331.6,0.004332,0.002940,0.038023,0.000068,  49.065
   331.8,0.004306,0.002919,0.037856,0.000081,  49.067
   332.0,0.004282,0.002902,0.037706,0.000068,  49.066
   332.2,0.004252,0.002888,0.037568,0.000068,  49.066
   332.4,0.004228,0.002868,0.037209,0.000081,  49.063
   332.6,0.004195,0.002850,0.036749,0.000068,  49.066
   332.8,0.004168,0.002834,0.036189,0.000068,  49.066
   333.0,0.004144,0.002814,0.035995,0.000081,  49.069
   333.2,0.004116,0.002798,0.035913,0.000068,  49.071
   333.4,0.004104,0.002784,0.035949,0.000068,  49.069
   333.6,0.004083,0.002768,0.035772,0.000081,  49.076
   333.8,0.004052,0.002747,0.035550,0.000068,  49.076
   334.0,0.004035,0.002736,0.035267,0.000068,  49.080
   334.2,0.004008,0.002720,0.035045,0.000081,  49.075
   334.4,0.003976,0.002697,0.034835,0.000068,  49.079
   334.6,0.003939,0.002686,0.034631,0.000068,  49.076
   334.8,0.003908,0.002663,0.034454,0.000081,  49.079
   335.0,0.003879,0.002645,0.034261,0.000068,  49.075
   335.2,0.003849,0.002627,0.034085,0.000068,  49.074
   335.4,0.003823,0.002605,0.033893,0.000081,  49.074
   335.6,0.003799,0.002591,0.033677,0.000081,  49.082
   335.8,0.003777,0.002574,0.033451,0.000081,  49.090
   336.0,0.003759,0.002553,0.033253,0.000094,  49.101
   336.2,0.003740,0.002537,0.033066,0.000094,  49.094
   336.4,0.003712,0.002519,0.032896,0.000081,  49.080
   336.6,0.003688,0.002500,0.032681,0.000081,  49.071
   336.8,0.003670,0.002482,0.032455,0.000032,  49.075
   337.0,0.003642,0.002464,0.032230,0.000042,  49.075
   337.2,0.003627,0.002445,0.032117,0.000003,  49.073
   337.4,0.003603,0.002436,0.032050,-0.000033,  49.078
   337.6,0.003573,0.002427,0.032010,-0.000020,  49.077
   337.8,0.003550,0.002409,0.031856,0.000016,  49.079
   338.0,0.003526,0.002402,0.031674,0.000029,  49.081
   338.2,0.003495,0.002391,0.031453,0.000042,  49.079
   338.4,0.003478,0.002370,0.031262,0.000029,  49.078
   338.6,0.003459,0.002358,0.031070,0.000029,  49.081
   338.8,0.003429,0.002344,0.030886,0.000042,  49.088
   339.0,0.003411,0.002330,0.030679,0.000042,  49.087
   339.2,0.003393,0.002308,0.030488,0.000042,  49.089
   339.4,0.003365,0.002295,0.030296,0.000042,  49.088
   339.6,0.003350,0.002281,0.030088,0.000042,  49.085
   339.8,0.003322,0.002264,0.029902,0.000042,  49.085
   340.0,0.003298,0.002255,0.029728,0.000042,  49.091
   340.2,0.003277,0.002248,0.029560,0.000042,  49.092
   340.4,0.003252,0.002231,0.029153,0.000042,  49.095
   340.6,0.003234,0.002218,0.028632,0.000055,  49.092
   340.8,0.003213,0.002207,0.027984,0.000055,  49.091
   341.0,0.003185,0.002191,0.027772,0.000055,  49.095
   341.2,0.003173,0.002183,0.027709,0.000068,  49.098
   341.4,0.003149,0.002169,0.027811,0.000055,  49.095
   341.6,0.003124,0.002151,0.027736,0.000055,  49.100
   341.8,0.003115,0.002139,0.027640,0.000068,  49.102
   342.0,0.003099,0.002126,0.027550,0.000055,  49.102
   342.2,0.003083,0.002107,0.027437,0.000055,  49.104
   342.4,0.003060,0.002096,0.027275,0.000068,  49.108
   342.6,0.003047,0.002080,0.027108,0.000055,  49.102
   342.8,0.003037,0.002060,0.026945,0.000055,  49.104
   343.0,0.003008,0.002054,0.026773,0.000068,  49.110
   343.2,0.002989,0.002044,0.026579,0.000055,  49.106
   343.4,0.002966,0.002034,0.026438,0.000055,  49.103
   343.6,0.002945,0.002019,0.026354,0.000068,  49.108
   343.8,0.002925,0.002010,0.026258,0.000055,  49.105
   344.0,0.002905,0.001998,0.025740,0.000055,  49.105
   344.2,0.002885,0.001982,0.025033,0.000068,  49.114
   344.4,0.002868,0.001969,0.024104,0.000055,  49.123
   344.6,0.002861,0.001955,0.023916,0.000055,  49.138
   344.8,0.002851,0.001939,0.024012,0.000068,  49.130
   345.0,0.002837,0.001925,0.024347,0.000055,  49.124
   345.2,0.002822,0.001912,0.024360,0.000042,  49.118
   345.4,0.002808,0.001902,0.024352,0.000029,  49.121
   345.6,0.002795,0.001893,0.024318,-0.000010,  49.121
   345.8,0.002774,0.001880,0.024349,-0.000010,  49.121
   346.0,0.002758,0.001870,0.024392,-0.000010,  49.124
   346.2,0.002738,0.001863,0.024480,0.000003,  49.124
   346.4,0.002722,0.001851,0.024412,0.000016,  49.119
   346.6,0.002706,0.001847,0.024267,-0.000020,  49.121
   346.8,0.002684,0.001844,0.024062,0.000029,  49.120
   347.0,0.002671,0.001833,0.023912,0.000016,  49.121
   347.2,0.002655,0.001827,0.023763,-0.000007,  49.125
   347.4,0.002636,0.001815,0.023586,-0.000020,  49.125
   347.6,0.002626,0.001802,0.023426,0.000029,  49.119
   347.8,0.002613,0.001794,0.023282,0.000029,  49.120
   348.0,0.002593,0.001786,0.023133,0.000042,  49.117
   348.2,0.002589,0.001776,0.023016,0.000042,  49.118
   348.4,0.002576,0.001766,0.022933,0.000042,  49.112
   348.6,0.002548,0.001763,0.022861,0.000042,  49.099
   348.8,0.002536,0.001752,0.022816,0.000042,  49.100
   349.0,0.002520,0.001748,0.022699,0.000042,  49.101
   349.2,0.002497,0.001734,0.022556,0.000042,  49.095
   349.4,0.002485,0.001732,0.022396,0.000042,  49.098
   349.6,0.002472,0.001719,0.022259,0.000042,  49.099
   349.8,0.002452,0.001709,0.022093,0.000042,  49.097
   350.0,0.002443,0.001704,0.021923,0.000042,  49.096
   350.2,0.002430,0.001689,0.021813,0.000042,  49.100
   350.4,0.002410,0.001675,0.021718,0.000042,  49.102
   350.6,0.002400,0.001663,0.021629,0.000042,  49.101
   350.8,0.002387,0.001651,0.021513,0.000042,  49.095
   351.0,0.002365,0.001643,0.021359,0.000042,  49.095
   351.2,0.002352,0.001633,0.021206,0.000042,  49.101
   351.4,0.002334,0.001619,0.021107,0.000042,  49.096
   351.6,0.002309,0.001614,0.020991,0.000042,  49.095
   351.8,0.002294,0.001602,0.020903,0.000042,  49.093
   352.0,0.002270,0.001589,0.020685,0.000042,  49.095
   352.2,0.002248,0.001583,0.020397,0.000042,  49.097
   352.4,0.002226,0.001574,0.020056,0.000078,  49.091
   352.6,0.002210,0.001562,0.019919,0.000078,  49.101
   352.8,0.002191,0.001551,0.019842,0.000042,  49.109
   353.0,0.002189,0.001536,0.019851,0.000078,  49.113
   353.2,0.002179,0.001517,0.019778,0.000078,  49.115
   353.4,0.002164,0.001508,0.019711,0.000042,  49.119
   353.6,0.002163,0.001492,0.019627,0.000078,  49.116
   353.8,0.002155,0.001480,0.019554,0.000065,  49.115
   354.0,0.002143,0.001476,0.019493,0.000003,  49.113
   354.2,0.002139,0.001470,0.019400,0.000000,  49.100
   354.4,0.002126,0.001459,0.019388,0.000000,  49.097
   354.6,0.002111,0.001455,0.019419,-0.000036,  49.100
   354.8,0.002100,0.001452,0.019468,0.000013,  49.095
   355.0,0.002087,0.001439,0.019348,0.000026,  49.094
   355.2,0.002070,0.001433,0.019167,-0.000010,  49.098
   355.4,0.002059,0.001425,0.018912,0.000026,  49.097
   355.6,0.002053,0.001416,0.018769,0.000039,  49.097
   355.8,0.002036,0.001408,0.018643,0.000039,  49.102
   356.0,0.002025,0.001408,0.018550,0.000052,  49.100
   356.2,0.002018,0.001402,0.018489,0.000052,  49.098
   356.4,0.002001,0.001392,0.018448,0.000065,  49.097
   356.6,0.001985,0.001389,0.018429,0.000065,  49.098
   356.8,0.001973,0.001381,0.018308,0.000052,  49.097
   357.0,0.001953,0.001373,0.018146,0.000052,  49.100
   357.2,0.001946,0.001363,0.017931,0.000029,  49.097
   357.4,0.001942,0.001354,0.017636,0.000065,  49.100
   357.6,0.001925,0.001341,0.017271,0.000065,  49.098
   357.8,0.001918,0.001338,0.016832,0.000042,  49.098
   358.0,0.001908,0.001330,0.016318,0.000065,  49.101
   358.2,0.001893,0.001322,0.016241,0.000065,  49.101
   358.4,0.001889,0.001317,0.016303,0.000042,  49.102
   358.6,0.001876,0.001316,0.016498,0.000065,  49.099
   358.8,0.001862,0.001308,0.016384,0.000065,  49.100
   359.0,0.001860,0.001302,0.016180,0.000042,  49.103
   359.2,0.001849,0.001292,0.015891,0.000065,  49.106
   359.4,0.001832,0.001286,0.015867,0.000065,  49.106
   359.6,0.001831,0.001278,0.015950,0.000042,  49.101
   359.8,0.001823,0.001270,0.016123,0.000065,  49.105
   360.0,0.001798,0.001262,0.016159,0.000065,  49.107
   360.2,0.001780,0.001259,0.016139,0.000042,  49.107
   360.4,0.001754,0.001257,0.016127,0.000065,  49.104
   360.6,0.001738,0.001248,0.016131,0.000065,  49.103
   360.8,0.001721,0.001246,0.016102,0.000029,  49.111
   361.0,0.001710,0.001246,0.016079,0.000052,  49.109
   361.2,0.001711,0.001233,0.016061,0.000052,  49.108
   361.4,0.001697,0.001222,0.016032,0.000029,  49.122
   361.6,0.001692,0.001208,0.016003,0.000065,  49.137
   361.8,0.001689,0.001193,0.015704,0.000065,  49.136
   362.0,0.001677,0.001176,0.015266,0.000042,  49.127
   362.2,0.001669,0.001167,0.014686,0.000065,  49.126
   362.4,0.001665,0.001160,0.014589,0.000039,  49.123
   362.6,0.001653,0.001150,0.014667,-0.000010,  49.128
   362.8,0.001652,0.001149,0.014910,-0.000026,  49.131
   363.0,0.001648,0.001141,0.014972,-0.000039,  49.132
   363.2,0.001636,0.001135,0.015036,-0.000062,  49.130
   363.4,0.001635,0.001129,0.015096,-0.000026,  49.133
   363.6,0.001624,0.001121,0.015105,-0.000013,  49.131
   363.8,0.001609,0.001117,0.015070,-0.000036,  49.132
   364.0,0.001605,0.001113,0.015013,0.000000,  49.137
   364.2,0.001592,0.001105,0.014985,0.000013,  49.135
   364.4,0.001584,0.001100,0.014923,-0.000023,  49.138
   364.6,0.001576,0.001094,0.014868,0.000013,  49.138
   364.8,0.001572,0.001081,0.014776,0.000026,  49.140
   365.0,0.001564,0.001076,0.014636,-0.000010,  49.139
   365.2,0.001552,0.001074,0.014488,0.000026,  49.139
   365.4,0.001551,0.001067,0.014386,0.000026,  49.138
   365.6,0.001543,0.001061,0.014294,0.000026,  49.138
   365.8,0.001532,0.001062,0.014203,0.000026,  49.136
   366.0,0.001528,0.001061,0.014116,0.000026,  49.143
   366.2,0.001520,0.001056,0.014039,0.000039,  49.139
   366.4,0.001512,0.001055,0.013968,0.000039,  49.139
   366.6,0.001504,0.001051,0.013861,0.000039,  49.143
   366.8,0.001494,0.001047,0.013754,0.000052,  49.141
   367.0,0.001477,0.001043,0.013621,0.000016,  49.138
   367.2,0.001466,0.001037,0.013489,0.000016,  49.144
   367.4,0.001458,0.001030,0.013418,0.000029,  49.141
   367.6,0.001441,0.001026,0.013363,0.000029,  49.145
   367.8,0.001442,0.001020,0.013323,0.000016,  49.145
   368.0,0.001437,0.001014,0.013283,0.000016,  49.152
   368.2,0.001422,0.001009,0.013271,0.000029,  49.148
   368.4,0.001421,0.001004,0.013275,0.000029,  49.148
   368.6,0.001408,0.000998,0.013220,0.000029,  49.149
   368.8,0.001380,0.000998,0.013155,0.000029,  49.146
   369.0,0.001357,0.000990,0.013070,0.000052,  49.144
   369.2,0.001347,0.000986,0.012994,0.000052,  49.148
   369.4,0.001335,0.000980,0.012892,0.000016,  49.150
   369.6,0.001333,0.000977,0.012780,0.000052,  49.151
   369.8,0.001328,0.000966,0.012731,0.000052,  49.155
   370.0,0.001322,0.000961,0.012676,0.000016,  49.160
   370.2,0.001323,0.000941,0.012648,0.000052,  49.163
   370.4,0.001323,0.000927,0.012573,0.000052,  49.165
   370.6,0.001314,0.000921,0.012477,0.000016,  49.150
   370.8,0.001318,0.000911,0.012366,0.000052,  49.150
   371.0,0.001312,0.000905,0.012301,0.000026,  49.151
   371.2,0.001310,0.000905,0.012241,-0.000023,  49.148
   371.4,0.001300,0.000906,0.012209,-0.000026,  49.144
   371.6,0.001302,0.000906,0.012209,-0.000026,  49.142
   371.8,0.001296,0.000904,0.012213,-0.000062,  49.146
   372.0,0.001288,0.000907,0.012257,-0.000013,  49.146
   372.2,0.001287,0.000900,0.012213,0.000000,  49.144
   372.4,0.001282,0.000899,0.012116,-0.000036,  49.139
   372.6,0.001270,0.000900,0.011987,0.000000,  49.141
   372.8,0.001262,0.000893,0.011896,0.000013,  49.140
   373.0,0.001259,0.000890,0.011784,-0.000023,  49.147
   373.2,0.001254,0.000888,0.011677,0.000013,  49.144
   373.4,0.001252,0.000880,0.011602,0.000026,  49.145
   373.6,0.001247,0.000878,0.011559,-0.000023,  49.146
   373.8,0.001239,0.000874,0.011510,0.000013,  49.147
   374.0,0.001231,0.000868,0.011461,0.000026,  49.143
   374.2,0.001226,0.000864,0.011422,-0.000023,  49.144
   374.4,0.001218,0.000866,0.011379,0.000013,  49.149
   374.6,0.001207,0.000859,0.011320,0.000013,  49.146
   374.8,0.001202,0.000854,0.011249,0.000013,  49.149
   375.0,0.001190,0.000854,0.011175,0.000026,  49.147
   375.2,0.001182,0.000848,0.011115,0.000026,  49.147
   375.4,0.001177,0.000844,0.011071,0.000039,  49.149
   375.6,0.001163,0.000838,0.011033,0.000039,  49.149
   375.8,0.001161,0.000831,0.011005,0.000039,  49.151
   376.0,0.001156,0.000829,0.010987,0.000039,  49.151
   376.2,0.001144,0.000825,0.010964,0.000003,  49.151
   376.4,0.001143,0.000813,0.010963,0.000039,  49.150
   376.6,0.001137,0.000814,0.010934,0.000039,  49.150
   376.8,0.001126,0.000807,0.010902,0.000003,  49.150
   377.0,0.001119,0.000797,0.010859,0.000039,  49.150
   377.2,0.001103,0.000795,0.010779,0.000039,  49.147
   377.4,0.001078,0.000793,0.010657,0.000003,  49.144
   377.6,0.001060,0.000791,0.010516,0.000039,  49.144
   377.8,0.001050,0.000784,0.010430,0.000039,  49.143
   378.0,0.001033,0.000789,0.010361,0.000003,  49.142
   378.2,0.001037,0.000782,0.010291,0.000039,  49.144
   378.4,0.001037,0.000776,0.010247,0.000039,  49.145
   378.6,0.001028,0.000762,0.010220,0.000003,  49.153
   378.8,0.001034,0.000747,0.010203,0.000039,  49.161
   379.0,0.001037,0.000737,0.010165,0.000039,  49.153
   379.2,0.001028,0.000727,0.010122,0.000026,  49.139
   379.4,0.001031,0.000720,0.010074,0.000049,  49.139
   379.6,0.001029,0.000711,0.010042,0.000049,  49.145
   379.8,0.001022,0.000709,0.010021,-0.000013,  49.139
   380.0,0.001026,0.000716,0.009978,-0.000052,  49.142
   380.2,0.001021,0.000709,0.009936,-0.000039,  49.139
   380.4,0.001012,0.000712,0.009899,-0.000062,  49.141
   380.6,0.001015,0.000717,0.009842,-0.000013,  49.141
   380.8,0.001010,0.000713,0.009768,0.000000,  49.138
   381.0,0.001010,0.000713,0.009678,-0.000036,  49.137
   381.2,0.001001,0.000719,0.009555,0.000000,  49.140
   381.4,0.001008,0.000719,0.009507,0.000013,  49.141
   381.6,0.001008,0.000715,0.009490,-0.000023,  49.140
   381.8,0.000998,0.000719,0.009472,0.000013,  49.136
   382.0,0.001000,0.000714,0.009408,0.000026,  49.140
   382.2,0.000997,0.000716,0.009323,-0.000023,  49.136
   382.4,0.000988,0.000714,0.009213,0.000013,  49.138
   382.6,0.000989,0.000709,0.009144,0.000026,  49.130
   382.8,0.000986,0.000714,0.009070,-0.000010,  49.130
   383.0,0.000981,0.000712,0.008991,0.000026,  49.122
   383.2,0.000985,0.000705,0.008952,0.000039,  49.128
   383.4,0.000982,0.000710,0.008925,0.000003,  49.126
   383.6,0.000977,0.000710,0.008919,0.000039,  49.125
   383.8,0.000969,0.000705,0.008886,0.000039,  49.128
   384.0,0.000964,0.000701,0.008854,0.000003,  49.126
   384.2,0.000958,0.000693,0.008821,0.000039,  49.127
   384.4,0.000950,0.000689,0.008794,0.000039,  49.127
   384.6,0.000950,0.000689,0.008762,0.000052,  49.122
   384.8,0.000945,0.000685,0.008736,0.000039,  49.126
   385.0,0.000942,0.000679,0.008741,0.000039,  49.123
   385.2,0.000940,0.000673,0.008739,0.000039,  49.126
   385.4,0.000935,0.000672,0.008753,0.000039,  49.128
   385.6,0.000929,0.000672,0.008732,0.000039,  49.127
   385.8,0.000916,0.000668,0.008700,0.000052,  49.125
   386.0,0.000895,0.000665,0.008637,0.000016,  49.127
   386.2,0.000871,0.000661,0.008563,0.000052,  49.126
   386.4,0.000863,0.000657,0.008495,0.000065,  49.123
   386.6,0.000855,0.000652,0.008427,0.000029,  49.123
   386.8,0.000852,0.000646,0.008349,0.000052,  49.126
   387.0,0.000852,0.000642,0.008311,0.000052,  49.131
   387.2,0.000850,0.000634,0.008305,0.000016,  49.134
   387.4,0.000852,0.000626,0.008308,0.000052,  49.138
   387.6,0.000855,0.000620,0.008125,0.000052,  49.129
   387.8,0.000855,0.000605,0.007859,0.000016,  49.120
   388.0,0.000858,0.000600,0.007510,0.000052,  49.119
   388.2,0.000858,0.000591,0.007312,0.000026,  49.113
   388.4,0.000855,0.000590,0.007150,-0.000036,  49.116
   388.6,0.000850,0.000596,0.007008,-0.000039,  49.116
   388.8,0.000850,0.000595,0.007050,-0.000052,  49.114
   389.0,0.000847,0.000595,0.007207,-0.000075,  49.119
   389.2,0.000842,0.000600,0.007457,-0.000026,  49.111
   389.4,0.000839,0.000597,0.007518,-0.000013,  49.119
   389.6,0.000839,0.000601,0.007532,-0.000013,  49.111
   389.8,0.000837,0.000606,0.007509,0.000023,  49.112
   390.0,0.000840,0.000599,0.007540,0.000036,  49.118
   390.2,0.000834,0.000595,0.007539,0.000036,  49.118
   390.4,0.000838,0.000592,0.007537,0.000049,  49.117
   390.6,0.000838,0.000586,0.007629,0.000062,  49.116
   390.8,0.000840,0.000586,0.007758,0.000062,  49.116
   391.0,0.000829,0.000588,0.007922,0.000062,  49.117
   391.2,0.000830,0.000586,0.007899,0.000075,  49.115
   391.4,0.000830,0.000588,0.007821,0.000062,  49.113
   391.6,0.000821,0.000592,0.007676,0.000049,  49.115
   391.8,0.000818,0.000591,0.007644,0.000062,  49.117
   392.0,0.000815,0.000589,0.007627,0.000026,  49.123
   392.2,0.000813,0.000591,0.007636,0.000039,  49.121
   392.4,0.000810,0.000582,0.007401,0.000039,  49.116
   392.6,0.000807,0.000586,0.007047,0.000003,  49.120
   392.8,0.000802,0.000583,0.006574,0.000026,  49.121
   393.0,0.000800,0.000581,0.006500,0.000039,  49.120
   393.2,0.000800,0.000579,0.006588,0.000003,  49.117
   393.4,0.000794,0.000584,0.006796,0.000039,  49.123
   393.6,0.000789,0.000581,0.006826,0.000052,  49.125
   393.8,0.000786,0.000576,0.006831,0.000016,  49.122
   394.0,0.000781,0.000576,0.006816,0.000052,  49.124
   394.2,0.000782,0.000572,0.006665,0.000052,  49.122
   394.4,0.000766,0.000570,0.006419,0.000065,  49.124
   394.6,0.000739,0.000570,0.006108,0.000052,  49.126
   394.8,0.000719,0.000564,0.006137,0.000052,  49.131
   395.0,0.000711,0.000560,0.006318,0.000052,  49.130
   395.2,0.000702,0.000556,0.006623,0.000052,  49.128
   395.4,0.000708,0.000546,0.006716,0.000052,  49.128
   395.6,0.000711,0.000540,0.006772,0.000052,  49.134
   395.8,0.000710,0.000530,0.006772,0.000016,  49.138
   396.0,0.000721,0.000521,0.006746,0.000052,  49.144
   396.2,0.000724,0.000515,0.006746,0.000039,  49.132
   396.4,0.000720,0.000509,0.006710,0.000003,  49.127
   396.6,0.000727,0.000510,0.006662,0.000026,  49.132
   396.8,0.000729,0.000508,0.006688,0.000013,  49.128
   397.0,0.000725,0.000515,0.006719,-0.000049,  49.132
   397.2,0.000727,0.000520,0.006769,-0.000039,  49.125
   397.4,0.000727,0.000519,0.006753,-0.000026,  49.129
   397.6,0.000723,0.000521,0.006733,-0.000049,  49.127
   397.8,0.000727,0.000525,0.006693,0.000000,  49.132
   398.0,0.000727,0.000524,0.006661,0.000013,  49.132
   398.2,0.000723,0.000526,0.006634,-0.000010,  49.132
   398.4,0.000727,0.000528,0.006612,0.000039,  49.131
   398.6,0.000729,0.000525,0.006632,0.000039,  49.134
   398.8,0.000725,0.000527,0.006657,0.000003,  49.128
   399.0,0.000735,0.000521,0.006686,0.000039,  49.128
   399.2,0.000735,0.000521,0.006643,0.000039,  49.121
   399.4,0.000735,0.000521,0.006576,0.000003,  49.128
   399.6,0.000732,0.000519,0.006483,0.000039,  49.126
   399.8,0.000729,0.000519,0.006348,0.000039,  49.118
   400.0,0.000720,0.000523,0.006182,0.000003,  49.123
   400.2,0.000727,0.000528,0.005980,0.000039,  49.119
   400.4,0.000724,0.000523,0.005937,0.000052,  49.120
   400.6,0.000721,0.000528,0.005952,0.000029,  49.124
   400.8,0.000712,0.000528,0.006019,0.000065,  49.124
   401.0,0.000710,0.000521,0.006070,0.000078,  49.124
   401.2,0.000707,0.000524,0.006135,0.000078,  49.122
   401.4,0.000704,0.000522,0.006222,0.000088,  49.121
   401.6,0.000708,0.000517,0.006222,0.000088,  49.120
   401.8,0.000705,0.000522,0.006181,0.000088,  49.117
   402.0,0.000696,0.000524,0.006109,0.000088,  49.121
   402.2,0.000691,0.000519,0.006103,0.000088,  49.117
   402.4,0.000688,0.000522,0.006108,0.000088,  49.122
   402.6,0.000686,0.000521,0.006132,0.000088,  49.115
   402.8,0.000683,0.000516,0.006142,0.000088,  49.115
   403.0,0.000670,0.000513,0.006136,0.000052,  49.115
   403.2,0.000649,0.000511,0.006130,0.000052,  49.115
   403.4,0.000617,0.000508,0.006026,0.000016,  49.115
   403.6,0.000613,0.000504,0.005850,0.000052,  49.115
   403.8,0.000609,0.000500,0.005622,0.000016,  49.113
   404.0,0.000614,0.000492,0.005590,0.000052,  49.115
   404.2,0.000613,0.000483,0.005648,0.000052,  49.119
   404.4,0.000621,0.000477,0.005772,0.000052,  49.128
   404.6,0.000627,0.000466,0.005777,0.000052,  49.129
   404.8,0.000626,0.000458,0.005766,0.000052,  49.114
   405.0,0.000620,0.000446,0.005746,0.000016,  49.110
   405.2,0.000626,0.000446,0.005762,0.000052,  49.108
   405.4,0.000629,0.000444,0.005781,0.000026,  49.104
   405.6,0.000622,0.000456,0.005833,-0.000023,  49.107
   405.8,0.000622,0.000458,0.005868,-0.000026,  49.105
   406.0,0.000622,0.000459,0.005894,-0.000026,  49.106
   406.2,0.000622,0.000458,0.005926,-0.000049,  49.108
   406.4,0.000620,0.000458,0.005943,0.000000,  49.107
   406.6,0.000617,0.000455,0.005900,0.000013,  49.105
   406.8,0.000617,0.000462,0.005842,-0.000010,  49.101
   407.0,0.000620,0.000462,0.005742,0.000026,  49.100
   407.2,0.000622,0.000462,0.005715,0.000039,  49.086
   407.4,0.000625,0.000460,0.005724,0.000003,  49.089
   407.6,0.000625,0.000458,0.005749,0.000039,  49.086
   407.8,0.000625,0.000456,0.005747,0.000039,  49.082
   408.0,0.000625,0.000456,0.005758,0.000003,  49.083
   408.2,0.000620,0.000454,0.005731,0.000039,  49.081
   408.4,0.000617,0.000457,0.005714,0.000039,  49.078
   408.6,0.000617,0.000457,0.005703,0.000003,  49.084
   408.8,0.000608,0.000459,0.005677,0.000039,  49.087
   409.0,0.000612,0.000466,0.005693,0.000039,  49.090
   409.2,0.000605,0.000468,0.005702,0.000003,  49.085
   409.4,0.000602,0.000463,0.005716,0.000026,  49.088
   409.6,0.000602,0.000465,0.005518,0.000039,  49.085
   409.8,0.000602,0.000465,0.005213,0.000003,  49.084
   410.0,0.000593,0.000461,0.004784,0.000039,  49.088
   410.2,0.000595,0.000456,0.004752,0.000039,  49.084
   410.4,0.000592,0.000456,0.004849,0.000003,  49.087
   410.6,0.000583,0.000456,0.005081,0.000039,  49.088
   410.8,0.000584,0.000450,0.005163,0.000039,  49.089
   411.0,0.000584,0.000447,0.005230,0.000003,  49.088
   411.2,0.000572,0.000451,0.005265,0.000026,  49.088
   411.4,0.000579,0.000449,0.005300,0.000039,  49.087
   411.6,0.000563,0.000443,0.005326,0.000003,  49.090
   411.8,0.000527,0.000437,0.005321,0.000026,  49.090
   412.0,0.000497,0.000435,0.005311,0.000039,  49.091
   412.2,0.000489,0.000434,0.005279,0.000003,  49.093
   412.4,0.000489,0.000437,0.005233,0.000026,  49.091
   412.6,0.000503,0.000427,0.005212,0.000026,  49.096
   412.8,0.000506,0.000412,0.005212,0.000026,  49.106
   413.0,0.000514,0.000397,0.005212,0.000026,  49.130
   413.2,0.000524,0.000394,0.005226,0.000026,  49.131
   413.4,0.000530,0.000386,0.005261,0.000039,  49.119
   413.6,0.000532,0.000380,0.005306,0.000026,  49.114
   413.8,0.000538,0.000377,0.005315,0.000026,  49.110
   414.0,0.000543,0.000381,0.005320,0.000026,  49.113
   414.2,0.000543,0.000387,0.005309,-0.000023,  49.112
   414.4,0.000540,0.000389,0.005300,-0.000026,  49.114
   414.6,0.000543,0.000391,0.005311,-0.000013,  49.118
   414.8,0.000540,0.000392,0.005311,-0.000036,  49.120
   415.0,0.000538,0.000391,0.005322,0.000000,  49.114
   415.2,0.000540,0.000392,0.005300,0.000013,  49.120
   415.4,0.000543,0.000395,0.005258,-0.000023,  49.120
   415.6,0.000545,0.000399,0.005200,0.000013,  49.123
   415.8,0.000551,0.000402,0.005178,0.000026,  49.122
   416.0,0.000551,0.000401,0.005161,-0.000010,  49.125
   416.2,0.000557,0.000406,0.005161,0.000026,  49.124
   416.4,0.000557,0.000406,0.005129,0.000039,  49.124
   416.6,0.000551,0.000408,0.005097,0.000003,  49.128
   416.8,0.000555,0.000410,0.005067,0.000026,  49.127
   417.0,0.000552,0.000407,0.005000,0.000039,  49.128
   417.2,0.000545,0.000411,0.004923,0.000003,  49.131
   417.4,0.000552,0.000415,0.004841,0.000039,  49.130
   417.6,0.000549,0.000415,0.004835,0.000039,  49.139
   417.8,0.000555,0.000411,0.004855,0.000003,  49.139
   418.0,0.000545,0.000415,0.004917,0.000039,  49.136
   418.2,0.000545,0.000415,0.004911,0.000052,  49.143
   418.4,0.000542,0.000415,0.004889,0.000016,  49.146
   418.6,0.000539,0.000415,0.004855,0.000052,  49.143
   418.8,0.000545,0.000408,0.004808,0.000065,  49.149
   419.0,0.000548,0.000415,0.004745,0.000029,  49.150
   419.2,0.000545,0.000414,0.004679,0.000052,  49.158
   419.4,0.000549,0.000412,0.004379,0.000052,  49.158
   419.6,0.000549,0.000415,0.003978,0.000016,  49.156
   419.8,0.000540,0.000414,0.003437,0.000052,  49.163
   420.0,0.000541,0.000413,0.003405,0.000052,  49.168
   420.2,0.000525,0.000414,0.003591,0.000016,  49.164
   420.4,0.000493,0.000417,0.003967,0.000052,  49.167
   420.6,0.000462,0.000417,0.004064,0.000052,  49.172
   420.8,0.000454,0.000417,0.004136,0.000016,  49.167
   421.0,0.000450,0.000415,0.004183,0.000052,  49.173
   421.2,0.000458,0.000404,0.004261,0.000052,  49.178
   421.4,0.000461,0.000392,0.004312,0.000016,  49.186
   421.6,0.000469,0.000376,0.004364,0.000052,  49.194
   421.8,0.000477,0.000363,0.004430,0.000052,  49.192
   422.0,0.000479,0.000354,0.004501,0.000052,  49.187
   422.2,0.000485,0.000352,0.004568,0.000039,  49.182
   422.4,0.000487,0.000351,0.004624,0.000039,  49.188
   422.6,0.000493,0.000353,0.004670,0.000026,  49.187
   422.8,0.000493,0.000366,0.004721,0.000013,  49.185
   423.0,0.000490,0.000370,0.004721,0.000000,  49.186
   423.2,0.000493,0.000373,0.004706,0.000013,  49.190
   423.4,0.000486,0.000371,0.004661,-0.000023,  49.188
   423.6,0.000489,0.000370,0.004594,0.000013,  49.193
   423.8,0.000491,0.000377,0.004603,0.000026,  49.191
   424.0,0.000485,0.000377,0.004627,-0.000010,  49.198
   424.2,0.000494,0.000377,0.004673,0.000026,  49.197
   424.4,0.000497,0.000376,0.004682,0.000039,  49.196
   424.6,0.000490,0.000379,0.004681,0.000003,  49.198
   424.8,0.000497,0.000379,0.004691,0.000026,  49.195
   425.0,0.000497,0.000379,0.004649,0.000039,  49.198
   425.2,0.000490,0.000379,0.004597,0.000039,  49.200
   425.4,0.000494,0.000381,0.004526,0.000062,  49.197
   425.6,0.000491,0.000380,0.004500,0.000075,  49.198
   425.8,0.000482,0.000382,0.004464,0.000062,  49.202
   426.0,0.000486,0.000380,0.004434,0.000049,  49.198
   426.2,0.000486,0.000379,0.004434,0.000062,  49.202
   426.4,0.000480,0.000378,0.004434,0.000062,  49.200
   426.6,0.000481,0.000378,0.004438,0.000062,  49.204
   426.8,0.000478,0.000375,0.004143,0.000075,  49.207
   427.0,0.000474,0.000377,0.003700,0.000075,  49.205
   427.2,0.000478,0.000378,0.003114,0.000062,  49.210
   427.4,0.000478,0.000374,0.003108,0.000075,  49.206
   427.6,0.000472,0.000378,0.003303,0.000075,  49.207
   427.8,0.000475,0.000374,0.003720,0.000075,  49.205
   428.0,0.000470,0.000371,0.003853,0.000075,  49.210
   428.2,0.000468,0.000372,0.003924,0.000075,  49.206
   428.4,0.000458,0.000372,0.003965,0.000075,  49.207
   428.6,0.000462,0.000365,0.004025,0.000075,  49.208
   428.8,0.000446,0.000363,0.004092,0.000075,  49.209
   429.0,0.000411,0.000366,0.004133,0.000062,  49.205
   429.2,0.000378,0.000358,0.004168,0.000075,  49.211
   429.4,0.000372,0.000359,0.004187,0.000075,  49.210
   429.6,0.000371,0.000361,0.004208,0.000075,  49.202
   429.8,0.000393,0.000351,0.004249,0.000075,  49.212
   430.0,0.000401,0.000333,0.004284,0.000075,  49.214
   430.2,0.000400,0.000314,0.004331,0.000075,  49.218
   430.4,0.000415,0.000306,0.004336,0.000075,  49.231
   430.6,0.000423,0.000304,0.004331,0.000062,  49.223
   430.8,0.000428,0.000308,0.004284,0.000049,  49.220
   431.0,0.000437,0.000308,0.004278,0.000062,  49.221
   431.2,0.000442,0.000314,0.004290,0.000036,  49.220
   431.4,0.000448,0.000323,0.004296,0.000023,  49.219
   431.6,0.000450,0.000322,0.004281,0.000023,  49.220
   431.8,0.000446,0.000326,0.004251,0.000036,  49.220
   432.0,0.000446,0.000325,0.004189,0.000000,  49.220
   432.2,0.000440,0.000329,0.004152,0.000036,  49.220
   432.4,0.000443,0.000329,0.004127,0.000036,  49.225
   432.6,0.000448,0.000332,0.004084,0.000036,  49.221
   432.8,0.000457,0.000338,0.004089,0.000036,  49.219
   433.0,0.000462,0.000337,0.004119,0.000049,  49.224
   433.2,0.000456,0.000338,0.004154,0.000049,  49.222
   433.4,0.000460,0.000340,0.004221,0.000049,  49.226
   433.6,0.000460,0.000342,0.004225,0.000062,  49.217
   433.8,0.000453,0.000351,0.004210,0.000026,  49.221
   434.0,0.000457,0.000353,0.004168,0.000026,  49.213
   434.2,0.000457,0.000352,0.004172,0.000039,  49.202
   434.4,0.000448,0.000359,0.004189,0.000039,  49.202
   434.6,0.000449,0.000361,0.004200,0.000075,  49.198
   434.8,0.000446,0.000358,0.004178,0.000088,  49.199
   435.0,0.000440,0.000361,0.004127,0.000088,  49.198
   435.2,0.000446,0.000359,0.004071,0.000088,  49.199
   435.4,0.000444,0.000361,0.004075,0.000101,  49.193
   435.6,0.000438,0.000356,0.004095,0.000101,  49.197
   435.8,0.000442,0.000352,0.004136,0.000088,  49.197
   436.0,0.000445,0.000354,0.004110,0.000088,  49.197
   436.2,0.000442,0.000353,0.004065,0.000088,  49.194
   436.4,0.000442,0.000350,0.003994,0.000088,  49.191
   436.6,0.000442,0.000350,0.003967,0.000088,  49.191
   436.8,0.000433,0.000350,0.003977,0.000088,  49.191
   437.0,0.000433,0.000347,0.003992,0.000088,  49.188
   437.2,0.000430,0.000342,0.004001,0.000075,  49.185
   437.4,0.000405,0.000340,0.004032,0.000075,  49.186
   437.6,0.000386,0.000343,0.004068,0.000075,  49.185
   437.8,0.000354,0.000345,0.004053,0.000075,  49.182
   438.0,0.000346,0.000341,0.004023,0.000075,  49.181
   438.2,0.000345,0.000339,0.003967,0.000088,  49.186
   438.4,0.000362,0.000334,0.003992,0.000101,  49.189
   438.6,0.000367,0.000316,0.004038,0.000101,  49.194
   438.8,0.000366,0.000292,0.004113,0.000088,  49.198
   439.0,0.000378,0.000286,0.004123,0.000075,  49.192
   439.2,0.000383,0.000282,0.004123,0.000075,  49.181
   439.4,0.000379,0.000279,0.004107,0.000062,  49.177
   439.6,0.000388,0.000278,0.004107,0.000062,  49.174
   439.8,0.000391,0.000278,0.004107,0.000049,  49.174
   440.0,0.000384,0.000291,0.004109,0.000036,  49.173
   440.2,0.000393,0.000293,0.004135,0.000049,  49.176
   440.4,0.000399,0.000292,0.004150,0.000049,  49.171
   440.6,0.000392,0.000292,0.004165,0.000036,  49.177
   440.8,0.000401,0.000294,0.004113,0.000049,  49.173
   441.0,0.000398,0.000298,0.004011,0.000049,  49.174
   441.2,0.000400,0.000302,0.003862,0.000036,  49.179
   441.4,0.000398,0.000304,0.003867,0.000036,  49.175
   441.6,0.000388,0.000299,0.003902,0.000036,  49.174
   441.8,0.000395,0.000299,0.003982,0.000013,  49.172
   442.0,0.000392,0.000299,0.003970,0.000049,  49.168
   442.2,0.000383,0.000301,0.003944,0.000062,  49.170
   442.4,0.000387,0.000303,0.003882,0.000062,  49.173
   442.6,0.000387,0.000300,0.003769,0.000049,  49.165
   442.8,0.000380,0.000302,0.003624,0.000062,  49.171
   443.0,0.000382,0.000306,0.003444,0.000062,  49.173
   443.2,0.000374,0.000302,0.003217,0.000062,  49.175
   443.4,0.000371,0.000297,0.003211,0.000075,  49.171
   443.6,0.000368,0.000294,0.003252,0.000075,  49.173
   443.8,0.000370,0.000293,0.003361,0.000062,  49.176
   444.0,0.000370,0.000293,0.003453,0.000075,  49.175
   444.2,0.000358,0.000291,0.003529,0.000075,  49.173
   444.4,0.000364,0.000291,0.003625,0.000062,  49.177
   444.6,0.000364,0.000284,0.003656,0.000075,  49.174
   444.8,0.000358,0.000289,0.003650,0.000075,  49.174
   445.0,0.000362,0.000287,0.003615,0.000062,  49.179
   445.2,0.000359,0.000287,0.003640,0.000075,  49.173
   445.4,0.000350,0.000280,0.003660,0.000075,  49.174
   445.6,0.000351,0.000283,0.003690,0.000062,  49.172
   445.8,0.000338,0.000283,0.003680,0.000075,  49.169
   446.0,0.000316,0.000276,0.003644,0.000062,  49.173
   446.2,0.000301,0.000275,0.003592,0.000049,  49.166
   446.4,0.000274,0.000273,0.003411,0.000062,  49.169
   446.6,0.000265,0.000271,0.003159,0.000049,  49.169
   446.8,0.000277,0.000272,0.002840,0.000049,  49.176
   447.0,0.000288,0.000259,0.002738,0.000062,  49.179
   447.2,0.000296,0.000239,0.002703,0.000049,  49.185
   447.4,0.000294,0.000213,0.002735,0.000049,  49.189
   447.6,0.000306,0.000205,0.002780,0.000062,  49.179
   447.8,0.000311,0.000207,0.002877,0.000000,  49.170
   448.0,0.000314,0.000207,0.003003,-0.000013,  49.174
   448.2,0.000323,0.000205,0.003068,-0.000013,  49.168
   448.4,0.000326,0.000213,0.003145,-0.000049,  49.166
   448.6,0.000329,0.000215,0.003224,-0.000026,  49.173
   448.8,0.000331,0.000219,0.003269,-0.000013,  49.170
   449.0,0.000334,0.000223,0.003278,-0.000049,  49.172
   449.2,0.000334,0.000232,0.003278,-0.000013,  49.170
   449.4,0.000334,0.000236,0.003283,0.000000,  49.168
   449.6,0.000336,0.000231,0.003266,-0.000049,  49.169
   449.8,0.000333,0.000236,0.003240,-0.000013,  49.173
   450.0,0.000333,0.000241,0.003260,0.000000,  49.175
   450.2,0.000333,0.000241,0.003295,-0.000049,  49.171
   450.4,0.000326,0.000247,0.003340,-0.000013,  49.171
   450.6,0.000327,0.000251,0.003293,-0.000013,  49.173
   450.8,0.000325,0.000253,0.003216,0.000000,  49.176
   451.0,0.000318,0.000253,0.003115,0.000000,  49.176
   451.2,0.000327,0.000248,0.003115,0.000000,  49.170
   451.4,0.000327,0.000249,0.003145,0.000000,  49.174
   451.6,0.000321,0.000250,0.003195,0.000000,  49.176
   451.8,0.000327,0.000246,0.003056,0.000000,  49.181
   452.0,0.000327,0.000246,0.002820,0.000013,  49.176
   452.2,0.000325,0.000246,0.002497,-0.000023,  49.176
   452.4,0.000326,0.000246,0.002082,0.000000,  49.175
   452.6,0.000329,0.000246,0.002127,0.000013,  49.177
   452.8,0.000326,0.000246,0.002285,-0.000023,  49.177
   453.0,0.000323,0.000246,0.002587,0.000000,  49.175
   453.2,0.000323,0.000248,0.002679,0.000013,  49.175
   453.4,0.000323,0.000246,0.002726,0.000013,  49.181
   453.6,0.000327,0.000245,0.002726,0.000036,  49.177
   453.8,0.000327,0.000245,0.002767,0.000049,  49.175
   454.0,0.000318,0.000245,0.002792,0.000049,  49.179
   454.2,0.000319,0.000241,0.002818,0.000036,  49.176
   454.4,0.000306,0.000241,0.002848,0.000049,  49.178
   454.6,0.000281,0.000237,0.002874,0.000049,  49.179
   454.8,0.000261,0.000241,0.002894,0.000036,  49.176
   455.0,0.000261,0.000241,0.002930,0.000049,  49.176
   455.2,0.000260,0.000235,0.002939,0.000049,  49.178
   455.4,0.000282,0.000237,0.002960,0.000036,  49.178
   455.6,0.000285,0.000225,0.002970,0.000049,  49.186
   455.8,0.000293,0.000207,0.002954,0.000049,  49.193
   456.0,0.000286,0.000185,0.002939,0.000049,  49.194
   456.2,0.000286,0.000178,0.002913,0.000049,  49.183
   456.4,0.000285,0.000184,0.002872,0.000036,  49.177
   456.6,0.000288,0.000192,0.002827,0.000010,  49.181
   456.8,0.000299,0.000196,0.002827,0.000010,  49.177
   457.0,0.000305,0.000199,0.002844,0.000023,  49.176
   457.2,0.000305,0.000206,0.002880,0.000010,  49.173
   457.4,0.000305,0.000207,0.002900,0.000023,  49.168
   457.6,0.000307,0.000214,0.002915,-0.000013,  49.175
   457.8,0.000307,0.000218,0.002924,-0.000013,  49.172
   458.0,0.000314,0.000218,0.002948,0.000000,  49.171
   458.2,0.000317,0.000226,0.002983,-0.000049,  49.172
   458.4,0.000310,0.000230,0.003023,-0.000013,  49.169
   458.6,0.000317,0.000231,0.003002,0.000000,  49.169
   458.8,0.000319,0.000235,0.002945,-0.000049,  49.167
   459.0,0.000313,0.000233,0.002874,-0.000013,  49.166
   459.2,0.000319,0.000235,0.002863,0.000000,  49.163
   459.4,0.000319,0.000239,0.002863,-0.000036,  49.167
   459.6,0.000313,0.000242,0.002889,0.000000,  49.163
   459.8,0.000317,0.000235,0.002898,0.000000,  49.164
   460.0,0.000314,0.000243,0.002909,0.000000,  49.161
   460.2,0.000307,0.000245,0.002924,0.000013,  49.160
   460.4,0.000317,0.000239,0.002898,0.000013,  49.155
   460.6,0.000319,0.000239,0.002836,0.000026,  49.157
   460.8,0.000313,0.000238,0.002761,0.000026,  49.157
   461.0,0.000313,0.000235,0.002731,0.000013,  49.156
   461.2,0.000313,0.000237,0.002699,0.000026,  49.155
   461.4,0.000313,0.000236,0.002684,-0.000023,  49.153
   461.6,0.000310,0.000233,0.002684,0.000013,  49.149
   461.8,0.000307,0.000238,0.002699,0.000026,  49.144
   462.0,0.000307,0.000238,0.002708,-0.000023,  49.144
   462.2,0.000317,0.000239,0.002738,0.000013,  49.144
   462.4,0.000317,0.000243,0.002738,0.000026,  49.142
   462.6,0.000305,0.000243,0.002707,-0.000023,  49.139
   462.8,0.000299,0.000243,0.002671,0.000013,  49.140
   463.0,0.000292,0.000242,0.002686,0.000026,  49.136
   463.2,0.000276,0.000246,0.002716,-0.000023,  49.132
   463.4,0.000257,0.000241,0.002756,0.000013,  49.129
   463.6,0.000257,0.000236,0.002772,0.000026,  49.132
   463.8,0.000260,0.000238,0.002772,0.000013,  49.130
   464.0,0.000270,0.000242,0.002761,0.000036,  49.136
   464.2,0.000278,0.000225,0.002776,0.000049,  49.140
   464.4,0.000286,0.000209,0.002781,0.000049,  49.149
   464.6,0.000292,0.000182,0.002802,0.000049,  49.144
   464.8,0.000297,0.000178,0.002674,0.000062,  49.125
   465.0,0.000302,0.000182,0.002463,0.000036,  49.124
   465.2,0.000305,0.000198,0.002193,0.000023,  49.118
   465.4,0.000307,0.000204,0.002184,0.000036,  49.119
   465.6,0.000313,0.000210,0.002267,0.000023,  49.112
   465.8,0.000309,0.000212,0.002447,0.000023,  49.107
   466.0,0.000318,0.000220,0.002514,0.000036,  49.105
   466.2,0.000319,0.000225,0.002580,0.000023,  49.106
   466.4,0.000325,0.000233,0.002640,0.000023,  49.097
   466.6,0.000334,0.000244,0.002671,0.000036,  49.088
   466.8,0.000339,0.000246,0.002690,0.000036,  49.071
   467.0,0.000342,0.000249,0.002717,0.000049,  49.067
   467.2,0.000347,0.000255,0.002235,0.000062,  49.063
   467.4,0.000352,0.000261,0.001492,0.000049,  49.059
   467.6,0.000352,0.000260,0.000497,0.000049,  49.063
   467.8,0.000350,0.000264,0.000319,0.000075,  49.060
   468.0,0.000355,0.000270,0.000416,0.000075,  49.057
   468.2,0.000360,0.000278,0.000785,0.000088,  49.053
   468.4,0.000363,0.000287,0.001024,0.000101,  49.048
   468.6,0.000366,0.000289,0.001330,0.000065,  49.051
   468.8,0.000371,0.000289,0.001719,0.000052,  49.051
   469.0,0.000368,0.000286,0.001960,0.000052,  49.041
   469.2,0.000368,0.000287,0.002164,0.000029,  49.046
   469.4,0.000364,0.000291,0.002333,0.000065,  49.047
   469.6,0.000362,0.000288,0.002482,0.000065,  49.043
   469.8,0.000362,0.000288,0.002601,0.000078,  49.045
   470.0,0.000358,0.000296,0.002684,0.000065,  49.044
   470.2,0.000362,0.000296,0.002582,0.000065,  49.042
   470.4,0.000362,0.000295,0.002372,0.000078,  49.040
   470.6,0.000358,0.000297,0.002045,0.000065,  49.043
   470.8,0.000362,0.000299,0.002045,0.000065,  49.042
   471.0,0.000359,0.000298,0.002143,0.000065,  49.041
   471.2,0.000350,0.000300,0.002354,0.000042,  49.039
   471.4,0.000351,0.000297,0.002441,0.000065,  49.031
   471.6,0.000341,0.000297,0.002529,0.000065,  49.032
   471.8,0.000324,0.000293,0.002595,0.000065,  49.034
   472.0,0.000314,0.000291,0.002667,0.000088,  49.038
   472.2,0.000311,0.000291,0.002699,0.000088,  49.037
   472.4,0.000311,0.000288,0.002705,0.000088,  49.036
   472.6,0.000315,0.000280,0.002679,0.000088,  49.046
   472.8,0.000315,0.000275,0.002716,0.000088,  49.062
   473.0,0.000321,0.000256,0.002752,0.000101,  49.068
   473.2,0.000321,0.000241,0.002786,0.000101,  49.056
   473.4,0.000321,0.000239,0.002817,0.000088,  49.040
   473.6,0.000323,0.000239,0.002859,0.000088,  49.037
   473.8,0.000321,0.000241,0.002880,0.000062,  49.040
   474.0,0.000323,0.000243,0.002910,0.000062,  49.043
   474.2,0.000326,0.000247,0.002963,0.000026,  49.036
   474.4,0.000326,0.000254,0.003020,0.000026,  49.040
   474.6,0.000329,0.000261,0.002994,0.000039,  49.044
   474.8,0.000329,0.000257,0.002937,0.000003,  49.043
   475.0,0.000326,0.000255,0.002866,0.000026,  49.041
   475.2,0.000326,0.000261,0.002851,0.000039,  49.044
   475.4,0.000319,0.000261,0.002824,0.000026,  49.047
   475.6,0.000319,0.000259,0.002824,0.000049,  49.048
   475.8,0.000319,0.000258,0.002814,0.000062,  49.047
   476.0,0.000313,0.000257,0.002788,0.000026,  49.049
   476.2,0.000317,0.000256,0.002758,0.000026,  49.048
   476.4,0.000317,0.000251,0.002762,0.000039,  49.050
   476.6,0.000317,0.000255,0.002771,0.000003,  49.052
   476.8,0.000317,0.000255,0.002791,0.000026,  49.049
   477.0,0.000321,0.000257,0.002303,0.000039,  49.051
   477.2,0.000321,0.000257,0.001554,0.000003,  49.049
   477.4,0.000321,0.000260,0.000547,0.000039,  49.049
   477.6,0.000318,0.000262,0.000511,0.000039,  49.046
   477.8,0.000318,0.000258,0.000827,0.000003,  49.049
   478.0,0.000318,0.000258,0.001485,0.000039,  49.045
   478.2,0.000318,0.000261,0.001730,0.000052,  49.042
   478.4,0.000318,0.000258,0.001934,0.000016,  49.039
   478.6,0.000318,0.000255,0.002092,0.000052,  49.035
   478.8,0.000318,0.000255,0.002240,0.000065,  49.039
   479.0,0.000318,0.000248,0.002353,0.000029,  49.041
   479.2,0.000318,0.000245,0.002429,0.000052,  49.035
   479.4,0.000315,0.000246,0.002481,0.000052,  49.033
   479.6,0.000313,0.000241,0.002502,0.000052,  49.038
   479.8,0.000310,0.000252,0.002482,0.000052,  49.034
   480.0,0.000302,0.000252,0.002529,0.000052,  49.031
   480.2,0.000294,0.000251,0.002569,0.000052,  49.029
   480.4,0.000284,0.000248,0.002615,0.000039,  49.030
   480.6,0.000268,0.000245,0.002487,0.000039,  49.037
   480.8,0.000268,0.000245,0.002276,0.000039,  49.031
   481.0,0.000269,0.000245,0.001963,0.000003,  49.034
   481.2,0.000280,0.000230,0.001569,0.000052,  49.043
   481.4,0.000282,0.000211,0.001610,0.000052,  49.052
   481.6,0.000279,0.000196,0.001757,0.000016,  49.064
   481.8,0.000288,0.000192,0.002044,0.000039,  49.044
   482.0,0.000293,0.000187,0.002166,0.000026,  49.034
   482.2,0.000289,0.000193,0.002268,-0.000036,  49.039
   482.4,0.000296,0.000204,0.002356,-0.000013,  49.036
   482.6,0.000301,0.000207,0.002407,0.000000,  49.037
   482.8,0.000304,0.000210,0.002434,-0.000049,  49.037
   483.0,0.000319,0.000218,0.002441,-0.000013,  49.035
   483.2,0.000322,0.000224,0.002503,0.000000,  49.036
   483.4,0.000318,0.000221,0.002579,-0.000036,  49.038
   483.6,0.000318,0.000228,0.002665,0.000013,  49.038
   483.8,0.000318,0.000232,0.002716,0.000026,  49.039
   484.0,0.000321,0.000233,0.002735,-0.000023,  49.037
   484.2,0.000311,0.000244,0.002740,0.000013,  49.039
   484.4,0.000315,0.000245,0.002729,0.000026,  49.035
   484.6,0.000309,0.000243,0.002689,-0.000010,  49.042
   484.8,0.000309,0.000249,0.002627,0.000026,  49.042
   485.0,0.000315,0.000249,0.002595,0.000039,  49.041
   485.2,0.000315,0.000245,0.002586,0.000003,  49.044
   485.4,0.000318,0.000246,0.002567,0.000026,  49.040
   485.6,0.000315,0.000243,0.002536,0.000039,  49.050
   485.8,0.000315,0.000241,0.002500,0.000003,  49.048
   486.0,0.000315,0.000245,0.002455,0.000026,  49.051
   486.2,0.000313,0.000245,0.001999,0.000039,  49.058
   486.4,0.000310,0.000243,0.001327,0.000003,  49.056
   486.6,0.000310,0.000245,0.000460,0.000039,  49.054
   486.8,0.000310,0.000246,0.000479,0.000039,  49.060
   487.0,0.000307,0.000240,0.000835,0.000003,  49.063
   487.2,0.000305,0.000238,0.001541,0.000039,  49.066
   487.4,0.000305,0.000240,0.001796,0.000039,  49.068
   487.6,0.000307,0.000235,0.001990,0.000039,  49.071
   487.8,0.000302,0.000238,0.002118,0.000062,  49.068
   488.0,0.000299,0.000240,0.002250,0.000075,  49.072
   488.2,0.000297,0.000235,0.002353,0.000075,  49.077
   488.4,0.000289,0.000238,0.002429,0.000062,  49.073
   488.6,0.000278,0.000233,0.002521,0.000026,  49.081
   488.8,0.000270,0.000233,0.002588,0.000062,  49.076
   489.0,0.000260,0.000229,0.002650,-0.000010,  49.087
   489.2,0.000244,0.000227,0.002651,0.000026,  49.086
   489.4,0.000241,0.000225,0.002585,0.000039,  49.087
   489.6,0.000244,0.000224,0.002467,0.000026,  49.090
   489.8,0.000247,0.000212,0.002432,0.000026,  49.103
   490.0,0.000249,0.000190,0.002396,0.000039,  49.109
   490.2,0.000255,0.000170,0.002360,0.000003,  49.121
   490.4,0.000260,0.000166,0.002350,0.000026,  49.125
   490.6,0.000265,0.000164,0.002359,0.000039,  49.118
   490.8,0.000264,0.000178,0.002395,-0.000023,  49.104
   491.0,0.000267,0.000184,0.002446,-0.000013,  49.106
   491.2,0.000272,0.000184,0.002467,0.000000,  49.106
   491.4,0.000268,0.000190,0.002467,-0.000049,  49.106
   491.6,0.000272,0.000194,0.002467,-0.000013,  49.106
   491.8,0.000274,0.000196,0.002508,0.000000,  49.110
   492.0,0.000268,0.000202,0.002553,-0.000036,  49.103
   492.2,0.000272,0.000202,0.002603,0.000000,  49.109
   492.4,0.000274,0.000206,0.002612,0.000013,  49.111
   492.6,0.000268,0.000203,0.002616,-0.000023,  49.106
   492.8,0.000274,0.000210,0.002601,0.000013,  49.112
   493.0,0.000277,0.000213,0.002600,0.000026,  49.112
   493.2,0.000265,0.000208,0.002619,-0.000010,  49.114
   493.4,0.000269,0.000212,0.002635,0.000026,  49.111
   493.6,0.000269,0.000209,0.002609,0.000039,  49.110
   493.8,0.000265,0.000209,0.002553,0.000003,  49.113
   494.0,0.000272,0.000207,0.002476,0.000003,  49.112
   494.2,0.000272,0.000205,0.002472,0.000003,  49.113
   494.4,0.000265,0.000207,0.002461,0.000003,  49.113
   494.6,0.000274,0.000209,0.002472,0.000003,  49.121
   494.8,0.000286,0.000209,0.002451,0.000003,  49.120
   495.0,0.000286,0.000206,0.002410,0.000003,  49.115
   495.2,0.000280,0.000210,0.002354,0.000003,  49.117
   495.4,0.000280,0.000209,0.002323,0.000003,  49.117
   495.6,0.000280,0.000209,0.002297,0.000003,  49.113
   495.8,0.000273,0.000216,0.002271,0.000003,  49.116
   496.0,0.000280,0.000218,0.002286,0.000003,  49.118
   496.2,0.000280,0.000218,0.002332,0.000003,  49.121
   496.4,0.000273,0.000216,0.002402,0.000003,  49.116
   496.6,0.000280,0.000218,0.002413,0.000003,  49.120
   496.8,0.000277,0.000218,0.002402,0.000003,  49.123
   497.0,0.000268,0.000216,0.002377,0.000003,  49.118
   497.2,0.000267,0.000220,0.002356,0.000003,  49.121
   497.4,0.000261,0.000219,0.002330,0.000003,  49.120
   497.6,0.000247,0.000217,0.002285,0.000026,  49.126
   497.8,0.000237,0.000217,0.002279,0.000039,  49.138
   498.0,0.000235,0.000212,0.002294,0.000026,  49.136
   498.2,0.000231,0.000208,0.002326,0.000049,  49.138
   498.4,0.000240,0.000197,0.002140,0.000049,  49.145
   498.6,0.000243,0.000188,0.001859,0.000049,  49.150
   498.8,0.000236,0.000178,0.001486,0.000026,  49.152
   499.0,0.000245,0.000173,0.001497,0.000013,  49.144
   499.2,0.000248,0.000176,0.001640,0.000013,  49.140
   499.4,0.000244,0.000178,0.001921,0.000000,  49.135
   499.6,0.000256,0.000178,0.002019,-0.000026,  49.133
   499.8,0.000259,0.000182,0.002097,-0.000026,  49.134
   500.0,0.000261,0.000185,0.002133,-0.000049,  49.134
   500.2,0.000270,0.000187,0.002149,-0.000026,  49.131
   500.4,0.000273,0.000194,0.002175,-0.000026,  49.130
   500.6,0.000276,0.000191,0.002181,-0.000049,  49.127
   500.8,0.000273,0.000193,0.002166,-0.000026,  49.124
   501.0,0.000276,0.000199,0.002161,-0.000026,  49.124
   501.2,0.000276,0.000203,0.002125,-0.000013,  49.126
   501.4,0.000276,0.000211,0.002089,0.000010,  49.122
   501.6,0.000278,0.000215,0.002145,0.000059,  49.105
   501.8,0.000272,0.000213,0.002220,0.000059,  49.105
   502.0,0.000272,0.000209,0.002336,0.000059,  49.108
   502.2,0.000274,0.000211,0.002350,0.000072,  49.101
   502.4,0.000272,0.000207,0.002350,0.000072,  49.096
   502.6,0.000276,0.000205,0.002320,0.000036,  49.101
   502.8,0.000276,0.000208,0.002171,0.000013,  49.100
   503.0,0.000276,0.000204,0.001961,0.000013,  49.101
   503.2,0.000267,0.000201,0.001680,0.000049,  49.100
   503.4,0.000270,0.000203,0.001695,0.000062,  49.098
   503.6,0.000264,0.000202,0.001819,0.000013,  49.100
   503.8,0.000261,0.000206,0.002038,0.000013,  49.100
   504.0,0.000268,0.000203,0.002109,0.000026,  49.100
   504.2,0.000265,0.000203,0.002150,0.000013,  49.102
   504.4,0.000259,0.000208,0.002171,0.000049,  49.100
   504.6,0.000256,0.000210,0.002190,0.000062,  49.103
   504.8,0.000253,0.000205,0.002216,0.000013,  49.105
   505.0,0.000247,0.000202,0.002226,0.000013,  49.107
   505.2,0.000253,0.000200,0.002267,0.000026,  49.107
   505.4,0.000251,0.000196,0.002312,-0.000023,  49.108
   505.6,0.000234,0.000200,0.002378,0.000013,  49.114
   505.8,0.000227,0.000198,0.002394,0.000026,  49.110
   506.0,0.000219,0.000191,0.002377,-0.000023,  49.119
   506.2,0.000202,0.000196,0.002347,0.000013,  49.119
   506.4,0.000195,0.000198,0.002311,0.000026,  49.118
   506.6,0.000195,0.000191,0.002249,-0.000023,  49.122
   506.8,0.000191,0.000191,0.002162,0.000013,  49.129
   507.0,0.000203,0.000187,0.002145,0.000013,  49.153
   507.2,0.000210,0.000174,0.002160,0.000013,  49.160
   507.4,0.000217,0.000162,0.002201,0.000026,  49.159
   507.6,0.000229,0.000156,0.002220,0.000013,  49.155
   507.8,0.000230,0.000158,0.002240,0.000013,  49.151
   508.0,0.000243,0.000158,0.002276,0.000000,  49.149
   508.2,0.000244,0.000155,0.002333,-0.000039,  49.152
   508.4,0.000245,0.000159,0.002397,-0.000039,  49.152
   508.6,0.000244,0.000161,0.002454,-0.000075,  49.154
   508.8,0.000244,0.000160,0.002475,-0.000039,  49.155
   509.0,0.000249,0.000164,0.002475,-0.000039,  49.152
   509.2,0.000248,0.000171,0.002437,-0.000062,  49.155
   509.4,0.000248,0.000173,0.002391,-0.000026,  49.155
   509.6,0.000247,0.000180,0.002339,-0.000013,  49.160
   509.8,0.000252,0.000176,0.002241,-0.000049,  49.157
   510.0,0.000255,0.000183,0.002145,-0.000013,  49.163
   510.2,0.000254,0.000187,0.002092,0.000000,  49.166
   510.4,0.000263,0.000186,0.002067,-0.000036,  49.166
   510.6,0.000263,0.000192,0.002052,0.000013,  49.165
   510.8,0.000259,0.000194,0.002050,0.000026,  49.167
   511.0,0.000263,0.000194,0.002070,-0.000023,  49.163
   511.2,0.000263,0.000202,0.002110,0.000013,  49.167
   511.4,0.000265,0.000202,0.002089,0.000026,  49.167
   511.6,0.000263,0.000199,0.002059,-0.000023,  49.170
   511.8,0.000269,0.000201,0.002004,0.000013,  49.169
   512.0,0.000269,0.000200,0.001993,0.000026,  49.166
   512.2,0.000268,0.000208,0.001999,-0.000010,  49.168
   512.4,0.000274,0.000211,0.002014,0.000026,  49.170
   512.6,0.000277,0.000211,0.002044,0.000039,  49.165
   512.8,0.000271,0.000215,0.002091,0.000003,  49.166
   513.0,0.000277,0.000215,0.002142,0.000026,  49.169
   513.2,0.000277,0.000212,0.001978,0.000039,  49.167
   513.4,0.000280,0.000217,0.001707,0.000003,  49.172
   513.6,0.000271,0.000221,0.001320,0.000026,  49.165
   513.8,0.000272,0.000221,0.001341,0.000039,  49.165
   514.0,0.000267,0.000223,0.001483,0.000003,  49.169
   514.2,0.000249,0.000227,0.001781,0.000039,  49.170
   514.4,0.000240,0.000226,0.001832,0.000039,  49.171
   514.6,0.000232,0.000224,0.001838,0.000003,  49.171
   514.8,0.000218,0.000222,0.001788,0.000039,  49.169
   515.0,0.000214,0.000217,0.001820,0.000052,  49.168
   515.2,0.000214,0.000213,0.001856,0.000016,  49.167
   515.4,0.000210,0.000209,0.001892,0.000052,  49.170
   515.6,0.000222,0.000195,0.001939,0.000065,  49.172
   515.8,0.000224,0.000185,0.001990,0.000029,  49.183
   516.0,0.000220,0.000177,0.002025,0.000052,  49.182
   516.2,0.000230,0.000171,0.002086,0.000039,  49.166
   516.4,0.000235,0.000165,0.002142,-0.000023,  49.162
   516.6,0.000234,0.000174,0.002198,-0.000013,  49.161
   516.8,0.000243,0.000172,0.002198,-0.000026,  49.164
   517.0,0.000245,0.000171,0.002174,-0.000026,  49.162
   517.2,0.000248,0.000177,0.002125,-0.000013,  49.160
   517.4,0.000256,0.000179,0.002094,-0.000013,  49.161
   517.6,0.000258,0.000177,0.002068,0.000000,  49.159
   517.8,0.000252,0.000186,0.002026,0.000036,  49.157
   518.0,0.000252,0.000186,0.001882,0.000023,  49.156
   518.2,0.000255,0.000190,0.001671,0.000036,  49.159
   518.4,0.000257,0.000194,0.001416,0.000036,  49.158
   518.6,0.000260,0.000197,0.001384,0.000036,  49.160
   518.8,0.000262,0.000199,0.001429,0.000049,  49.161
   519.0,0.000256,0.000202,0.001568,0.000026,  49.163
   519.2,0.000256,0.000204,0.001776,0.000026,  49.162
   519.4,0.000256,0.000204,0.001817,0.000039,  49.158
   519.6,0.000249,0.000206,0.001822,0.000003,  49.160
   519.8,0.000256,0.000204,0.001823,0.000026,  49.163
   520.0,0.000256,0.000201,0.001823,0.000039,  49.165
   520.2,0.000249,0.000203,0.001817,0.000003,  49.163
   520.4,0.000256,0.000207,0.001813,0.000026,  49.162
   520.6,0.000259,0.000207,0.001849,0.000039,  49.166
   520.8,0.000252,0.000210,0.001879,0.000003,  49.165
   521.0,0.000259,0.000211,0.001919,0.000039,  49.165
   521.2,0.000261,0.000211,0.001766,0.000039,  49.163
   521.4,0.000257,0.000207,0.001521,0.000003,  49.167
   521.6,0.000261,0.000211,0.001158,0.000039,  49.160
   521.8,0.000261,0.000213,0.001152,0.000039,  49.165
   522.0,0.000257,0.000209,0.001290,0.000003,  49.163
   522.2,0.000264,0.000211,0.001541,0.000039,  49.162
   522.4,0.000261,0.000215,0.001622,0.000039,  49.163
   522.6,0.000249,0.000208,0.001688,0.000003,  49.161
   522.8,0.000251,0.000210,0.001734,0.000039,  49.155
   523.0,0.000237,0.000209,0.001816,0.000052,  49.163
   523.2,0.000220,0.000209,0.001897,0.000016,  49.158
   523.4,0.000214,0.000211,0.001999,0.000052,  49.156
   523.6,0.000207,0.000204,0.002040,0.000065,  49.150
   523.8,0.000207,0.000198,0.002040,0.000029,  49.154
   524.0,0.000212,0.000193,0.002020,0.000052,  49.162
   524.2,0.000220,0.000182,0.002050,0.000052,  49.167
   524.4,0.000225,0.000174,0.002080,0.000016,  49.176
   524.6,0.000222,0.000164,0.002138,0.000052,  49.163
   524.8,0.000222,0.000160,0.002142,0.000026,  49.156
   525.0,0.000227,0.000162,0.002121,-0.000036,  49.155
   525.2,0.000223,0.000166,0.002091,-0.000039,  49.152
   525.4,0.000235,0.000165,0.002127,-0.000052,  49.151
   525.6,0.000237,0.000174,0.002184,-0.000052,  49.150
   525.8,0.000231,0.000180,0.002278,-0.000003,  49.147
   526.0,0.000235,0.000179,0.002247,0.000010,  49.145
   526.2,0.000235,0.000185,0.002166,-0.000026,  49.143
   526.4,0.000228,0.000185,0.002034,-0.000013,  49.145
   526.6,0.000235,0.000185,0.002023,-0.000049,  49.146
   526.8,0.000235,0.000187,0.002032,0.000013,  49.142
   527.0,0.000231,0.000189,0.002073,-0.000036,  49.147
   527.2,0.000237,0.000189,0.002052,0.000000,  49.148
   527.4,0.000237,0.000186,0.001995,0.000013,  49.149
   527.6,0.000234,0.000188,0.001928,0.000013,  49.148
   527.8,0.000240,0.000188,0.001922,0.000026,  49.150
   528.0,0.000240,0.000188,0.001963,0.000039,  49.153
   528.2,0.000234,0.000188,0.001998,0.000003,  49.154
   528.4,0.000240,0.000188,0.002074,0.000026,  49.153
   528.6,0.000236,0.000186,0.002089,0.000039,  49.153
   528.8,0.000239,0.000186,0.002089,0.000003,  49.158
   529.0,0.000242,0.000186,0.002085,0.000026,  49.154
   529.2,0.000244,0.000190,0.002050,0.000039,  49.157
   529.4,0.000247,0.000185,0.001952,0.000003,  49.158
   529.6,0.000253,0.000191,0.001852,0.000026,  49.159
   529.8,0.000252,0.000190,0.001816,0.000039,  49.157
   530.0,0.000252,0.000187,0.001807,0.000003,  49.158
   530.2,0.000252,0.000187,0.001807,0.000026,  49.162
   530.4,0.000251,0.000187,0.001822,0.000039,  49.160
   530.6,0.000260,0.000191,0.001837,0.000003,  49.159
   530.8,0.000263,0.000197,0.001862,0.000026,  49.161
   531.0,0.000251,0.000194,0.001852,0.000039,  49.163
   531.2,0.000238,0.000198,0.001822,0.000003,  49.156
   531.4,0.000222,0.000207,0.001761,0.000026,  49.158
   531.6,0.000214,0.000206,0.001776,0.000039,  49.161
   531.8,0.000209,0.000210,0.001822,0.000003,  49.159
   532.0,0.000206,0.000217,0.001877,0.000026,  49.160
   532.2,0.000203,0.000212,0.001918,0.000039,  49.157
   532.4,0.000206,0.000212,0.001954,0.000003,  49.162
   532.6,0.000209,0.000210,0.001984,0.000026,  49.164
   532.8,0.000214,0.000203,0.001989,0.000039,  49.176
   533.0,0.000213,0.000197,0.001984,-0.000010,  49.180
   533.2,0.000215,0.000185,0.001964,0.000013,  49.159
   533.4,0.000227,0.000183,0.001954,0.000013,  49.157
   533.6,0.000226,0.000183,0.001954,-0.000062,  49.159
   533.8,0.000229,0.000189,0.001970,-0.000065,  49.149
   534.0,0.000235,0.000185,0.002038,-0.000065,  49.153
   534.2,0.000231,0.000187,0.002125,-0.000065,  49.153
   534.4,0.000229,0.000193,0.002234,-0.000029,  49.152
   534.6,0.000232,0.000190,0.002265,-0.000029,  49.155
   534.8,0.000226,0.000192,0.002255,-0.000003,  49.151
   535.0,0.000223,0.000197,0.002187,0.000010,  49.152
   535.2,0.000227,0.000194,0.002145,0.000023,  49.149
   535.4,0.000221,0.000192,0.002094,0.000036,  49.148
   535.6,0.000227,0.000195,0.002044,0.000036,  49.151
   535.8,0.000231,0.000193,0.002049,0.000036,  49.148
   536.0,0.000224,0.000187,0.002062,0.000049,  49.145
   536.2,0.000234,0.000190,0.002113,0.000013,  49.146
   536.4,0.000234,0.000184,0.002129,0.000049,  49.140
   536.6,0.000227,0.000179,0.002107,0.000062,  49.136
   536.8,0.000231,0.000181,0.002082,0.000062,  49.132
   537.0,0.000228,0.000180,0.002046,0.000049,  49.126
   537.2,0.000222,0.000178,0.001990,0.000062,  49.130
   537.4,0.000228,0.000177,0.001919,0.000049,  49.128
   537.6,0.000228,0.000181,0.001864,0.000049,  49.128
   537.8,0.000219,0.000179,0.001796,0.000062,  49.124
   538.0,0.000226,0.000177,0.001730,0.000049,  49.120
   538.2,0.000226,0.000175,0.001658,0.000049,  49.105
   538.4,0.000217,0.000173,0.001692,0.000062,  49.105
   538.6,0.000223,0.000172,0.001773,0.000049,  49.100
   538.8,0.000226,0.000170,0.001879,0.000049,  49.097
   539.0,0.000219,0.000166,0.001877,0.000062,  49.097
   539.2,0.000223,0.000172,0.001858,0.000049,  49.092
   539.4,0.000220,0.000174,0.001787,0.000049,  49.092
   539.6,0.000209,0.000172,0.001802,0.000062,  49.094
   539.8,0.000202,0.000172,0.001826,0.000049,  49.088
   540.0,0.000183,0.000168,0.001892,0.000049,  49.085
   540.2,0.000169,0.000166,0.001892,0.000062,  49.081
   540.4,0.000166,0.000168,0.001856,0.000049,  49.082
   540.6,0.000158,0.000170,0.001790,0.000049,  49.080
   540.8,0.000152,0.000161,0.001743,0.000062,  49.077
   541.0,0.000154,0.000158,0.001692,0.000049,  49.079
   541.2,0.000166,0.000152,0.001632,0.000036,  49.092
   541.4,0.000169,0.000139,0.001652,0.000049,  49.104
   541.6,0.000174,0.000133,0.001722,0.000013,  49.102
   541.8,0.000177,0.000127,0.001829,0.000000,  49.085
   542.0,0.000182,0.000123,0.001808,-0.000013,  49.079
   542.2,0.000187,0.000122,0.001742,-0.000075,  49.078
   542.4,0.000190,0.000127,0.001641,-0.000078,  49.078
   542.6,0.000190,0.000128,0.001686,-0.000078,  49.078
   542.8,0.000186,0.000130,0.001795,-0.000101,  49.079
   543.0,0.000186,0.000130,0.001954,-0.000052,  49.076
   543.2,0.000189,0.000132,0.001601,-0.000039,  49.073
   543.4,0.000185,0.000136,0.001012,-0.000026,  49.074
   543.6,0.000192,0.000144,0.000196,-0.000003,  49.071
   543.8,0.000192,0.000144,0.000170,0.000010,  49.069
   544.0,0.000188,0.000146,0.000425,0.000010,  49.072
   544.2,0.000197,0.000147,0.000939,0.000023,  49.070
   544.4,0.000201,0.000144,0.001081,0.000023,  49.071
   544.6,0.000194,0.000146,0.001152,0.000010,  49.068
   544.8,0.000197,0.000150,0.001173,-0.000003,  49.064
   545.0,0.000203,0.000148,0.001254,-0.000003,  49.063
   545.2,0.000197,0.000150,0.001330,0.000010,  49.059
   545.4,0.000199,0.000154,0.001407,0.000010,  49.054
   545.6,0.000206,0.000150,0.001462,0.000010,  49.056
   545.8,0.000199,0.000153,0.001503,0.000023,  49.052
   546.0,0.000202,0.000162,0.001518,-0.000013,  49.049
   546.2,0.000206,0.000164,0.001518,0.000023,  49.045
   546.4,0.000199,0.000156,0.001513,0.000036,  49.047
   546.6,0.000199,0.000158,0.001468,0.000036,  49.047
   546.8,0.000203,0.000161,0.001464,0.000036,  49.048
   547.0,0.000197,0.000164,0.001459,0.000049,  49.044
   547.2,0.000197,0.000163,0.001455,0.000049,  49.039
   547.4,0.000203,0.000161,0.001459,0.000036,  49.034
   547.6,0.000197,0.000164,0.001495,0.000049,  49.033
   547.8,0.000197,0.000158,0.001515,0.000049,  49.031
   548.0,0.000203,0.000154,0.001566,0.000036,  49.030
   548.2,0.000189,0.000154,0.000982,0.000049,  49.026
   548.4,0.000176,0.000156,0.000151,0.000049,  49.023
   548.6,0.000164,0.000156,-0.000929,0.000036,  49.023
   548.8,0.000152,0.000151,-0.000954,0.000049,  49.020
   549.0,0.000149,0.000156,-0.000589,0.000036,  49.013
   549.2,0.000153,0.000156,0.000185,0.000023,  49.014
   549.4,0.000149,0.000148,0.000465,0.000023,  49.011
   549.6,0.000154,0.000151,0.000705,0.000023,  49.015
   549.8,0.000166,0.000148,0.000888,0.000010,  49.033
   550.0,0.000168,0.000141,0.001009,0.000023,  49.039
   550.2,0.000170,0.000135,0.001092,0.000023,  49.037
   550.4,0.000185,0.000125,0.001098,0.000023,  49.017
   550.6,0.000186,0.000120,0.001204,0.000010,  49.008
   550.8,0.000192,0.000125,0.001311,-0.000016,  48.991
   551.0,0.000201,0.000129,0.001455,-0.000055,  48.991
   551.2,0.000203,0.000129,0.001497,-0.000042,  48.991
   551.4,0.000203,0.000132,0.001488,-0.000042,  48.984
   551.6,0.000203,0.000140,0.001450,-0.000029,  48.984
   551.8,0.000201,0.000140,0.001431,-0.000016,  48.986
   552.0,0.000203,0.000145,0.001405,-0.000003,  48.984
   552.2,0.000203,0.000156,0.001374,-0.000003,  48.983
   552.4,0.000206,0.000155,0.001410,0.000010,  48.983
   552.6,0.000199,0.000154,0.001455,0.000010,  48.985
   552.8,0.000202,0.000161,0.001519,0.000023,  48.985
   553.0,0.000199,0.000160,0.001182,0.000036,  48.985
   553.2,0.000193,0.000161,0.000640,0.000036,  48.986
   553.4,0.000202,0.000160,-0.000103,0.000036,  48.981
   553.6,0.000206,0.000160,-0.000109,0.000049,  48.983
   553.8,0.000202,0.000160,0.000170,0.000013,  48.978
   554.0,0.000202,0.000160,0.000721,0.000000,  48.977
   554.2,0.000209,0.000167,0.000864,0.000013,  48.979
   554.4,0.000205,0.000165,0.000946,0.000000,  48.982
   554.6,0.000202,0.000168,0.000973,0.000023,  48.983
   554.8,0.000209,0.000168,0.001054,0.000036,  48.986
   555.0,0.000202,0.000170,0.001141,0.000036,  48.983
   555.2,0.000202,0.000166,0.001228,0.000036,  48.987
   555.4,0.000206,0.000162,0.001314,0.000000,  48.990
   555.6,0.000199,0.000166,0.001405,0.000036,  48.990
   555.8,0.000199,0.000164,0.001491,-0.000036,  48.989
   556.0,0.000203,0.000158,0.001547,0.000000,  48.985
   556.2,0.000197,0.000160,0.001587,0.000013,  48.989
   556.4,0.000197,0.000161,0.001629,0.000013,  48.992
   556.6,0.000201,0.000157,0.001629,0.000013,  48.995
   556.8,0.000184,0.000154,0.001589,0.000026,  48.993
   557.0,0.000177,0.000160,0.001512,-0.000023,  48.995
   557.2,0.000160,0.000157,0.001486,0.000013,  48.994
   557.4,0.000145,0.000156,0.001492,0.000026,  48.990
   557.6,0.000149,0.000158,0.001482,-0.000023,  48.996
   557.8,0.000146,0.000151,0.001492,0.000013,  49.000
   558.0,0.000142,0.000145,0.001017,0.000026,  49.002
   558.2,0.000154,0.000133,0.000338,-0.000023,  49.012
   558.4,0.000160,0.000127,-0.000534,0.000013,  49.023
   558.6,0.000161,0.000121,-0.000574,0.000026,  49.054
   558.8,0.000175,0.000117,-0.000314,-0.000023,  49.039
   559.0,0.000181,0.000115,0.000251,0.000013,  49.032
   559.2,0.000179,0.000112,0.000461,0.000000,  49.028
   559.4,0.000189,0.000116,0.000624,-0.000075,  49.033
   559.6,0.000191,0.000115,0.000757,-0.000078,  49.034
   559.8,0.000187,0.000117,0.000912,-0.000078,  49.032
   560.0,0.000194,0.000121,0.001035,-0.000101,  49.035
   560.2,0.000194,0.000126,0.001143,-0.000052,  49.041
   560.4,0.000190,0.000123,0.001224,-0.000039,  49.041
   560.6,0.000190,0.000128,0.001278,-0.000026,  49.047
   560.8,0.000190,0.000133,0.001329,-0.000003,  49.045
   561.0,0.000193,0.000134,0.001369,0.000010,  49.051
   561.2,0.000195,0.000140,0.001378,-0.000026,  49.052
   561.4,0.000198,0.000143,0.001393,-0.000013,  49.056
   561.6,0.000201,0.000147,0.001363,0.000000,  49.059
   561.8,0.000203,0.000149,0.001287,-0.000049,  49.058
   562.0,0.000203,0.000147,0.001185,-0.000013,  49.058
   562.2,0.000206,0.000153,0.001189,0.000000,  49.062
   562.4,0.000202,0.000155,0.001234,-0.000036,  49.065
   562.6,0.000205,0.000159,0.001315,0.000000,  49.071
   562.8,0.000211,0.000160,0.000905,0.000013,  49.074
   563.0,0.000207,0.000164,0.000242,-0.000023,  49.076
   563.2,0.000210,0.000168,-0.000649,0.000013,  49.080
   563.4,0.000219,0.000165,-0.000634,0.000026,  49.083
   563.6,0.000215,0.000163,-0.000308,-0.000023,  49.085
   563.8,0.000215,0.000164,0.000354,0.000013,  49.087
   564.0,0.000222,0.000167,0.000583,0.000026,  49.086
   564.2,0.000218,0.000172,0.000762,0.000000,  49.090
   564.4,0.000221,0.000179,0.000891,0.000023,  49.090
   564.6,0.000224,0.000181,0.001014,0.000036,  49.096
   564.8,0.000218,0.000181,0.001095,0.000036,  49.101
   565.0,0.000221,0.000183,0.001141,0.000049,  49.101
   565.2,0.000224,0.000182,0.001192,0.000013,  49.100
   565.4,0.000211,0.000184,0.001228,0.000049,  49.102
   565.6,0.000199,0.000186,0.001249,-0.000010,  49.103
   565.8,0.000190,0.000185,0.001270,0.000026,  49.103
   566.0,0.000184,0.000187,0.001281,0.000039,  49.103
   566.2,0.000175,0.000187,0.001276,0.000026,  49.107
   566.4,0.000187,0.000185,0.001287,0.000026,  49.110
   566.6,0.000195,0.000179,0.001312,0.000039,  49.112
   566.8,0.000196,0.000169,0.001323,0.000003,  49.116
   567.0,0.000207,0.000161,0.001338,0.000026,  49.127
   567.2,0.000217,0.000155,0.001363,0.000039,  49.134
   567.4,0.000216,0.000149,0.001399,0.000003,  49.124
   567.6,0.000222,0.000147,0.001429,0.000026,  49.119
   567.8,0.000223,0.000152,0.001461,0.000026,  49.115
   568.0,0.000226,0.000152,0.001482,-0.000036,  49.122
   568.2,0.000228,0.000165,0.001477,-0.000052,  49.119
   568.4,0.000224,0.000168,0.001489,-0.000052,  49.112
   568.6,0.000236,0.000172,0.001501,-0.000062,  49.114
   568.8,0.000236,0.000179,0.001498,-0.000026,  49.120
   569.0,0.000232,0.000181,0.001539,-0.000013,  49.117
   569.2,0.000238,0.000187,0.001578,-0.000036,  49.115
   569.4,0.000240,0.000189,0.001638,0.000000,  49.119
   569.6,0.000239,0.000191,0.001653,0.000013,  49.120
   569.8,0.000242,0.000193,0.001638,-0.000010,  49.128
   570.0,0.000251,0.000191,0.001608,0.000026,  49.121
   570.2,0.000254,0.000188,0.001465,0.000039,  49.125
   570.4,0.000256,0.000187,0.001251,0.000003,  49.126
   570.6,0.000256,0.000193,0.000960,0.000039,  49.120
   570.8,0.000256,0.000191,0.000930,0.000039,  49.117
   571.0,0.000261,0.000188,0.000987,0.000003,  49.117
   571.2,0.000264,0.000199,0.001131,0.000039,  49.122
   571.4,0.000269,0.000203,0.001192,0.000052,  49.126
   571.6,0.000266,0.000202,0.001248,0.000016,  49.126
   571.8,0.000272,0.000209,0.001299,0.000052,  49.129
   572.0,0.000276,0.000213,0.001365,0.000065,  49.131
   572.2,0.000267,0.000212,0.001426,0.000029,  49.135
   572.4,0.000273,0.000219,0.001494,0.000052,  49.142
   572.6,0.000273,0.000226,0.001581,0.000052,  49.137
   572.8,0.000264,0.000230,0.001662,0.000016,  49.145
   573.0,0.000271,0.000234,0.001743,0.000052,  49.164
   573.2,0.000271,0.000236,0.001805,0.000052,  49.162
   573.4,0.000267,0.000240,0.001846,0.000052,  49.167
   573.6,0.000264,0.000232,0.001871,0.000088,  49.166
   573.8,0.000261,0.000232,0.001852,0.000088,  49.172
   574.0,0.000247,0.000232,0.001781,0.000088,  49.168
   574.2,0.000229,0.000228,0.001686,0.000088,  49.168
   574.4,0.000214,0.000228,0.001697,0.000088,  49.171
   574.6,0.000205,0.000230,0.001727,0.000088,  49.172
   574.8,0.000202,0.000228,0.001810,0.000088,  49.171
   575.0,0.000211,0.000224,0.001850,0.000088,  49.175
   575.2,0.000210,0.000218,0.001891,0.000088,  49.175
   575.4,0.000215,0.000207,0.001937,0.000052,  49.172
   575.6,0.000224,0.000199,0.001952,0.000088,  49.180
   575.8,0.000223,0.000193,0.001936,0.000088,  49.189
   576.0,0.000229,0.000187,0.001927,0.000088,  49.179
   576.2,0.000235,0.000182,0.001937,0.000088,  49.178
   576.4,0.000231,0.000184,0.001952,0.000062,  49.176
   576.6,0.000231,0.000188,0.001978,0.000036,  49.178
   576.8,0.000238,0.000187,0.002014,-0.000003,  49.174
   577.0,0.000234,0.000193,0.002040,-0.000003,  49.177
   577.2,0.000231,0.000192,0.002067,-0.000026,  49.182
   577.4,0.000235,0.000189,0.002094,0.000000,  49.178
   577.6,0.000231,0.000191,0.002088,0.000013,  49.180
   577.8,0.000231,0.000191,0.002062,-0.000023,  49.180
   578.0,0.000235,0.000194,0.002026,0.000013,  49.180
   578.2,0.000231,0.000197,0.002005,0.000026,  49.184
   578.4,0.000231,0.000197,0.001969,0.000013,  49.179
   578.6,0.000235,0.000196,0.001939,0.000049,  49.181
   578.8,0.000231,0.000196,0.001933,0.000062,  49.180
   579.0,0.000231,0.000203,0.001937,0.000062,  49.176
   579.2,0.000235,0.000198,0.001942,0.000062,  49.180
   579.4,0.000235,0.000193,0.001906,0.000075,  49.181
   579.6,0.000238,0.000198,0.001846,0.000075,  49.178
   579.8,0.000238,0.000196,0.001754,0.000062,  49.179
   580.0,0.000238,0.000191,0.001769,0.000075,  49.174
   580.2,0.000240,0.000193,0.001814,0.000075,  49.175
   580.4,0.000240,0.000193,0.001885,0.000075,  49.181
   580.6,0.000243,0.000189,0.001706,0.000075,  49.176
   580.8,0.000236,0.000189,0.001404,0.000075,  49.173
   581.0,0.000236,0.000191,0.000997,0.000075,  49.172
   581.2,0.000243,0.000189,0.000931,0.000075,  49.174
   581.4,0.000239,0.000191,0.000972,0.000075,  49.169
   581.6,0.000239,0.000199,0.001135,0.000075,  49.169
   581.8,0.000246,0.000197,0.001207,0.000088,  49.171
   582.0,0.000242,0.000199,0.001273,0.000052,  49.169
   582.2,0.000242,0.000203,0.001344,0.000052,  49.167
   582.4,0.000246,0.000200,0.001414,0.000065,  49.171
   582.6,0.000226,0.000197,0.001495,0.000029,  49.173
   582.8,0.000207,0.000197,0.001583,0.000052,  49.172
   583.0,0.000187,0.000199,0.001628,0.000039,  49.171
   583.2,0.000176,0.000199,0.001668,0.000039,  49.174
   583.4,0.000176,0.000205,0.001700,0.000075,  49.172
   583.6,0.000187,0.000203,0.001725,0.000075,  49.172
   583.8,0.000186,0.000195,0.001736,0.000039,  49.176
   584.0,0.000198,0.000179,0.001730,0.000052,  49.178
   584.2,0.000207,0.000170,0.001719,0.000016,  49.179
   584.4,0.000210,0.000166,0.001710,0.000065,  49.189
   584.6,0.000219,0.000164,0.001670,0.000016,  49.183
   584.8,0.000220,0.000160,0.001649,0.000052,  49.173
   585.0,0.000223,0.000163,0.001640,0.000039,  49.177
   585.2,0.000222,0.000170,0.001620,0.000000,  49.170
   585.4,0.000224,0.000174,0.001656,-0.000039,  49.169
   585.6,0.000227,0.000178,0.001703,-0.000039,  49.165
   585.8,0.000223,0.000182,0.001773,-0.000075,  49.161
   586.0,0.000232,0.000184,0.001871,-0.000013,  49.165
   586.2,0.000235,0.000186,0.001891,0.000000,  49.163
   586.4,0.000231,0.000184,0.001880,-0.000036,  49.162
   586.6,0.000237,0.000189,0.001855,0.000013,  49.159
   586.8,0.000234,0.000189,0.001840,0.000026,  49.155
   587.0,0.000239,0.000189,0.001783,-0.000010,  49.154
   587.2,0.000236,0.000191,0.001727,0.000026,  49.151
   587.4,0.000230,0.000189,0.001727,0.000039,  49.148
   587.6,0.000236,0.000193,0.001737,0.000003,  49.145
   587.8,0.000234,0.000190,0.001763,0.000026,  49.143
   588.0,0.000227,0.000190,0.001470,0.000039,  49.139
   588.2,0.000234,0.000191,0.001041,0.000003,  49.143
   588.4,0.000234,0.000196,0.000474,0.000026,  49.140
   588.6,0.000227,0.000196,0.000468,0.000039,  49.137
   588.8,0.000234,0.000201,0.000682,0.000003,  49.136
   589.0,0.000234,0.000196,0.001107,0.000039,  49.125
   589.2,0.000234,0.000191,0.001224,0.000039,  49.124
   589.4,0.000227,0.000198,0.001296,0.000003,  49.118
   589.6,0.000227,0.000198,0.001296,0.000039,  49.112
   589.8,0.000234,0.000195,0.001372,0.000039,  49.115
   590.0,0.000227,0.000197,0.001453,0.000003,  49.119
   590.2,0.000230,0.000199,0.001541,0.000039,  49.114
   590.4,0.000232,0.000193,0.001617,0.000039,  49.116
   590.6,0.000226,0.000189,0.001677,0.000003,  49.114
   590.8,0.000223,0.000189,0.001722,0.000039,  49.113
   591.0,0.000227,0.000187,0.001737,0.000039,  49.114
   591.2,0.000210,0.000189,0.001733,0.000003,  49.112
   591.4,0.000192,0.000195,0.001692,0.000039,  49.118
   591.6,0.000174,0.000194,0.001692,0.000052,  49.121
   591.8,0.000162,0.000191,0.001692,0.000016,  49.118
   592.0,0.000168,0.000191,0.001703,0.000052,  49.116
   592.2,0.000176,0.000183,0.001728,0.000065,  49.113
   592.4,0.000174,0.000170,0.001748,0.000029,  49.116
   592.6,0.000192,0.000161,0.001768,0.000052,  49.122
   592.8,0.000199,0.000155,0.001742,0.000039,  49.135
   593.0,0.000198,0.000149,0.001701,0.000003,  49.144
   593.2,0.000214,0.000141,0.001631,0.000039,  49.132
   593.4,0.000220,0.000141,0.001471,0.000013,  49.114
   593.6,0.000217,0.000148,0.001267,-0.000049,  49.111
   593.8,0.000223,0.000158,0.001002,-0.000039,  49.115
   594.0,0.000226,0.000164,0.000976,-0.000052,  49.111
   594.2,0.000219,0.000165,0.001044,-0.000026,  49.113
   594.4,0.000223,0.000173,0.001215,-0.000026,  49.115
   594.6,0.000220,0.000181,0.001285,0.000000,  49.115
   594.8,0.000217,0.000179,0.001350,0.000013,  49.114
   595.0,0.000217,0.000181,0.001435,0.000013,  49.113
   595.2,0.000219,0.000183,0.001455,0.000013,  49.116
   595.4,0.000215,0.000181,0.001459,0.000026,  49.115
   595.6,0.000218,0.000175,0.001450,-0.000010,  49.118
   595.8,0.000227,0.000177,0.001405,0.000026,  49.115
   596.0,0.000223,0.000180,0.001456,0.000039,  49.116
   596.2,0.000226,0.000181,0.001522,0.000003,  49.111
   596.4,0.000230,0.000183,0.001593,0.000026,  49.111
   596.6,0.000226,0.000189,0.001589,0.000039,  49.112
   596.8,0.000231,0.000188,0.001522,0.000003,  49.109
   597.0,0.000243,0.000191,0.001426,0.000026,  49.110
   597.2,0.000236,0.000191,0.001426,0.000039,  49.109
   597.4,0.000236,0.000194,0.001431,0.000003,  49.111
   597.6,0.000243,0.000195,0.001461,0.000039,  49.111
   597.8,0.000239,0.000199,0.001476,0.000039,  49.102
   598.0,0.000242,0.000199,0.001491,0.000003,  49.106
   598.2,0.000248,0.000197,0.001507,0.000039,  49.106
   598.4,0.000244,0.000192,0.001507,0.000052,  49.107
   598.6,0.000244,0.000198,0.001497,0.000016,  49.103
   598.8,0.000246,0.000202,0.001488,0.000052,  49.105
   599.0,0.000248,0.000201,0.001488,0.000065,  49.105
   599.2,0.000248,0.000201,0.001471,0.000029,  49.105
   599.4,0.000251,0.000207,0.001467,0.000052,  49.101
   599.6,0.000251,0.000214,0.001492,0.000052,  49.101
   599.8,0.000240,0.000210,0.001544,0.000016,  49.101
   600.0,0.000219,0.000213,0.001616,0.000052,  49.102
   600.2,0.000190,0.000219,0.001616,0.000052,  49.104
   600.4,0.000181,0.000217,0.001601,0.000016,  49.104
   600.6,0.000184,0.000213,0.001560,0.000052,  49.099
   600.8,0.000201,0.000209,0.001575,0.000039,  49.104
   601.0,0.000199,0.000199,0.001605,0.000039,  49.104
   601.2,0.000207,0.000187,0.001641,0.000062,  49.112
   601.4,0.000219,0.000181,0.001656,0.000062,  49.121
   601.6,0.000215,0.000175,0.001677,0.000062,  49.116
   601.8,0.000218,0.000169,0.001694,0.000075,  49.101
   602.0,0.000227,0.000165,0.001698,0.000075,  49.100
   602.2,0.000223,0.000174,0.001700,0.000049,  49.096
   602.4,0.000223,0.000184,0.001701,0.000023,  49.096
   602.6,0.000227,0.000183,0.001697,0.000036,  49.097
   602.8,0.000221,0.000184,0.001667,0.000036,  49.096
   603.0,0.000221,0.000187,0.001643,0.000049,  49.097
   603.2,0.000227,0.000186,0.001622,0.000049,  49.093
   603.4,0.000223,0.000192,0.001590,0.000049,  49.096
   603.6,0.000232,0.000198,0.001559,0.000026,  49.090
   603.8,0.000242,0.000198,0.001604,0.000062,  49.091
   604.0,0.000235,0.000196,0.001670,0.000075,  49.097
   604.2,0.000242,0.000193,0.001772,0.000075,  49.096
   604.4,0.000236,0.000199,0.001802,0.000075,  49.099
   604.6,0.000230,0.000199,0.001792,0.000075,  49.101
   604.8,0.000239,0.000195,0.001766,0.000075,  49.099
   605.0,0.000236,0.000197,0.001755,0.000075,  49.103
   605.2,0.000230,0.000197,0.001728,0.000075,  49.099
   605.4,0.000239,0.000197,0.001719,0.000075,  49.105
   605.6,0.000236,0.000194,0.001683,0.000075,  49.104
   605.8,0.000230,0.000194,0.001677,0.000088,  49.104
   606.0,0.000236,0.000194,0.001677,0.000088,  49.106
   606.2,0.000234,0.000192,0.001692,0.000088,  49.111
   606.4,0.000230,0.000192,0.001722,0.000088,  49.110
   606.6,0.000239,0.000188,0.001763,0.000088,  49.111
   606.8,0.000242,0.000193,0.001814,0.000075,  49.110
   607.0,0.000238,0.000193,0.001799,0.000062,  49.114
   607.2,0.000247,0.000196,0.001743,0.000062,  49.117
   607.4,0.000249,0.000194,0.001641,0.000062,  49.121
   607.6,0.000246,0.000189,0.001595,0.000075,  49.124
   607.8,0.000255,0.000195,0.001565,0.000075,  49.125
   608.0,0.000255,0.000200,0.001535,0.000062,  49.122
   608.2,0.000238,0.000199,0.001529,0.000075,  49.127
   608.4,0.000223,0.000203,0.001544,0.000039,  49.126
   608.6,0.000191,0.000206,0.001569,0.000026,  49.131
   608.8,0.000186,0.000208,0.001584,0.000039,  49.134
   609.0,0.000182,0.000212,0.001599,0.000003,  49.156
   609.2,0.000190,0.000214,0.001599,0.000039,  49.153
   609.4,0.000212,0.000210,0.001634,0.000039,  49.155
   609.6,0.000215,0.000198,0.001685,0.000039,  49.161
   609.8,0.000228,0.000182,0.001746,0.000075,  49.175
   610.0,0.000248,0.000182,0.001521,0.000075,  49.177
   610.2,0.000253,0.000179,0.001155,0.000075,  49.175
   610.4,0.000254,0.000181,0.000646,0.000075,  49.170
   610.6,0.000256,0.000185,0.000627,0.000075,  49.172
   610.8,0.000255,0.000189,0.000760,0.000062,  49.170
   611.0,0.000251,0.000197,0.001062,0.000049,  49.175
   611.2,0.000255,0.000204,0.001221,0.000062,  49.175
   611.4,0.000251,0.000206,0.001374,0.000062,  49.176
   611.6,0.000251,0.000211,0.001542,0.000075,  49.179
   611.8,0.000244,0.000209,0.001619,0.000088,  49.179
   612.0,0.000240,0.000209,0.001644,0.000088,  49.180
   612.2,0.000247,0.000207,0.001629,0.000088,  49.181
   612.4,0.000247,0.000201,0.001659,0.000101,  49.183
   612.6,0.000243,0.000201,0.001679,0.000101,  49.182
   612.8,0.000247,0.000207,0.001704,0.000088,  49.184
   613.0,0.000244,0.000203,0.001734,0.000088,  49.182
   613.2,0.000240,0.000203,0.001766,0.000088,  49.182
   613.4,0.000244,0.000203,0.001798,0.000052,  49.179
   613.6,0.000242,0.000200,0.001798,0.000088,  49.181
   613.8,0.000235,0.000202,0.001783,0.000088,  49.184
   614.0,0.000235,0.000204,0.001731,0.000088,  49.184
   614.2,0.000230,0.000201,0.001731,0.000088,  49.184
   614.4,0.000230,0.000201,0.001751,0.000088,  49.185
   614.6,0.000230,0.000202,0.001781,0.000088,  49.181
   614.8,0.000240,0.000200,0.001837,0.000088,  49.180
   615.0,0.000236,0.000198,0.001867,0.000088,  49.181
   615.2,0.000236,0.000194,0.001871,0.000052,  49.180
   615.4,0.000239,0.000192,0.001886,0.000052,  49.185
   615.6,0.000235,0.000192,0.001850,0.000052,  49.186
   615.8,0.000232,0.000194,0.001784,0.000016,  49.187
   616.0,0.000232,0.000194,0.001692,0.000052,  49.190
   616.2,0.000226,0.000196,0.001631,0.000052,  49.189
   616.4,0.000226,0.000191,0.001574,0.000016,  49.190
   616.6,0.000223,0.000187,0.001539,0.000052,  49.186
   616.8,0.000201,0.000193,0.001544,0.000052,  49.187
   617.0,0.000186,0.000198,0.001584,0.000016,  49.187
   617.2,0.000152,0.000203,0.001640,0.000052,  49.188
   617.4,0.000143,0.000209,0.001629,0.000052,  49.187
   617.6,0.000154,0.000209,0.001583,0.000016,  49.186
   617.8,0.000168,0.000205,0.001506,0.000052,  49.185
   618.0,0.000179,0.000194,0.001521,0.000052,  49.189
   618.2,0.000185,0.000184,0.001562,0.000016,  49.192
   618.4,0.000190,0.000168,0.001634,0.000052,  49.197
   618.6,0.000202,0.000160,0.001659,0.000039,  49.201
   618.8,0.000207,0.000152,0.001653,0.000003,  49.192
   619.0,0.000212,0.000156,0.001638,0.000026,  49.190
   619.2,0.000218,0.000155,0.001623,0.000026,  49.187
   619.4,0.000219,0.000158,0.001589,-0.000023,  49.191
   619.6,0.000228,0.000167,0.001544,0.000000,  49.193
   619.8,0.000228,0.000169,0.001544,0.000013,  49.192
   620.0,0.000224,0.000166,0.001575,-0.000023,  49.190
   620.2,0.000234,0.000177,0.001616,0.000013,  49.191
   620.4,0.000234,0.000181,0.001629,0.000026,  49.195
   620.6,0.000230,0.000181,0.001665,-0.000010,  49.192
   620.8,0.000242,0.000187,0.001700,0.000026,  49.190
   621.0,0.000247,0.000189,0.001694,0.000039,  49.197
   621.2,0.000243,0.000187,0.001662,0.000003,  49.193
   621.4,0.000243,0.000191,0.001611,0.000039,  49.189
   621.6,0.000243,0.000200,0.001611,0.000039,  49.188
   621.8,0.000239,0.000200,0.001605,0.000003,  49.185
   622.0,0.000242,0.000205,0.001632,0.000039,  49.189
   622.2,0.000248,0.000209,0.001647,0.000039,  49.180
   622.4,0.000244,0.000214,0.001673,0.000052,  49.184
   622.6,0.000247,0.000210,0.001698,0.000039,  49.184
   622.8,0.000251,0.000205,0.001673,0.000039,  49.184
   623.0,0.000247,0.000206,0.001638,0.000039,  49.190
   623.2,0.000247,0.000211,0.001557,0.000052,  49.184
   623.4,0.000250,0.000208,0.001521,0.000052,  49.184
   623.6,0.000246,0.000208,0.001512,0.000065,  49.179
   623.8,0.000250,0.000216,0.001486,0.000029,  49.184
