Run Name,Run 3
Run Date,02:20:30 PM   02-28-13
Method Name,50%B-Isocratic
Export Format Version, 1.00
Method ID, 1527
Points/Second, 5.00
Number of Records,   2239
Offset from Run Start Time,00:00:00
Run End Time,00:07:30
Time,Second
QuadTec 1, (280.0 nm), AU
QuadTec 2, (260.0 nm), AU
Gradient Pump,<Not Selected>
QuadTec 3, (214.0 nm), AU
QuadTec 4, (405.0 nm), AU
Conductivity,mS/cm
Trace 6,<Not Available>
GP Pressure,<Not Selected>
Volume,<Not Selected>
Fraction,<Not Available>
Time,QuadTec 1,QuadTec 2,QuadTec 3,QuadTec 4,Conductivity
     0.0,-0.000748,0.000000,0.000000,0.000000,  46.684
     0.2,-0.001143,0.000000,0.000000,0.000000,  46.683
     0.4,-0.001735,0.000000,0.000000,0.000000,  46.679
     0.6,-0.001314,0.000000,0.000000,0.000000,  46.676
     0.8,0.000000,0.000000,0.000000,0.000000,  46.677
     1.0,0.000000,0.000000,0.000000,0.000000,  46.677
     1.2,0.000000,0.000000,0.000000,0.000000,  46.671
     1.4,0.000000,0.000000,0.000000,0.000000,  46.673
     1.6,0.000000,0.000000,0.000000,0.000000,  46.670
     1.8,0.000000,0.000000,0.000000,0.000000,  46.670
     2.0,0.000000,0.000000,0.000000,0.000000,  46.670
     2.2,0.000000,0.000000,0.000000,0.000000,  46.667
     2.4,0.000000,0.000000,0.000000,0.000000,  46.670
     2.6,0.000000,0.000000,0.000000,0.000000,  46.665
     2.8,0.000000,0.000000,0.000000,0.000000,  46.664
     3.0,0.000000,0.000000,0.000000,0.000000,  46.661
     3.2,0.000000,0.000000,0.000000,0.000000,  46.662
     3.4,0.000000,0.000000,0.000000,0.000000,  46.659
     3.6,0.000000,0.000000,0.000000,0.000000,  46.660
     3.8,0.000000,0.000000,0.000000,0.000000,  46.656
     4.0,0.000000,0.000000,0.000000,0.000000,  46.654
     4.2,0.000112,0.000004,0.000060,0.000000,  46.657
     4.4,0.000099,0.000007,0.000093,-0.000013,  46.656
     4.6,0.000088,0.000014,0.000086,0.000000,  46.655
     4.8,0.000080,0.000016,0.000059,0.000027,  46.650
     5.0,0.000078,0.000013,-0.000007,-0.000022,  46.655
     5.2,0.000083,0.000011,-0.000112,-0.000044,  46.652
     5.4,0.000092,0.000010,-0.000171,-0.000057,  46.650
     5.6,0.000088,0.000012,-0.000225,-0.000022,  46.654
     5.8,0.000088,0.000009,-0.000278,-0.000009,  46.649
     6.0,0.000094,0.000010,-0.000322,-0.000009,  46.650
     6.2,0.000088,0.000004,-0.000348,-0.000009,  46.653
     6.4,0.000083,-0.000000,-0.000361,0.000005,  46.648
     6.6,0.000078,-0.000002,-0.000530,0.000005,  46.650
     6.8,0.000078,-0.000006,-0.000773,-0.000009,  46.651
     7.0,0.000078,-0.000006,-0.001081,0.000005,  46.645
     7.2,0.000078,-0.000002,-0.001146,0.000005,  46.641
     7.4,0.000072,-0.000007,-0.001124,-0.000009,  46.648
     7.6,0.000064,-0.000009,-0.001030,0.000005,  46.647
     7.8,0.000054,-0.000017,-0.001027,0.000005,  46.642
     8.0,0.000048,-0.000025,-0.001020,-0.000009,  46.645
     8.2,0.000046,-0.000027,-0.001026,0.000005,  46.640
     8.4,0.000043,-0.000034,-0.000990,-0.000009,  46.645
     8.6,0.000038,-0.000044,-0.000941,-0.000022,  46.644
     8.8,0.000035,-0.000056,-0.000880,-0.000009,  46.643
     9.0,0.000023,-0.000063,-0.000858,-0.000022,  46.641
     9.2,0.000024,-0.000072,-0.000854,-0.000035,  46.643
     9.4,0.000016,-0.000083,-0.000854,-0.000022,  46.641
     9.6,0.000003,-0.000082,-0.000884,-0.000022,  46.647
     9.8,-0.000010,-0.000097,-0.000935,-0.000035,  46.642
    10.0,-0.000018,-0.000111,-0.001000,-0.000022,  46.641
    10.2,-0.000029,-0.000121,-0.001017,-0.000022,  46.639
    10.4,-0.000042,-0.000138,-0.001021,-0.000035,  46.639
    10.6,-0.000055,-0.000152,-0.001018,-0.000035,  46.644
    10.8,-0.000066,-0.000166,-0.001101,-0.000084,  46.639
    11.0,-0.000082,-0.000176,-0.001238,-0.000035,  46.640
    11.2,-0.000090,-0.000190,-0.001413,-0.000048,  46.640
    11.4,-0.000092,-0.000193,-0.001450,-0.000070,  46.641
    11.6,-0.000095,-0.000200,-0.001437,-0.000048,  46.638
    11.8,-0.000100,-0.000204,-0.001382,-0.000075,  46.639
    12.0,-0.000111,-0.000207,-0.001533,-0.000075,  46.646
    12.2,-0.000124,-0.000215,-0.001768,-0.000075,  46.643
    12.4,-0.000124,-0.000221,-0.002070,-0.000075,  46.644
    12.6,-0.000124,-0.000219,-0.002464,-0.000075,  46.639
    12.8,-0.000124,-0.000227,-0.002474,-0.000088,  46.642
    13.0,-0.000129,-0.000234,-0.002362,-0.000102,  46.640
    13.2,-0.000137,-0.000238,-0.002151,-0.000115,  46.635
    13.4,-0.000147,-0.000245,-0.002044,-0.000115,  46.644
    13.6,-0.000159,-0.000253,-0.001930,-0.000115,  46.642
    13.8,-0.000161,-0.000263,-0.001817,-0.000128,  46.641
    14.0,-0.000160,-0.000270,-0.001742,-0.000163,  46.648
    14.2,-0.000169,-0.000274,-0.001675,-0.000150,  46.645
    14.4,-0.000177,-0.000279,-0.001615,-0.000150,  46.642
    14.6,-0.000185,-0.000274,-0.001620,-0.000185,  46.644
    14.8,-0.000188,-0.000279,-0.001666,-0.000163,  46.644
    15.0,-0.000190,-0.000283,-0.001745,-0.000150,  46.646
    15.2,-0.000193,-0.000283,-0.001712,-0.000185,  46.647
    15.4,-0.000196,-0.000285,-0.001657,-0.000163,  46.644
    15.6,-0.000198,-0.000289,-0.001564,-0.000150,  46.644
    15.8,-0.000201,-0.000294,-0.001537,-0.000199,  46.649
    16.0,-0.000201,-0.000296,-0.001523,-0.000177,  46.648
    16.2,-0.000201,-0.000300,-0.001529,-0.000163,  46.650
    16.4,-0.000204,-0.000305,-0.001548,-0.000212,  46.650
    16.6,-0.000201,-0.000307,-0.001580,-0.000177,  46.650
    16.8,-0.000201,-0.000309,-0.001626,-0.000150,  46.648
    17.0,-0.000198,-0.000308,-0.001624,-0.000172,  46.651
    17.2,-0.000198,-0.000310,-0.001603,-0.000124,  46.654
    17.4,-0.000201,-0.000317,-0.001551,-0.000110,  46.654
    17.6,-0.000204,-0.000312,-0.001556,-0.000132,  46.658
    17.8,-0.000204,-0.000308,-0.001582,-0.000124,  46.655
    18.0,-0.000206,-0.000311,-0.001615,-0.000124,  46.652
    18.2,-0.000210,-0.000309,-0.001647,-0.000159,  46.655
    18.4,-0.000204,-0.000309,-0.001680,-0.000137,  46.656
    18.6,-0.000204,-0.000313,-0.001726,-0.000137,  46.656
    18.8,-0.000201,-0.000317,-0.001745,-0.000172,  46.658
    19.0,-0.000198,-0.000315,-0.001752,-0.000137,  46.659
    19.2,-0.000198,-0.000316,-0.001757,-0.000150,  46.659
    19.4,-0.000201,-0.000303,-0.001762,-0.000185,  46.661
    19.6,-0.000206,-0.000298,-0.001749,-0.000150,  46.660
    19.8,-0.000206,-0.000296,-0.001742,-0.000150,  46.665
    20.0,-0.000201,-0.000289,-0.001846,-0.000150,  46.666
    20.2,-0.000201,-0.000290,-0.001997,-0.000172,  46.662
    20.4,-0.000196,-0.000288,-0.002201,-0.000137,  46.663
    20.6,-0.000188,-0.000292,-0.002254,-0.000172,  46.667
    20.8,-0.000180,-0.000291,-0.002259,-0.000172,  46.665
    21.0,-0.000181,-0.000285,-0.002208,-0.000137,  46.668
    21.2,-0.000178,-0.000279,-0.002116,-0.000137,  46.670
    21.4,-0.000175,-0.000281,-0.002069,-0.000172,  46.669
    21.6,-0.000182,-0.000281,-0.002021,-0.000137,  46.673
    21.8,-0.000187,-0.000283,-0.001942,-0.000137,  46.677
    22.0,-0.000186,-0.000283,-0.001941,-0.000172,  46.676
    22.2,-0.000182,-0.000283,-0.001967,-0.000137,  46.681
    22.4,-0.000179,-0.000276,-0.002015,-0.000137,  46.685
    22.6,-0.000175,-0.000278,-0.001982,-0.000159,  46.681
    22.8,-0.000173,-0.000283,-0.001936,-0.000124,  46.685
    23.0,-0.000170,-0.000282,-0.001870,-0.000124,  46.686
    23.2,-0.000175,-0.000285,-0.001861,-0.000132,  46.682
    23.4,-0.000169,-0.000284,-0.001855,-0.000097,  46.686
    23.6,-0.000167,-0.000282,-0.001875,-0.000097,  46.689
    23.8,-0.000167,-0.000281,-0.001846,-0.000132,  46.693
    24.0,-0.000159,-0.000277,-0.001786,-0.000145,  46.694
    24.2,-0.000153,-0.000270,-0.001713,-0.000145,  46.691
    24.4,-0.000148,-0.000259,-0.001719,-0.000145,  46.700
    24.6,-0.000149,-0.000255,-0.001747,-0.000159,  46.697
    24.8,-0.000149,-0.000252,-0.001808,-0.000159,  46.694
    25.0,-0.000154,-0.000247,-0.001841,-0.000145,  46.693
    25.2,-0.000155,-0.000244,-0.001874,-0.000145,  46.695
    25.4,-0.000147,-0.000238,-0.001901,-0.000132,  46.700
    25.6,-0.000136,-0.000236,-0.001901,-0.000132,  46.695
    25.8,-0.000124,-0.000237,-0.001889,-0.000119,  46.698
    26.0,-0.000121,-0.000233,-0.001864,-0.000106,  46.695
    26.2,-0.000124,-0.000233,-0.001875,-0.000119,  46.700
    26.4,-0.000121,-0.000231,-0.001889,-0.000119,  46.697
    26.6,-0.000122,-0.000222,-0.001915,-0.000106,  46.699
    26.8,-0.000123,-0.000213,-0.001908,-0.000106,  46.698
    27.0,-0.000115,-0.000212,-0.001883,-0.000106,  46.693
    27.2,-0.000116,-0.000200,-0.001845,-0.000092,  46.694
    27.4,-0.000105,-0.000194,-0.001996,-0.000092,  46.696
    27.6,-0.000093,-0.000188,-0.002221,-0.000092,  46.700
    27.8,-0.000088,-0.000170,-0.002536,-0.000079,  46.697
    28.0,-0.000080,-0.000158,-0.002521,-0.000079,  46.694
    28.2,-0.000075,-0.000151,-0.002383,-0.000079,  46.696
    28.4,-0.000067,-0.000143,-0.002121,-0.000066,  46.696
    28.6,-0.000059,-0.000134,-0.001982,-0.000066,  46.696
    28.8,-0.000048,-0.000131,-0.001849,-0.000052,  46.697
    29.0,-0.000038,-0.000132,-0.001717,-0.000052,  46.693
    29.2,-0.000030,-0.000127,-0.001625,-0.000026,  46.695
    29.4,-0.000024,-0.000120,-0.001552,-0.000039,  46.695
    29.6,-0.000019,-0.000104,-0.001513,-0.000039,  46.693
    29.8,-0.000011,-0.000084,-0.001500,-0.000039,  46.695
    30.0,-0.000003,-0.000072,-0.001435,-0.000026,  46.698
    30.2,0.000005,-0.000067,-0.001389,-0.000026,  46.699
    30.4,0.000016,-0.000058,-0.001336,-0.000026,  46.700
    30.6,0.000029,-0.000050,-0.001376,-0.000061,  46.700
    30.8,0.000039,-0.000037,-0.001469,-0.000061,  46.698
    31.0,0.000050,-0.000025,-0.001609,-0.000061,  46.697
    31.2,0.000055,-0.000012,-0.001617,-0.000083,  46.695
    31.4,0.000066,0.000001,-0.001586,-0.000048,  46.700
    31.6,0.000077,0.000021,-0.001521,-0.000034,  46.701
    31.8,0.000085,0.000035,-0.001463,-0.000056,  46.700
    32.0,0.000098,0.000049,-0.001404,-0.000021,  46.704
    32.2,0.000111,0.000055,-0.001344,-0.000008,  46.701
    32.4,0.000124,0.000066,-0.001293,-0.000030,  46.707
    32.6,0.000143,0.000081,-0.001248,0.000005,  46.704
    32.8,0.000158,0.000105,-0.001204,0.000019,  46.709
    33.0,0.000182,0.000130,-0.001139,-0.000016,  46.704
    33.2,0.000203,0.000149,-0.001060,0.000019,  46.710
    33.4,0.000218,0.000165,-0.000963,0.000032,  46.707
    33.6,0.000245,0.000187,-0.000945,0.000010,  46.707
    33.8,0.000267,0.000211,-0.000961,0.000045,  46.706
    34.0,0.000279,0.000236,-0.001024,0.000059,  46.706
    34.2,0.000292,0.000264,-0.001197,0.000037,  46.705
    34.4,0.000311,0.000282,-0.001450,0.000059,  46.708
    34.6,0.000327,0.000295,-0.001782,0.000072,  46.710
    34.8,0.000343,0.000306,-0.001841,0.000037,  46.713
    35.0,0.000353,0.000318,-0.001804,0.000085,  46.711
    35.2,0.000359,0.000329,-0.001673,0.000099,  46.714
    35.4,0.000359,0.000337,-0.001529,0.000050,  46.709
    35.6,0.000361,0.000338,-0.001345,0.000085,  46.713
    35.8,0.000359,0.000338,-0.001113,0.000085,  46.714
    36.0,0.000359,0.000330,-0.001000,0.000050,  46.715
    36.2,0.000351,0.000319,-0.000933,0.000072,  46.712
    36.4,0.000340,0.000301,-0.000912,0.000072,  46.714
    36.6,0.000324,0.000285,-0.000889,0.000037,  46.716
    36.8,0.000303,0.000267,-0.000888,0.000045,  46.712
    37.0,0.000282,0.000250,-0.000901,0.000032,  46.712
    37.2,0.000260,0.000238,-0.001050,-0.000003,  46.715
    37.4,0.000234,0.000215,-0.001278,0.000019,  46.712
    37.6,0.000207,0.000181,-0.001573,0.000005,  46.711
    37.8,0.000181,0.000144,-0.001630,0.000005,  46.713
    38.0,0.000149,0.000112,-0.001613,-0.000021,  46.718
    38.2,0.000125,0.000087,-0.001505,0.000001,  46.728
    38.4,0.000099,0.000063,-0.001522,0.000001,  46.727
    38.6,0.000075,0.000031,-0.001540,-0.000013,  46.727
    38.8,0.000053,0.000004,-0.001584,-0.000026,  46.725
    39.0,0.000027,-0.000030,-0.001636,-0.000039,  46.723
    39.2,0.000000,-0.000060,-0.001645,-0.000088,  46.724
    39.4,-0.000021,-0.000084,-0.001642,-0.000101,  46.721
    39.6,-0.000047,-0.000116,-0.001631,-0.000114,  46.721
    39.8,-0.000068,-0.000142,-0.001648,-0.000163,  46.715
    40.0,-0.000086,-0.000165,-0.001684,-0.000128,  46.715
    40.2,-0.000111,-0.000188,-0.001722,-0.000114,  46.715
    40.4,-0.000130,-0.000208,-0.001745,-0.000163,  46.710
    40.6,-0.000146,-0.000228,-0.001769,-0.000128,  46.693
    40.8,-0.000159,-0.000237,-0.001792,-0.000114,  46.693
    41.0,-0.000175,-0.000249,-0.001827,-0.000163,  46.686
    41.2,-0.000188,-0.000269,-0.001853,-0.000141,  46.692
    41.4,-0.000199,-0.000282,-0.001884,-0.000163,  46.691
    41.6,-0.000209,-0.000294,-0.001895,-0.000163,  46.689
    41.8,-0.000220,-0.000314,-0.001906,-0.000176,  46.689
    42.0,-0.000237,-0.000328,-0.001912,-0.000176,  46.685
    42.2,-0.000250,-0.000341,-0.001963,-0.000189,  46.690
    42.4,-0.000258,-0.000353,-0.002041,-0.000194,  46.686
    42.6,-0.000269,-0.000360,-0.002151,-0.000194,  46.680
    42.8,-0.000274,-0.000357,-0.002182,-0.000216,  46.685
    43.0,-0.000282,-0.000370,-0.002181,-0.000194,  46.684
    43.2,-0.000293,-0.000384,-0.002160,-0.000229,  46.681
    43.4,-0.000298,-0.000396,-0.002172,-0.000216,  46.686
    43.6,-0.000303,-0.000407,-0.002197,-0.000216,  46.686
    43.8,-0.000308,-0.000412,-0.002218,-0.000251,  46.680
    44.0,-0.000317,-0.000417,-0.002211,-0.000251,  46.681
    44.2,-0.000322,-0.000426,-0.002209,-0.000251,  46.682
    44.4,-0.000331,-0.000432,-0.002194,-0.000286,  46.682
    44.6,-0.000330,-0.000432,-0.002213,-0.000286,  46.683
    44.8,-0.000336,-0.000441,-0.002259,-0.000251,  46.684
    45.0,-0.000345,-0.000444,-0.002318,-0.000286,  46.684
    45.2,-0.000341,-0.000448,-0.002316,-0.000286,  46.684
    45.4,-0.000344,-0.000458,-0.002289,-0.000251,  46.684
    45.6,-0.000355,-0.000460,-0.002236,-0.000251,  46.686
    45.8,-0.000360,-0.000467,-0.002262,-0.000273,  46.682
    46.0,-0.000368,-0.000473,-0.002320,-0.000251,  46.683
    46.2,-0.000374,-0.000477,-0.002393,-0.000251,  46.685
    46.4,-0.000370,-0.000479,-0.002406,-0.000238,  46.685
    46.6,-0.000370,-0.000479,-0.002398,-0.000238,  46.686
    46.8,-0.000374,-0.000481,-0.002377,-0.000251,  46.684
    47.0,-0.000370,-0.000484,-0.002324,-0.000286,  46.683
    47.2,-0.000373,-0.000484,-0.002311,-0.000273,  46.685
    47.4,-0.000382,-0.000488,-0.002303,-0.000238,  46.684
    47.6,-0.000381,-0.000491,-0.002302,-0.000273,  46.681
    47.8,-0.000389,-0.000495,-0.002302,-0.000273,  46.686
    48.0,-0.000398,-0.000497,-0.002321,-0.000251,  46.682
    48.2,-0.000394,-0.000500,-0.002341,-0.000286,  46.684
    48.4,-0.000399,-0.000502,-0.002346,-0.000286,  46.684
    48.6,-0.000402,-0.000509,-0.002352,-0.000251,  46.679
    48.8,-0.000405,-0.000515,-0.002351,-0.000300,  46.681
    49.0,-0.000404,-0.000515,-0.002396,-0.000278,  46.683
    49.2,-0.000406,-0.000517,-0.002476,-0.000256,  46.685
    49.4,-0.000413,-0.000520,-0.002576,-0.000304,  46.684
    49.6,-0.000406,-0.000521,-0.002595,-0.000269,  46.685
    49.8,-0.000404,-0.000521,-0.002594,-0.000256,  46.688
    50.0,-0.000413,-0.000526,-0.002561,-0.000278,  46.688
    50.2,-0.000412,-0.000533,-0.002619,-0.000243,  46.690
    50.4,-0.000415,-0.000535,-0.002698,-0.000243,  46.687
    50.6,-0.000418,-0.000538,-0.002822,-0.000264,  46.694
    50.8,-0.000421,-0.000533,-0.002861,-0.000216,  46.689
    51.0,-0.000427,-0.000538,-0.002873,-0.000229,  46.691
    51.2,-0.000423,-0.000538,-0.002853,-0.000264,  46.694
    51.4,-0.000428,-0.000538,-0.002951,-0.000216,  46.692
    51.6,-0.000435,-0.000542,-0.003101,-0.000229,  46.694
    51.8,-0.000435,-0.000548,-0.003284,-0.000264,  46.698
    52.0,-0.000437,-0.000553,-0.003283,-0.000216,  46.699
    52.2,-0.000437,-0.000557,-0.003198,-0.000229,  46.699
    52.4,-0.000437,-0.000560,-0.003052,-0.000264,  46.703
    52.6,-0.000449,-0.000556,-0.002966,-0.000216,  46.696
    52.8,-0.000445,-0.000558,-0.002892,-0.000229,  46.702
    53.0,-0.000452,-0.000566,-0.002813,-0.000264,  46.702
    53.2,-0.000448,-0.000565,-0.002865,-0.000216,  46.699
    53.4,-0.000444,-0.000569,-0.002995,-0.000229,  46.704
    53.6,-0.000451,-0.000576,-0.003180,-0.000264,  46.706
    53.8,-0.000447,-0.000574,-0.003180,-0.000251,  46.709
    54.0,-0.000450,-0.000578,-0.003113,-0.000264,  46.704
    54.2,-0.000456,-0.000582,-0.002981,-0.000300,  46.706
    54.4,-0.000447,-0.000582,-0.002928,-0.000286,  46.704
    54.6,-0.000447,-0.000586,-0.002875,-0.000264,  46.703
    54.8,-0.000453,-0.000589,-0.002834,-0.000264,  46.710
    55.0,-0.000447,-0.000587,-0.002775,-0.000300,  46.709
    55.2,-0.000452,-0.000593,-0.002720,-0.000264,  46.706
    55.4,-0.000459,-0.000586,-0.002661,-0.000264,  46.713
    55.6,-0.000456,-0.000581,-0.002641,-0.000264,  46.708
    55.8,-0.000459,-0.000583,-0.002647,-0.000278,  46.707
    56.0,-0.000468,-0.000584,-0.002661,-0.000278,  46.712
    56.2,-0.000468,-0.000585,-0.002701,-0.000313,  46.726
    56.4,-0.000464,-0.000587,-0.002694,-0.000313,  46.726
    56.6,-0.000473,-0.000583,-0.002693,-0.000278,  46.729
    56.8,-0.000473,-0.000584,-0.002686,-0.000313,  46.734
    57.0,-0.000464,-0.000587,-0.002699,-0.000300,  46.731
    57.2,-0.000462,-0.000578,-0.002732,-0.000264,  46.733
    57.4,-0.000454,-0.000574,-0.002778,-0.000286,  46.729
    57.6,-0.000437,-0.000565,-0.002759,-0.000273,  46.732
    57.8,-0.000422,-0.000545,-0.002709,-0.000225,  46.738
    58.0,-0.000396,-0.000522,-0.002639,-0.000246,  46.736
    58.2,-0.000361,-0.000493,-0.002620,-0.000246,  46.740
    58.4,-0.000351,-0.000477,-0.002608,-0.000198,  46.740
    58.6,-0.000340,-0.000463,-0.002603,-0.000220,  46.739
    58.8,-0.000329,-0.000450,-0.002557,-0.000220,  46.737
    59.0,-0.000327,-0.000442,-0.002491,-0.000185,  46.739
    59.2,-0.000322,-0.000432,-0.002405,-0.000207,  46.741
    59.4,-0.000315,-0.000423,-0.002504,-0.000207,  46.742
    59.6,-0.000316,-0.000419,-0.002688,-0.000171,  46.742
    59.8,-0.000311,-0.000419,-0.002952,-0.000193,  46.746
    60.0,-0.000311,-0.000415,-0.003240,-0.000193,  46.745
    60.2,-0.000315,-0.000413,-0.003574,-0.000158,  46.745
    60.4,-0.000308,-0.000418,-0.003968,-0.000180,  46.744
    60.6,-0.000308,-0.000413,-0.004177,-0.000180,  46.746
    60.8,-0.000312,-0.000411,-0.004314,-0.000158,  46.749
    61.0,-0.000306,-0.000410,-0.004386,-0.000193,  46.744
    61.2,-0.000306,-0.000411,-0.004248,-0.000193,  46.746
    61.4,-0.000309,-0.000411,-0.003973,-0.000158,  46.750
    61.6,-0.000306,-0.000416,-0.003566,-0.000193,  46.750
    61.8,-0.000302,-0.000421,-0.003383,-0.000193,  46.748
    62.0,-0.000305,-0.000428,-0.003257,-0.000158,  46.748
    62.2,-0.000305,-0.000440,-0.003179,-0.000193,  46.748
    62.4,-0.000308,-0.000441,-0.003052,-0.000193,  46.749
    62.6,-0.000304,-0.000445,-0.002932,-0.000158,  46.750
    62.8,-0.000313,-0.000447,-0.002794,-0.000193,  46.751
    63.0,-0.000315,-0.000445,-0.002707,-0.000193,  46.749
    63.2,-0.000322,-0.000450,-0.002659,-0.000158,  46.746
    63.4,-0.000329,-0.000447,-0.002625,-0.000207,  46.749
    63.6,-0.000325,-0.000449,-0.002611,-0.000207,  46.753
    63.8,-0.000325,-0.000456,-0.002617,-0.000185,  46.752
    64.0,-0.000334,-0.000460,-0.002643,-0.000185,  46.751
    64.2,-0.000333,-0.000466,-0.002787,-0.000220,  46.752
    64.4,-0.000341,-0.000464,-0.003004,-0.000171,  46.758
    64.6,-0.000345,-0.000451,-0.003275,-0.000158,  46.754
    64.8,-0.000333,-0.000433,-0.003315,-0.000131,  46.754
    65.0,-0.000328,-0.000432,-0.003263,-0.000167,  46.754
    65.2,-0.000329,-0.000429,-0.003131,-0.000167,  46.754
    65.4,-0.000317,-0.000432,-0.002919,-0.000202,  46.755
    65.6,-0.000317,-0.000434,-0.002866,-0.000167,  46.756
    65.8,-0.000321,-0.000428,-0.002821,-0.000180,  46.758
    66.0,-0.000315,-0.000430,-0.002789,-0.000215,  46.756
    66.2,-0.000317,-0.000436,-0.002749,-0.000167,  46.761
    66.4,-0.000321,-0.000434,-0.002709,-0.000180,  46.763
    66.6,-0.000317,-0.000439,-0.002681,-0.000215,  46.762
    66.8,-0.000320,-0.000444,-0.002662,-0.000167,  46.766
    67.0,-0.000322,-0.000448,-0.002660,-0.000180,  46.764
    67.2,-0.000330,-0.000457,-0.002673,-0.000215,  46.764
    67.4,-0.000332,-0.000466,-0.002699,-0.000180,  46.762
    67.6,-0.000335,-0.000466,-0.002752,-0.000193,  46.764
    67.8,-0.000346,-0.000472,-0.002819,-0.000228,  46.769
    68.0,-0.000343,-0.000469,-0.002805,-0.000193,  46.766
    68.2,-0.000343,-0.000473,-0.002764,-0.000193,  46.766
    68.4,-0.000354,-0.000471,-0.002690,-0.000228,  46.771
    68.6,-0.000353,-0.000467,-0.002722,-0.000193,  46.774
    68.8,-0.000356,-0.000467,-0.002788,-0.000193,  46.771
    69.0,-0.000362,-0.000467,-0.002882,-0.000228,  46.770
    69.2,-0.000356,-0.000470,-0.002893,-0.000180,  46.769
    69.4,-0.000362,-0.000477,-0.002873,-0.000180,  46.773
    69.6,-0.000362,-0.000476,-0.002820,-0.000215,  46.775
    69.8,-0.000360,-0.000474,-0.002799,-0.000167,  46.775
    70.0,-0.000366,-0.000479,-0.002798,-0.000167,  46.776
    70.2,-0.000362,-0.000485,-0.002798,-0.000202,  46.771
    70.4,-0.000368,-0.000486,-0.002850,-0.000167,  46.779
    70.6,-0.000370,-0.000491,-0.002936,-0.000167,  46.774
    70.8,-0.000368,-0.000489,-0.003066,-0.000202,  46.777
    71.0,-0.000370,-0.000489,-0.003087,-0.000167,  46.780
    71.2,-0.000370,-0.000493,-0.003087,-0.000167,  46.780
    71.4,-0.000376,-0.000492,-0.003060,-0.000202,  46.783
    71.6,-0.000373,-0.000495,-0.003013,-0.000167,  46.778
    71.8,-0.000378,-0.000497,-0.002940,-0.000167,  46.782
    72.0,-0.000387,-0.000498,-0.002841,-0.000202,  46.783
    72.2,-0.000383,-0.000492,-0.002846,-0.000167,  46.784
    72.4,-0.000389,-0.000490,-0.002893,-0.000180,  46.784
    72.6,-0.000395,-0.000496,-0.002973,-0.000180,  46.782
    72.8,-0.000391,-0.000498,-0.003004,-0.000167,  46.785
    73.0,-0.000391,-0.000497,-0.003031,-0.000180,  46.789
    73.2,-0.000389,-0.000499,-0.003056,-0.000180,  46.784
    73.4,-0.000391,-0.000501,-0.003062,-0.000167,  46.786
    73.6,-0.000388,-0.000505,-0.003047,-0.000180,  46.786
    73.8,-0.000385,-0.000508,-0.003021,-0.000180,  46.782
    74.0,-0.000391,-0.000517,-0.002974,-0.000215,  46.785
    74.2,-0.000388,-0.000526,-0.002947,-0.000167,  46.785
    74.4,-0.000385,-0.000528,-0.002914,-0.000180,  46.784
    74.6,-0.000391,-0.000527,-0.002880,-0.000215,  46.784
    74.8,-0.000388,-0.000529,-0.002913,-0.000167,  46.782
    75.0,-0.000384,-0.000531,-0.002980,-0.000180,  46.779
    75.2,-0.000383,-0.000530,-0.003073,-0.000228,  46.778
    75.4,-0.000381,-0.000525,-0.003060,-0.000207,  46.780
    75.6,-0.000379,-0.000528,-0.003007,-0.000198,  46.779
    75.8,-0.000382,-0.000522,-0.002920,-0.000233,  46.779
    76.0,-0.000386,-0.000527,-0.002900,-0.000233,  46.778
    76.2,-0.000387,-0.000525,-0.002906,-0.000220,  46.777
    76.4,-0.000388,-0.000522,-0.002926,-0.000242,  46.775
    76.6,-0.000382,-0.000524,-0.002958,-0.000207,  46.774
    76.8,-0.000379,-0.000524,-0.003010,-0.000207,  46.774
    77.0,-0.000385,-0.000521,-0.003070,-0.000242,  46.769
    77.2,-0.000388,-0.000517,-0.003077,-0.000207,  46.776
    77.4,-0.000388,-0.000515,-0.003077,-0.000207,  46.769
    77.6,-0.000394,-0.000519,-0.003063,-0.000242,  46.772
    77.8,-0.000393,-0.000517,-0.003057,-0.000207,  46.771
    78.0,-0.000393,-0.000520,-0.003062,-0.000207,  46.772
    78.2,-0.000397,-0.000524,-0.003069,-0.000228,  46.772
    78.4,-0.000393,-0.000529,-0.003036,-0.000215,  46.770
    78.6,-0.000393,-0.000527,-0.002995,-0.000215,  46.769
    78.8,-0.000388,-0.000527,-0.002930,-0.000237,  46.765
    79.0,-0.000390,-0.000524,-0.003001,-0.000202,  46.767
    79.2,-0.000388,-0.000526,-0.003132,-0.000193,  46.768
    79.4,-0.000394,-0.000528,-0.003310,-0.000228,  46.768
    79.6,-0.000394,-0.000523,-0.003284,-0.000215,  46.766
    79.8,-0.000397,-0.000522,-0.003204,-0.000215,  46.765
    80.0,-0.000394,-0.000525,-0.003046,-0.000250,  46.769
    80.2,-0.000394,-0.000527,-0.002968,-0.000224,  46.760
    80.4,-0.000388,-0.000525,-0.002907,-0.000189,  46.763
    80.6,-0.000388,-0.000522,-0.002847,-0.000189,  46.758
    80.8,-0.000394,-0.000528,-0.002840,-0.000224,  46.765
    81.0,-0.000393,-0.000534,-0.002866,-0.000189,  46.760
    81.2,-0.000393,-0.000530,-0.002913,-0.000202,  46.763
    81.4,-0.000397,-0.000532,-0.002920,-0.000237,  46.766
    81.6,-0.000393,-0.000534,-0.002901,-0.000202,  46.766
    81.8,-0.000393,-0.000533,-0.002906,-0.000189,  46.759
    82.0,-0.000399,-0.000532,-0.002879,-0.000224,  46.760
    82.2,-0.000396,-0.000534,-0.002878,-0.000211,  46.759
    82.4,-0.000396,-0.000534,-0.002878,-0.000189,  46.758
    82.6,-0.000402,-0.000529,-0.002890,-0.000224,  46.763
    82.8,-0.000396,-0.000529,-0.002895,-0.000211,  46.762
    83.0,-0.000396,-0.000532,-0.002902,-0.000189,  46.760
    83.2,-0.000405,-0.000533,-0.002910,-0.000224,  46.760
    83.4,-0.000401,-0.000535,-0.002928,-0.000202,  46.755
    83.6,-0.000404,-0.000539,-0.002954,-0.000193,  46.759
    83.8,-0.000410,-0.000538,-0.002981,-0.000228,  46.757
    84.0,-0.000406,-0.000536,-0.003001,-0.000180,  46.761
    84.2,-0.000406,-0.000538,-0.003038,-0.000167,  46.762
    84.4,-0.000415,-0.000539,-0.003059,-0.000202,  46.759
    84.6,-0.000412,-0.000540,-0.003123,-0.000189,  46.754
    84.8,-0.000409,-0.000545,-0.003196,-0.000189,  46.760
    85.0,-0.000415,-0.000544,-0.003300,-0.000211,  46.753
    85.2,-0.000409,-0.000535,-0.003437,-0.000211,  46.766
    85.4,-0.000406,-0.000540,-0.003595,-0.000175,  46.759
    85.6,-0.000413,-0.000535,-0.003779,-0.000197,  46.760
    85.8,-0.000404,-0.000531,-0.004086,-0.000197,  46.765
    86.0,-0.000410,-0.000531,-0.004460,-0.000162,  46.763
    86.2,-0.000410,-0.000531,-0.004916,-0.000184,  46.760
    86.4,-0.000410,-0.000526,-0.005137,-0.000184,  46.765
    86.6,-0.000414,-0.000529,-0.005281,-0.000162,  46.763
    86.8,-0.000407,-0.000527,-0.005358,-0.000184,  46.763
    87.0,-0.000407,-0.000525,-0.005194,-0.000197,  46.760
    87.2,-0.000405,-0.000525,-0.004862,-0.000175,  46.759
    87.4,-0.000405,-0.000522,-0.004373,-0.000197,  46.763
    87.6,-0.000402,-0.000517,-0.004123,-0.000197,  46.766
    87.8,-0.000402,-0.000517,-0.003900,-0.000162,  46.764
    88.0,-0.000402,-0.000522,-0.003703,-0.000184,  46.763
    88.2,-0.000405,-0.000518,-0.003559,-0.000184,  46.766
    88.4,-0.000401,-0.000519,-0.003473,-0.000162,  46.765
    88.6,-0.000401,-0.000519,-0.003427,-0.000184,  46.761
    88.8,-0.000407,-0.000521,-0.003341,-0.000184,  46.766
    89.0,-0.000401,-0.000521,-0.003267,-0.000162,  46.765
    89.2,-0.000407,-0.000516,-0.003194,-0.000162,  46.763
    89.4,-0.000405,-0.000514,-0.003134,-0.000184,  46.767
    89.6,-0.000405,-0.000514,-0.003068,-0.000149,  46.765
    89.8,-0.000411,-0.000514,-0.003022,-0.000162,  46.768
    90.0,-0.000399,-0.000518,-0.003008,-0.000197,  46.775
    90.2,-0.000399,-0.000516,-0.002995,-0.000162,  46.773
    90.4,-0.000406,-0.000516,-0.003021,-0.000162,  46.772
    90.6,-0.000397,-0.000514,-0.003034,-0.000184,  46.771
    90.8,-0.000399,-0.000513,-0.003054,-0.000184,  46.774
    91.0,-0.000406,-0.000517,-0.003074,-0.000197,  46.776
    91.2,-0.000397,-0.000514,-0.003107,-0.000184,  46.777
    91.4,-0.000399,-0.000517,-0.003132,-0.000184,  46.778
    91.6,-0.000406,-0.000521,-0.003140,-0.000197,  46.779
    91.8,-0.000403,-0.000521,-0.003152,-0.000184,  46.778
    92.0,-0.000406,-0.000524,-0.003145,-0.000184,  46.775
    92.2,-0.000409,-0.000521,-0.003132,-0.000184,  46.782
    92.4,-0.000409,-0.000517,-0.003100,-0.000171,  46.782
    92.6,-0.000403,-0.000517,-0.003086,-0.000184,  46.783
    92.8,-0.000407,-0.000518,-0.003072,-0.000184,  46.782
    93.0,-0.000407,-0.000518,-0.003054,-0.000171,  46.784
    93.2,-0.000398,-0.000518,-0.003041,-0.000184,  46.786
    93.4,-0.000399,-0.000517,-0.003041,-0.000184,  46.783
    93.6,-0.000393,-0.000508,-0.003042,-0.000171,  46.782
    93.8,-0.000382,-0.000498,-0.002996,-0.000184,  46.785
    94.0,-0.000377,-0.000494,-0.002937,-0.000184,  46.788
    94.2,-0.000361,-0.000485,-0.002847,-0.000171,  46.788
    94.4,-0.000346,-0.000468,-0.002789,-0.000171,  46.790
    94.6,-0.000339,-0.000463,-0.002731,-0.000157,  46.786
    94.8,-0.000320,-0.000451,-0.002680,-0.000144,  46.786
    95.0,-0.000309,-0.000438,-0.002656,-0.000144,  46.786
    95.2,-0.000302,-0.000427,-0.002646,-0.000144,  46.786
    95.4,-0.000280,-0.000409,-0.002655,-0.000131,  46.784
    95.6,-0.000269,-0.000396,-0.002617,-0.000117,  46.785
    95.8,-0.000262,-0.000385,-0.002555,-0.000131,  46.782
    96.0,-0.000243,-0.000365,-0.002468,-0.000131,  46.791
    96.2,-0.000232,-0.000349,-0.002384,-0.000104,  46.787
    96.4,-0.000222,-0.000340,-0.002276,-0.000104,  46.788
    96.6,-0.000211,-0.000330,-0.002162,-0.000091,  46.789
    96.8,-0.000209,-0.000318,-0.002067,-0.000078,  46.787
    97.0,-0.000201,-0.000309,-0.001984,-0.000078,  46.791
    97.2,-0.000197,-0.000301,-0.001902,-0.000064,  46.790
    97.4,-0.000189,-0.000286,-0.001893,-0.000064,  46.791
    97.6,-0.000175,-0.000281,-0.001924,-0.000078,  46.792
    97.8,-0.000171,-0.000271,-0.002000,-0.000099,  46.795
    98.0,-0.000160,-0.000258,-0.001931,-0.000099,  46.793
    98.2,-0.000148,-0.000255,-0.001810,-0.000113,  46.795
    98.4,-0.000149,-0.000248,-0.001642,-0.000113,  46.796
    98.6,-0.000144,-0.000240,-0.001514,-0.000113,  46.796
    98.8,-0.000135,-0.000239,-0.001399,-0.000148,  46.798
    99.0,-0.000136,-0.000237,-0.001290,-0.000113,  46.797
    99.2,-0.000133,-0.000236,-0.001168,-0.000126,  46.798
    99.4,-0.000122,-0.000232,-0.001040,-0.000126,  46.799
    99.6,-0.000123,-0.000235,-0.000907,-0.000126,  46.802
    99.8,-0.000118,-0.000237,-0.000785,-0.000113,  46.804
   100.0,-0.000109,-0.000237,-0.000662,-0.000126,  46.802
   100.2,-0.000110,-0.000239,-0.000546,-0.000126,  46.805
   100.4,-0.000107,-0.000245,-0.000431,-0.000126,  46.804
   100.6,-0.000101,-0.000247,-0.000316,-0.000126,  46.806
   100.8,-0.000101,-0.000247,-0.000197,-0.000139,  46.805
   101.0,-0.000088,-0.000248,-0.000080,-0.000139,  46.805
   101.2,-0.000077,-0.000248,0.000072,-0.000139,  46.803
   101.4,-0.000069,-0.000246,0.000250,-0.000153,  46.802
   101.6,-0.000062,-0.000248,0.000434,-0.000153,  46.807
   101.8,-0.000046,-0.000248,0.000625,-0.000153,  46.806
   102.0,-0.000028,-0.000244,0.000827,-0.000153,  46.809
   102.2,-0.000019,-0.000239,0.001046,-0.000153,  46.806
   102.4,0.000002,-0.000230,0.001321,-0.000139,  46.808
   102.6,0.000023,-0.000225,0.001640,-0.000139,  46.808
   102.8,0.000041,-0.000213,0.002011,-0.000139,  46.803
   103.0,0.000074,-0.000202,0.002375,-0.000126,  46.804
   103.2,0.000097,-0.000196,0.002758,-0.000139,  46.804
   103.4,0.000123,-0.000184,0.003167,-0.000139,  46.806
   103.6,0.000152,-0.000172,0.003580,-0.000139,  46.804
   103.8,0.000186,-0.000157,0.004012,-0.000153,  46.805
   104.0,0.000235,-0.000135,0.004450,-0.000153,  46.804
   104.2,0.000282,-0.000105,0.004926,-0.000153,  46.804
   104.4,0.000327,-0.000083,0.005420,-0.000153,  46.805
   104.6,0.000386,-0.000058,0.005945,-0.000153,  46.803
   104.8,0.000444,-0.000026,0.006633,-0.000153,  46.801
   105.0,0.000505,0.000001,0.007416,-0.000153,  46.799
   105.2,0.000577,0.000038,0.008291,-0.000153,  46.799
   105.4,0.000649,0.000085,0.009153,-0.000153,  46.801
   105.6,0.000713,0.000121,0.010043,-0.000153,  46.798
   105.8,0.000777,0.000160,0.010985,-0.000153,  46.798
   106.0,0.000838,0.000209,0.011981,-0.000153,  46.794
   106.2,0.000894,0.000256,0.013005,-0.000153,  46.797
   106.4,0.000978,0.000307,0.014094,-0.000153,  46.795
   106.6,0.001080,0.000364,0.015240,-0.000153,  46.796
   106.8,0.001186,0.000423,0.016428,-0.000153,  46.793
   107.0,0.001292,0.000484,0.017679,-0.000153,  46.793
   107.2,0.001412,0.000556,0.019076,-0.000153,  46.790
   107.4,0.001535,0.000624,0.020571,-0.000175,  46.792
   107.6,0.001662,0.000696,0.022168,-0.000153,  46.793
   107.8,0.001809,0.000776,0.023700,-0.000139,  46.787
   108.0,0.001956,0.000862,0.025253,-0.000175,  46.784
   108.2,0.002113,0.000948,0.026833,-0.000175,  46.790
   108.4,0.002276,0.001049,0.028334,-0.000175,  46.785
   108.6,0.002450,0.001150,0.029797,-0.000196,  46.782
   108.8,0.002631,0.001248,0.031240,-0.000175,  46.788
   109.0,0.002817,0.001359,0.032642,-0.000175,  46.785
   109.2,0.003019,0.001472,0.034668,-0.000196,  46.783
   109.4,0.003230,0.001593,0.036936,-0.000175,  46.789
   109.6,0.003445,0.001722,0.039425,-0.000161,  46.783
   109.8,0.003682,0.001853,0.041877,-0.000196,  46.791
   110.0,0.003925,0.001989,0.044441,-0.000161,  46.787
   110.2,0.004168,0.002127,0.047106,-0.000148,  46.785
   110.4,0.004432,0.002250,0.049853,-0.000196,  46.786
   110.6,0.004705,0.002364,0.052703,-0.000161,  46.789
   110.8,0.004978,0.002477,0.055658,-0.000148,  46.786
   111.0,0.005277,0.002587,0.058709,-0.000196,  46.785
   111.2,0.005583,0.002743,0.061850,-0.000161,  46.785
   111.4,0.005894,0.002918,0.065098,-0.000148,  46.783
   111.6,0.006231,0.003110,0.068499,-0.000196,  46.785
   111.8,0.006579,0.003298,0.072029,-0.000161,  46.787
   112.0,0.006931,0.003488,0.075694,-0.000148,  46.787
   112.2,0.007312,0.003691,0.079529,-0.000196,  46.786
   112.4,0.007701,0.003906,0.083526,-0.000161,  46.783
   112.6,0.008094,0.004121,0.087702,-0.000148,  46.782
   112.8,0.008514,0.004348,0.091949,-0.000183,  46.778
   113.0,0.008945,0.004587,0.096315,-0.000148,  46.779
   113.2,0.009389,0.004829,0.100827,-0.000135,  46.780
   113.4,0.009857,0.005077,0.105485,-0.000170,  46.779
   113.6,0.010335,0.005340,0.110295,-0.000148,  46.781
   113.8,0.010818,0.005611,0.115237,-0.000135,  46.779
   114.0,0.011324,0.005902,0.120381,-0.000170,  46.778
   114.2,0.011766,0.006194,0.125724,-0.000135,  46.779
   114.4,0.012173,0.006483,0.131244,-0.000121,  46.778
   114.6,0.012573,0.006790,0.136863,-0.000170,  46.779
   114.8,0.012933,0.007099,0.142645,-0.000135,  46.781
   115.0,0.013455,0.007422,0.148567,-0.000121,  46.781
   115.2,0.014024,0.007750,0.154624,-0.000157,  46.781
   115.4,0.014646,0.008093,0.160832,-0.000121,  46.783
   115.6,0.015257,0.008445,0.167177,-0.000108,  46.783
   115.8,0.015889,0.008811,0.173790,-0.000143,  46.781
   116.0,0.016547,0.009183,0.180624,-0.000121,  46.781
   116.2,0.017220,0.009565,0.187670,-0.000121,  46.781
   116.4,0.017910,0.009962,0.194806,-0.000157,  46.783
   116.6,0.018627,0.010361,0.202130,-0.000108,  46.777
   116.8,0.019344,0.010772,0.209610,-0.000108,  46.783
   117.0,0.020083,0.011192,0.216006,-0.000095,  46.780
   117.2,0.020825,0.011620,0.221916,-0.000095,  46.784
   117.4,0.021587,0.012057,0.227292,-0.000095,  46.782
   117.6,0.022374,0.012502,0.232133,-0.000081,  46.776
   117.8,0.023174,0.012960,0.239761,-0.000103,  46.781
   118.0,0.023992,0.013435,0.248277,-0.000081,  46.780
   118.2,0.024831,0.013921,0.257703,-0.000081,  46.783
   118.4,0.025692,0.014405,0.266479,-0.000117,  46.783
   118.6,0.026554,0.014907,0.275389,-0.000095,  46.783
   118.8,0.027437,0.015413,0.284416,-0.000095,  46.778
   119.0,0.028331,0.015846,0.293588,-0.000117,  46.784
   119.2,0.029230,0.016244,0.302890,-0.000081,  46.781
   119.4,0.030156,0.016617,0.312344,-0.000081,  46.782
   119.6,0.031087,0.016954,0.322003,-0.000103,  46.782
   119.8,0.032040,0.017454,0.331855,-0.000068,  46.782
   120.0,0.033030,0.018006,0.341893,-0.000081,  46.783
   120.2,0.034033,0.018605,0.352045,-0.000095,  46.782
   120.4,0.035053,0.019178,0.362353,-0.000073,  46.781
   120.6,0.036101,0.019761,0.372809,-0.000073,  46.782
   120.8,0.037161,0.020359,0.383568,-0.000060,  46.782
   121.0,0.038225,0.020962,0.394564,-0.000033,  46.782
   121.2,0.039314,0.021575,0.405820,-0.000006,  46.787
   121.4,0.040410,0.022197,0.417047,-0.000042,  46.785
   121.6,0.041349,0.022825,0.428401,-0.000042,  46.779
   121.8,0.042226,0.023459,0.439863,-0.000028,  46.784
   122.0,0.043028,0.024099,0.451599,-0.000077,  46.782
   122.2,0.043765,0.024755,0.463533,-0.000042,  46.785
   122.4,0.044843,0.025419,0.475682,-0.000028,  46.786
   122.6,0.046012,0.026096,0.487871,-0.000063,  46.785
   122.8,0.047288,0.026772,0.500153,-0.000015,  46.788
   123.0,0.048476,0.027453,0.512544,-0.000002,  46.790
   123.2,0.049682,0.028141,0.525056,-0.000037,  46.790
   123.4,0.050895,0.028841,0.537645,-0.000002,  46.787
   123.6,0.052107,0.029545,0.550315,0.000012,  46.789
   123.8,0.053342,0.030260,0.563263,-0.000024,  46.787
   124.0,0.054577,0.030982,0.576389,0.000012,  46.792
   124.2,0.055848,0.031721,0.589712,0.000025,  46.787
   124.4,0.057154,0.032476,0.603080,-0.000010,  46.788
   124.6,0.058478,0.033234,0.616576,0.000038,  46.788
   124.8,0.059813,0.034001,0.630191,0.000038,  46.785
   125.0,0.061173,0.034790,0.642112,0.000052,  46.787
   125.2,0.062547,0.035570,0.653142,0.000052,  46.793
   125.4,0.063900,0.036350,0.663151,0.000016,  46.787
   125.6,0.065267,0.037139,0.672108,0.000016,  46.789
   125.8,0.066629,0.037929,0.685169,0.000016,  46.790
   126.0,0.068002,0.038725,0.699406,0.000016,  46.791
   126.2,0.069388,0.039524,0.714950,0.000030,  46.790
   126.4,0.070775,0.040334,0.729515,0.000030,  46.790
   126.6,0.072177,0.041149,0.744259,0.000043,  46.793
   126.8,0.073601,0.041975,0.759075,0.000056,  46.787
   127.0,0.075028,0.042676,0.773802,0.000056,  46.789
   127.2,0.076446,0.043320,0.788545,0.000056,  46.789
   127.4,0.077875,0.043916,0.803173,0.000070,  46.790
   127.6,0.079303,0.044446,0.818031,0.000070,  46.791
   127.8,0.080726,0.045212,0.832930,0.000070,  46.791
   128.0,0.082163,0.046043,0.847874,0.000083,  46.793
   128.2,0.083592,0.046935,0.862971,0.000070,  46.793
   128.4,0.085042,0.047779,0.878140,0.000105,  46.793
   128.6,0.086519,0.048630,0.893358,0.000118,  46.795
   128.8,0.087998,0.049485,0.908679,0.000083,  46.795
   129.0,0.089482,0.050347,0.924034,0.000118,  46.796
   129.2,0.090988,0.051215,0.939357,0.000145,  46.798
   129.4,0.092495,0.052093,0.954795,0.000110,  46.796
   129.6,0.093995,0.052966,0.970220,0.000110,  46.795
   129.8,0.095506,0.053848,0.985664,0.000123,  46.795
   130.0,0.097013,0.054734,1.001324,0.000136,  46.798
   130.2,0.098309,0.055613,1.017032,0.000136,  46.797
   130.4,0.099499,0.056502,1.032909,0.000136,  46.797
   130.6,0.100581,0.057387,1.048834,0.000150,  46.798
   130.8,0.101555,0.058276,1.064710,0.000150,  46.798
   131.0,0.102963,0.059168,1.080665,0.000163,  46.801
   131.2,0.104495,0.060065,1.096583,0.000176,  46.816
   131.4,0.106132,0.060953,1.112462,0.000176,  46.811
   131.6,0.107642,0.061853,1.128177,0.000189,  46.807
   131.8,0.109164,0.062751,1.144040,0.000189,  46.815
   132.0,0.110668,0.063637,1.159690,0.000189,  46.815
   132.2,0.112167,0.064532,1.175261,0.000189,  46.815
   132.4,0.113681,0.065426,1.191092,0.000181,  46.816
   132.6,0.115179,0.066333,1.207012,0.000154,  46.812
   132.8,0.116701,0.067247,1.222791,0.000203,  46.810
   133.0,0.118241,0.068170,1.236652,0.000216,  46.812
   133.2,0.119787,0.069088,1.249275,0.000216,  46.812
   133.4,0.121325,0.070008,1.260548,0.000229,  46.812
   133.6,0.122878,0.070932,1.270229,0.000243,  46.810
   133.8,0.124426,0.071842,1.284860,0.000256,  46.810
   134.0,0.125945,0.072737,1.300386,0.000256,  46.812
   134.2,0.127444,0.073632,1.317403,0.000269,  46.809
   134.4,0.128940,0.074534,1.332934,0.000269,  46.813
   134.6,0.130439,0.075428,1.348628,0.000283,  46.814
   134.8,0.131925,0.076333,1.363889,0.000296,  46.811
   135.0,0.133419,0.077231,1.378861,0.000296,  46.810
   135.2,0.134901,0.078126,1.393298,0.000309,  46.813
   135.4,0.136388,0.079020,1.407291,0.000323,  46.808
   135.6,0.137869,0.079787,1.422427,0.000323,  46.809
   135.8,0.139316,0.080481,1.437881,0.000323,  46.809
   136.0,0.140761,0.081105,1.453854,0.000349,  46.808
   136.2,0.142187,0.081665,1.468842,0.000349,  46.812
   136.4,0.143604,0.082467,1.483613,0.000349,  46.811
   136.6,0.145027,0.083330,1.498118,0.000363,  46.813
   136.8,0.146430,0.084258,1.512907,0.000389,  46.814
   137.0,0.147842,0.085115,1.527376,0.000389,  46.810
   137.2,0.149264,0.085982,1.541682,0.000403,  46.809
   137.4,0.150674,0.086843,1.556237,0.000416,  46.809
   137.6,0.152077,0.087702,1.570590,0.000416,  46.811
   137.8,0.153487,0.088571,1.584460,0.000429,  46.806
   138.0,0.154887,0.089433,1.598538,0.000429,  46.804
   138.2,0.156265,0.090279,1.612570,0.000416,  46.805
   138.4,0.157621,0.091120,1.626266,0.000429,  46.806
   138.6,0.158968,0.091953,1.640144,0.000443,  46.805
   138.8,0.160313,0.092782,1.653349,0.000456,  46.805
   139.0,0.161640,0.093609,1.666386,0.000456,  46.805
   139.2,0.162969,0.094429,1.680112,0.000456,  46.803
   139.4,0.164098,0.095252,1.693029,0.000478,  46.804
   139.6,0.165139,0.096072,1.706015,0.000504,  46.800
   139.8,0.166054,0.096885,1.719071,0.000482,  46.801
   140.0,0.166885,0.097691,1.731859,0.000496,  46.795
   140.2,0.168059,0.098484,1.744321,0.000522,  46.782
   140.4,0.169326,0.099270,1.756801,0.000536,  46.778
   140.6,0.170664,0.100048,1.768540,0.000536,  46.774
   140.8,0.171896,0.100820,1.780615,0.000562,  46.774
   141.0,0.173109,0.101584,1.793030,0.000576,  46.772
   141.2,0.174312,0.102354,1.804198,0.000589,  46.772
   141.4,0.175527,0.103127,1.815671,0.000602,  46.769
   141.6,0.176733,0.103904,1.827051,0.000594,  46.763
   141.8,0.177938,0.104665,1.837442,0.000594,  46.760
   142.0,0.179131,0.105425,1.847656,0.000629,  46.759
   142.2,0.180309,0.106186,1.857133,0.000642,  46.755
   142.4,0.181488,0.106922,1.865851,0.000656,  46.751
   142.6,0.182634,0.107650,1.873790,0.000656,  46.753
   142.8,0.183756,0.108365,1.880881,0.000669,  46.749
   143.0,0.184874,0.109076,1.891084,0.000682,  46.745
   143.2,0.185973,0.109783,1.901540,0.000696,  46.741
   143.4,0.187070,0.110484,1.912766,0.000709,  46.736
   143.6,0.188149,0.111173,1.923783,0.000722,  46.732
   143.8,0.189212,0.111865,1.933458,0.000736,  46.732
   144.0,0.190270,0.112550,1.942809,0.000762,  46.728
   144.2,0.191299,0.113215,1.952917,0.000776,  46.724
   144.4,0.192318,0.113876,1.962673,0.000789,  46.720
   144.6,0.193319,0.114525,1.971461,0.000816,  46.714
   144.8,0.194304,0.115073,1.980442,0.000829,  46.712
   145.0,0.195276,0.115574,1.989624,0.000856,  46.709
   145.2,0.196234,0.116018,1.997752,0.000882,  46.704
   145.4,0.197179,0.116411,2.006662,0.000896,  46.700
   145.6,0.198120,0.116989,2.015108,0.000896,  46.697
   145.8,0.199046,0.117611,2.023058,0.000922,  46.694
   146.0,0.199966,0.118278,2.031827,0.000936,  46.686
   146.2,0.200871,0.118882,2.039397,0.000949,  46.677
   146.4,0.201757,0.119474,2.047108,0.000962,  46.676
   146.6,0.202623,0.120060,2.055671,0.000989,  46.666
   146.8,0.203483,0.120635,2.062950,0.000989,  46.644
   147.0,0.204323,0.121206,2.069614,0.001002,  46.638
   147.2,0.205144,0.121764,2.077110,0.001029,  46.636
   147.4,0.205957,0.122311,2.084742,0.001042,  46.626
   147.6,0.206755,0.122850,2.090935,0.001069,  46.621
   147.8,0.207537,0.123380,2.096510,0.001047,  46.614
   148.0,0.208308,0.123906,2.102199,0.001061,  46.606
   148.2,0.209067,0.124421,2.106384,0.001087,  46.597
   148.4,0.209811,0.124934,2.112902,0.001052,  46.593
   148.6,0.210444,0.125433,2.119460,0.001087,  46.582
   148.8,0.211008,0.125930,2.126906,0.001114,  46.574
   149.0,0.211509,0.126416,2.132840,0.001092,  46.565
   149.2,0.211945,0.126885,2.139748,0.001154,  46.556
   149.4,0.212585,0.127350,2.145001,0.001167,  46.531
   149.6,0.213257,0.127802,2.151209,0.001181,  46.523
   149.8,0.213968,0.128255,2.156610,0.001216,  46.516
   150.0,0.214633,0.128710,2.162091,0.001229,  46.498
   150.2,0.215278,0.129157,2.167630,0.001243,  46.494
   150.4,0.215918,0.129590,2.173241,0.001269,  46.475
   150.6,0.216538,0.130013,2.177982,0.001247,  46.465
   150.8,0.217137,0.130428,2.182803,0.001261,  46.450
   151.0,0.217715,0.130833,2.187700,0.001226,  46.431
   151.2,0.218293,0.131228,2.190704,0.001261,  46.405
   151.4,0.218862,0.131608,2.194663,0.001252,  46.395
   151.6,0.219416,0.131994,2.198642,0.001287,  46.382
   151.8,0.219966,0.132384,2.201632,0.001287,  46.366
   152.0,0.220512,0.132762,2.204627,0.001314,  46.343
   152.2,0.221048,0.133124,2.209714,0.001306,  46.336
   152.4,0.221569,0.133480,2.212800,0.001354,  46.316
   152.6,0.222082,0.133822,2.217995,0.001346,  46.281
   152.8,0.222578,0.134168,2.223260,0.001359,  46.265
   153.0,0.223070,0.134508,2.226460,0.001372,  46.239
   153.2,0.223544,0.134841,2.229695,0.001364,  46.226
   153.4,0.224006,0.135123,2.234005,0.001412,  46.206
   153.6,0.224473,0.135373,2.238354,0.001412,  46.172
   153.8,0.224932,0.135594,2.240525,0.001391,  46.148
   154.0,0.225382,0.135790,2.243828,0.001439,  46.117
   154.2,0.225828,0.136064,2.248294,0.001466,  46.105
   154.4,0.226261,0.136362,2.250550,0.001444,  46.084
   154.6,0.226690,0.136680,2.253925,0.001493,  46.039
   154.8,0.227110,0.136967,2.258469,0.001506,  46.021
   155.0,0.227513,0.137261,2.260745,0.001497,  45.989
   155.2,0.227908,0.137550,2.264208,0.001533,  45.954
   155.4,0.228307,0.137824,2.267704,0.001533,  45.924
   155.6,0.228698,0.138095,2.270058,0.001511,  45.897
   155.8,0.229089,0.138355,2.272436,0.001559,  45.869
   156.0,0.229480,0.138616,2.276026,0.001573,  45.832
   156.2,0.229872,0.138876,2.278465,0.001564,  45.791
   156.4,0.230259,0.139133,2.282089,0.001613,  45.763
   156.6,0.230656,0.139386,2.284511,0.001613,  45.728
   156.8,0.231045,0.139639,2.288169,0.001604,  45.680
   157.0,0.231433,0.139890,2.291904,0.001653,  45.636
   157.2,0.231827,0.140141,2.294437,0.001653,  45.593
   157.4,0.232216,0.140402,2.295764,0.001631,  45.558
   157.6,0.232601,0.140662,2.299540,0.001666,  45.518
   157.8,0.232937,0.140918,2.303333,0.001680,  45.466
   158.0,0.233241,0.141163,2.304581,0.001671,  45.419
   158.2,0.233522,0.141407,2.307160,0.001706,  45.374
   158.4,0.233768,0.141656,2.311059,0.001720,  45.332
   158.6,0.234136,0.141911,2.312407,0.001698,  45.292
   158.8,0.234536,0.142163,2.316309,0.001746,  45.239
   159.0,0.234965,0.142410,2.318903,0.001746,  45.180
   159.2,0.235380,0.142666,2.321490,0.001711,  45.131
   159.4,0.235804,0.142915,2.325460,0.001760,  45.088
   159.6,0.236229,0.143168,2.329467,0.001760,  45.025
   159.8,0.236672,0.143431,2.330794,0.001773,  44.973
   160.0,0.237126,0.143700,2.334885,0.001738,  44.897
   160.2,0.237593,0.143967,2.339031,0.001800,  44.861
   160.4,0.238075,0.144250,2.340461,0.001800,  44.786
   160.6,0.238571,0.144536,2.343250,0.001778,  44.737
   160.8,0.239072,0.144829,2.346041,0.001778,  44.663
   161.0,0.239592,0.145134,2.348861,0.001800,  44.580
   161.2,0.240122,0.145440,2.350261,0.001778,  44.536
   161.4,0.240673,0.145750,2.353093,0.001813,  44.463
   161.6,0.241228,0.146070,2.357383,0.001813,  44.408
   161.8,0.241786,0.146388,2.360267,0.001791,  44.329
   162.0,0.242362,0.146712,2.366111,0.001827,  44.242
   162.2,0.242956,0.147034,2.367586,0.001813,  44.184
   162.4,0.243553,0.147368,2.370561,0.001813,  44.118
   162.6,0.244174,0.147718,2.375063,0.001800,  44.042
   162.8,0.244826,0.148079,2.378101,0.001795,  43.979
   163.0,0.245496,0.148461,2.381171,0.001760,  43.885
   163.2,0.246189,0.148794,2.385778,0.001760,  43.817
   163.4,0.246915,0.149107,2.390428,0.001733,  43.732
   163.6,0.247659,0.149405,2.393547,0.001684,  43.652
   163.8,0.248440,0.149680,2.398260,0.001706,  43.581
   164.0,0.249231,0.150083,2.403030,0.001680,  43.478
   164.2,0.250035,0.150521,2.406230,0.001631,  43.413
   164.4,0.250878,0.151003,2.409444,0.001640,  43.331
   164.6,0.251739,0.151470,2.414324,0.001626,  43.245
   164.8,0.252624,0.151959,2.419265,0.001578,  43.177
   165.0,0.253543,0.152459,2.422672,0.001599,  43.068
   165.2,0.254490,0.152973,2.426149,0.001586,  43.007
   165.4,0.255453,0.153505,2.429708,0.001537,  42.915
   165.6,0.256449,0.154052,2.436585,0.001559,  42.830
   165.8,0.257466,0.154609,2.440021,0.001559,  42.739
   166.0,0.258504,0.155176,2.443435,0.001524,  42.635
   166.2,0.259570,0.155755,2.450487,0.001533,  42.572
   166.4,0.260497,0.156343,2.454037,0.001493,  42.495
   166.6,0.261356,0.156946,2.459439,0.001444,  42.411
   166.8,0.262166,0.157561,2.464921,0.001466,  42.319
   167.0,0.262914,0.158197,2.470484,0.001426,  42.222
   167.2,0.264017,0.158859,2.474233,0.001377,  42.154
   167.4,0.265248,0.159541,2.479913,0.001386,  42.066
   167.6,0.266589,0.160256,2.485663,0.001359,  41.985
   167.8,0.267876,0.161002,2.487590,0.001310,  41.910
   168.0,0.269174,0.161783,2.491497,0.001332,  41.809
   168.2,0.270509,0.162552,2.497427,0.001306,  41.749
   168.4,0.271861,0.163333,2.501441,0.001292,  41.661
   168.6,0.273227,0.164128,2.505475,0.001244,  41.586
   168.8,0.274624,0.164932,2.509542,0.001266,  41.505
   169.0,0.276029,0.165753,2.515726,0.001239,  41.415
   169.2,0.277459,0.166582,2.522000,0.001190,  41.351
   169.4,0.278915,0.167419,2.526242,0.001150,  41.289
   169.6,0.280370,0.168278,2.528382,0.001159,  41.213
   169.8,0.281840,0.169151,2.530587,0.001097,  41.139
   170.0,0.283325,0.170020,2.534992,0.001119,  41.052
   170.2,0.284821,0.170895,2.537284,0.001105,  40.998
   170.4,0.286317,0.171771,2.539616,0.001057,  40.945
   170.6,0.287817,0.172663,2.544019,0.001092,  40.880
   170.8,0.289340,0.173571,2.546191,0.001092,  40.811
   171.0,0.290868,0.174486,2.550586,0.001057,  40.753
   171.2,0.292412,0.175396,2.557345,0.001079,  40.706
   171.4,0.293953,0.176323,2.559593,0.001039,  40.659
   171.6,0.295500,0.177252,2.561858,0.001003,  40.606
   171.8,0.297058,0.178045,2.566470,0.001039,  40.553
   172.0,0.298605,0.178774,2.571132,0.001025,  40.504
   172.2,0.300154,0.179427,2.573471,0.000990,  40.467
   172.4,0.301698,0.180025,2.578227,0.001025,  40.435
   172.6,0.303209,0.180882,2.580644,0.001025,  40.386
   172.8,0.304723,0.181809,2.583086,0.000990,  40.364
   173.0,0.306220,0.182808,2.585535,0.001039,  40.334
   173.2,0.307693,0.183720,2.590481,0.001039,  40.303
   173.4,0.309149,0.184624,2.590525,0.001017,  40.283
   173.6,0.310589,0.185511,2.593022,0.001052,  40.268
   173.8,0.311995,0.186392,2.595533,0.001052,  40.250
   174.0,0.313374,0.187262,2.598058,0.001030,  40.219
   174.2,0.314730,0.188120,2.603081,0.001079,  40.217
   174.4,0.316068,0.188960,2.603031,0.001105,  40.208
   174.6,0.317378,0.189786,2.605512,0.001083,  40.207
   174.8,0.318663,0.190603,2.608052,0.001132,  40.204
   175.0,0.319931,0.191413,2.610624,0.001145,  40.208
   175.2,0.321168,0.192211,2.610629,0.001137,  40.207
   175.4,0.322387,0.193005,2.613205,0.001185,  40.219
   175.6,0.323582,0.193764,2.613189,0.001199,  40.228
   175.8,0.324746,0.194493,2.615770,0.001190,  40.240
   176.0,0.325879,0.195205,2.618383,0.001239,  40.256
   176.2,0.326841,0.195915,2.618388,0.001266,  40.267
   176.4,0.327698,0.196610,2.621040,0.001257,  40.306
   176.6,0.328454,0.197295,2.623690,0.001319,  40.326
   176.8,0.329105,0.197941,2.623696,0.001346,  40.355
   177.0,0.330017,0.198564,2.623701,0.001337,  40.398
   177.2,0.330960,0.199163,2.626368,0.001399,  40.421
   177.4,0.331939,0.199732,2.626368,0.001439,  40.457
   177.6,0.332794,0.200280,2.626368,0.001457,  40.504
   177.8,0.333600,0.200803,2.629046,0.001506,  40.541
   178.0,0.334356,0.201306,2.629041,0.001533,  40.605
   178.2,0.335078,0.201788,2.629035,0.001559,  40.637
   178.4,0.335750,0.202244,2.631747,0.001564,  40.694
   178.6,0.336377,0.202679,2.634475,0.001599,  40.737
   178.8,0.337005,0.203100,2.631774,0.001626,  40.798
   179.0,0.337599,0.203498,2.634497,0.001631,  40.873
   179.2,0.338176,0.203893,2.631769,0.001658,  40.908
   179.4,0.338702,0.204273,2.634475,0.001720,  40.977
   179.6,0.339194,0.204647,2.631741,0.001711,  41.043
   179.8,0.339659,0.204958,2.631741,0.001787,  41.096
   180.0,0.340065,0.205240,2.631741,0.001827,  41.184
   180.2,0.340431,0.205488,2.631752,0.001818,  41.238
   180.4,0.340750,0.205724,2.631758,0.001893,  41.314
   180.6,0.341070,0.205942,2.634497,0.001934,  41.376
   180.8,0.341355,0.206141,2.631791,0.001938,  41.451
   181.0,0.341612,0.206309,2.631791,0.001987,  41.546
   181.2,0.341827,0.206449,2.634514,0.001987,  41.605
   181.4,0.342008,0.206559,2.631791,0.001992,  41.684
   181.6,0.342142,0.206646,2.631785,0.002067,  41.752
   181.8,0.342230,0.206745,2.634497,0.002094,  41.835
   182.0,0.342276,0.206829,2.631758,0.002086,  41.930
   182.2,0.342276,0.206909,2.631791,0.002161,  41.993
   182.4,0.342247,0.206956,2.631846,0.002188,  42.077
   182.6,0.342189,0.206989,2.629218,0.002179,  42.158
   182.8,0.342090,0.206998,2.629218,0.002241,  42.228
   183.0,0.341991,0.206997,2.629195,0.002268,  42.325
   183.2,0.341863,0.206992,2.629157,0.002273,  42.394
   183.4,0.341700,0.206970,2.626518,0.002348,  42.478
   183.6,0.341514,0.206930,2.626606,0.002362,  42.562
   183.8,0.341286,0.206881,2.626738,0.002367,  42.648
   184.0,0.341024,0.206814,2.624055,0.002442,  42.742
   184.2,0.340733,0.206705,2.623988,0.002469,  42.808
   184.4,0.340413,0.206569,2.623878,0.002460,  42.877
   184.6,0.340065,0.206404,2.626567,0.002522,  42.961
   184.8,0.339780,0.206237,2.623944,0.002549,  43.041
   185.0,0.339519,0.206069,2.618731,0.002541,  43.146
   185.2,0.339276,0.205886,2.621343,0.002554,  43.209
   185.4,0.339050,0.205684,2.618642,0.002581,  43.282
   185.6,0.338674,0.205472,2.615924,0.002572,  43.357
   185.8,0.338258,0.205250,2.615880,0.002586,  43.441
   186.0,0.337778,0.205005,2.613244,0.002634,  43.536
   186.2,0.337300,0.204746,2.610640,0.002612,  43.600
   186.4,0.336781,0.204467,2.610624,0.002626,  43.667
   186.6,0.336234,0.204169,2.608041,0.002674,  43.742
   186.8,0.335681,0.203843,2.605484,0.002666,  43.820
   187.0,0.335107,0.203496,2.602931,0.002679,  43.899
   187.2,0.334510,0.203186,2.602926,0.002728,  43.960
   187.4,0.333938,0.202887,2.600394,0.002741,  44.036
   187.6,0.333360,0.202592,2.600388,0.002768,  44.096
   187.8,0.332777,0.202281,2.597870,0.002755,  44.173
   188.0,0.332155,0.201969,2.595367,0.002755,  44.255
   188.2,0.331512,0.201650,2.592867,0.002768,  44.315
   188.4,0.330841,0.201276,2.590382,0.002782,  44.374
   188.6,0.330148,0.200877,2.590360,0.002808,  44.442
   188.8,0.329434,0.200451,2.587888,0.002800,  44.496
   189.0,0.328681,0.200042,2.587893,0.002813,  44.577
   189.2,0.327969,0.199633,2.585463,0.002835,  44.633
   189.4,0.327252,0.199227,2.580633,0.002813,  44.689
   189.6,0.326543,0.198816,2.578216,0.002813,  44.756
   189.8,0.325795,0.198401,2.575795,0.002835,  44.801
   190.0,0.325015,0.197980,2.573377,0.002813,  44.878
   190.2,0.324226,0.197535,2.573421,0.002813,  44.914
   190.4,0.323420,0.197077,2.571137,0.002849,  44.980
   190.6,0.322588,0.196597,2.564229,0.002827,  45.021
   190.8,0.321753,0.196188,2.561919,0.002827,  45.081
   191.0,0.320913,0.195806,2.559598,0.002875,  45.135
   191.2,0.320058,0.195451,2.554977,0.002854,  45.185
   191.4,0.319206,0.195121,2.552670,0.002854,  45.224
   191.6,0.318348,0.194672,2.550376,0.002889,  45.279
   191.8,0.317494,0.194198,2.548087,0.002867,  45.320
   192.0,0.316642,0.193693,2.545838,0.002880,  45.381
   192.2,0.315745,0.193198,2.543611,0.002902,  45.406
   192.4,0.314830,0.192694,2.539201,0.002867,  45.445
   192.6,0.313895,0.192183,2.534914,0.002880,  45.497
   192.8,0.312955,0.191652,2.530720,0.002902,  45.530
   193.0,0.312013,0.191113,2.524483,0.002867,  45.566
   193.2,0.311051,0.190554,2.522364,0.002880,  45.606
   193.4,0.310123,0.190013,2.520205,0.002902,  45.641
   193.6,0.309230,0.189475,2.515914,0.002867,  45.669
   193.8,0.308339,0.188939,2.513791,0.002867,  45.714
   194.0,0.307552,0.188393,2.507592,0.002889,  45.747
   194.2,0.306808,0.187842,2.503500,0.002854,  45.769
   194.4,0.306137,0.187299,2.499457,0.002854,  45.811
   194.6,0.305509,0.186743,2.497449,0.002889,  45.837
   194.8,0.304609,0.186168,2.491508,0.002854,  45.858
   195.0,0.303632,0.185589,2.487623,0.002854,  45.888
   195.2,0.302582,0.185018,2.481869,0.002889,  45.923
   195.4,0.301597,0.184433,2.476219,0.002840,  45.949
   195.6,0.300632,0.183842,2.472431,0.002840,  45.968
   195.8,0.299663,0.183274,2.468649,0.002840,  45.983
   196.0,0.298695,0.182714,2.464871,0.002827,  46.008
   196.2,0.297747,0.182156,2.462988,0.002827,  46.039
   196.4,0.296806,0.181601,2.457474,0.002792,  46.054
   196.6,0.295823,0.181059,2.452024,0.002827,  46.074
   196.8,0.294829,0.180517,2.448427,0.002827,  46.095
   197.0,0.293815,0.179928,2.443109,0.002778,  46.109
   197.2,0.292793,0.179325,2.436127,0.002827,  46.138
   197.4,0.291769,0.178708,2.430967,0.002805,  46.149
   197.6,0.290721,0.178109,2.429266,0.002827,  46.167
   197.8,0.289727,0.177513,2.424197,0.002800,  46.180
   198.0,0.288762,0.176928,2.420860,0.002765,  46.190
   198.2,0.287809,0.176332,2.415872,0.002800,  46.204
   198.4,0.286805,0.175742,2.409300,0.002773,  46.216
   198.6,0.285790,0.175153,2.404431,0.002738,  46.245
   198.8,0.284761,0.174545,2.398039,0.002773,  46.252
   199.0,0.283719,0.173936,2.391745,0.002760,  46.270
   199.2,0.282669,0.173322,2.387094,0.002711,  46.275
   199.4,0.281614,0.172800,2.382493,0.002733,  46.282
   199.6,0.280574,0.172315,2.376436,0.002720,  46.290
   199.8,0.279549,0.171874,2.368988,0.002671,  46.303
   200.0,0.278531,0.171480,2.364570,0.002671,  46.311
   200.2,0.277498,0.170913,2.358740,0.002684,  46.318
   200.4,0.276475,0.170299,2.351562,0.002636,  46.326
   200.6,0.275438,0.169651,2.345903,0.002658,  46.351
   200.8,0.274388,0.169028,2.340317,0.002688,  46.356
   201.0,0.273342,0.168411,2.333434,0.002653,  46.368
   201.2,0.272278,0.167784,2.326664,0.002666,  46.370
   201.4,0.271206,0.167146,2.319999,0.002653,  46.376
   201.6,0.270133,0.166501,2.313434,0.002617,  46.381
   201.8,0.269049,0.165854,2.306950,0.002653,  46.384
   202.0,0.267999,0.165231,2.299292,0.002639,  46.393
   202.2,0.266967,0.164619,2.291754,0.002604,  46.396
   202.4,0.265964,0.164018,2.285583,0.002626,  46.403
   202.6,0.265074,0.163407,2.279509,0.002612,  46.406
   202.8,0.264255,0.162797,2.271151,0.002564,  46.402
   203.0,0.263504,0.162187,2.264097,0.002599,  46.405
   203.2,0.262819,0.161561,2.258303,0.002586,  46.411
   203.4,0.261840,0.160930,2.250318,0.002550,  46.415
   203.6,0.260770,0.160289,2.242481,0.002559,  46.418
   203.8,0.259620,0.159658,2.235890,0.002546,  46.420
   204.0,0.258569,0.159031,2.227252,0.002510,  46.421
   204.2,0.257537,0.158402,2.220887,0.002532,  46.421
   204.4,0.256511,0.157791,2.213587,0.002519,  46.427
   204.6,0.255490,0.157194,2.206408,0.002519,  46.430
   204.8,0.254490,0.156604,2.200339,0.002519,  46.430
   205.0,0.253490,0.155998,2.193358,0.002470,  46.430
   205.2,0.252462,0.155385,2.185510,0.002492,  46.427
   205.4,0.251434,0.154771,2.178761,0.002492,  46.433
   205.6,0.250399,0.154140,2.174004,0.002457,  46.448
   205.8,0.249331,0.153498,2.167426,0.002479,  46.450
   206.0,0.248255,0.152860,2.161875,0.002430,  46.458
   206.2,0.247168,0.152243,2.154576,0.002452,  46.453
   206.4,0.246133,0.151633,2.145627,0.002452,  46.456
   206.6,0.245115,0.151031,2.137727,0.002417,  46.455
   206.8,0.244120,0.150412,2.130809,0.002438,  46.460
   207.0,0.243083,0.149794,2.122321,0.002412,  46.459
   207.2,0.242020,0.149159,2.114815,0.002376,  46.462
   207.4,0.240957,0.148524,2.107430,0.002412,  46.461
   207.6,0.239891,0.147894,2.099365,0.002398,  46.462
   207.8,0.238817,0.147253,2.090671,0.002363,  46.460
   208.0,0.237739,0.146714,2.082918,0.002385,  46.461
   208.2,0.236695,0.146223,2.075306,0.002371,  46.461
   208.4,0.235667,0.145775,2.066357,0.002323,  46.464
   208.6,0.234656,0.145383,2.058302,0.002345,  46.461
   208.8,0.233638,0.144806,2.050399,0.002331,  46.457
   209.0,0.232626,0.144191,2.042643,0.002296,  46.457
   209.2,0.231621,0.143538,2.034353,0.002318,  46.456
   209.4,0.230586,0.142910,2.026235,0.002318,  46.456
   209.6,0.229535,0.142284,2.017630,0.002283,  46.458
   209.8,0.228483,0.141650,2.009792,0.002318,  46.456
   210.0,0.227429,0.141002,2.000800,0.002291,  46.458
   210.2,0.226349,0.140352,1.990747,0.002256,  46.459
   210.4,0.225276,0.139696,1.982136,0.002291,  46.456
   210.6,0.224238,0.139071,1.974288,0.002278,  46.457
   210.8,0.223215,0.138459,1.964823,0.002229,  46.457
   211.0,0.222211,0.137860,1.956705,0.002251,  46.454
   211.2,0.221327,0.137249,1.948172,0.002238,  46.452
   211.4,0.220520,0.136635,1.939809,0.002189,  46.453
   211.6,0.219771,0.136019,1.931074,0.002211,  46.452
   211.8,0.219100,0.135390,1.921992,0.002197,  46.456
   212.0,0.218133,0.134756,1.913103,0.002176,  46.455
   212.2,0.217095,0.134112,1.904359,0.002162,  46.454
   212.4,0.215981,0.133491,1.895284,0.002149,  46.457
   212.6,0.214958,0.132879,1.886383,0.002114,  46.456
   212.8,0.213925,0.132275,1.878149,0.002100,  46.452
   213.0,0.212908,0.131677,1.870084,0.002122,  46.451
   213.2,0.211913,0.131082,1.861711,0.002109,  46.457
   213.4,0.210923,0.130494,1.853496,0.002073,  46.454
   213.6,0.209956,0.129899,1.845434,0.002095,  46.457
   213.8,0.208967,0.129301,1.837100,0.002095,  46.457
   214.0,0.207971,0.128701,1.829763,0.002060,  46.457
   214.2,0.206984,0.128076,1.823380,0.002082,  46.459
   214.4,0.205964,0.127449,1.816252,0.002069,  46.461
   214.6,0.204934,0.126809,1.810052,0.002033,  46.457
   214.8,0.203891,0.126208,1.801947,0.002020,  46.453
   215.0,0.202895,0.125618,1.793208,0.002055,  46.452
   215.2,0.201913,0.125045,1.783491,0.002033,  46.459
   215.4,0.200951,0.124448,1.774720,0.002007,  46.451
   215.6,0.199957,0.123842,1.766116,0.002028,  46.456
   215.8,0.198958,0.123229,1.757679,0.001993,  46.458
   216.0,0.197955,0.122613,1.749041,0.001980,  46.454
   216.2,0.196956,0.121999,1.740222,0.002002,  46.459
   216.4,0.195950,0.121389,1.731572,0.001966,  46.461
   216.6,0.194950,0.120871,1.723107,0.001953,  46.460
   216.8,0.193962,0.120403,1.714158,0.001975,  46.454
   217.0,0.192966,0.119973,1.705395,0.001926,  46.455
   217.2,0.191984,0.119596,1.696817,0.001926,  46.453
   217.4,0.191024,0.119053,1.687810,0.001948,  46.459
   217.6,0.190071,0.118471,1.678998,0.001913,  46.457
   217.8,0.189137,0.117851,1.670634,0.001886,  46.457
   218.0,0.188159,0.117269,1.661846,0.001908,  46.457
   218.2,0.187163,0.116691,1.652943,0.001873,  46.458
   218.4,0.186158,0.116116,1.644454,0.001873,  46.457
   218.6,0.185174,0.115514,1.635843,0.001895,  46.451
   218.8,0.184190,0.114893,1.626833,0.001859,  46.448
   219.0,0.183220,0.114252,1.618306,0.001859,  46.449
   219.2,0.182258,0.113660,1.610211,0.001868,  46.454
   219.4,0.181292,0.113085,1.601520,0.001819,  46.451
   219.6,0.180353,0.112521,1.593231,0.001819,  46.449
   219.8,0.179530,0.111935,1.585098,0.001841,  46.452
   220.0,0.178775,0.111347,1.576640,0.001793,  46.455
   220.2,0.178089,0.110762,1.568099,0.001793,  46.450
   220.4,0.177466,0.110177,1.559486,0.001828,  46.453
   220.6,0.176562,0.109586,1.550374,0.001806,  46.452
   220.8,0.175601,0.108998,1.541676,0.001793,  46.452
   221.0,0.174565,0.108414,1.532937,0.001801,  46.456
   221.2,0.173618,0.107834,1.524170,0.001766,  46.457
   221.4,0.172676,0.107254,1.515976,0.001752,  46.457
   221.6,0.171747,0.106690,1.507934,0.001761,  46.456
   221.8,0.170838,0.106138,1.499831,0.001748,  46.462
   222.0,0.169932,0.105600,1.491696,0.001726,  46.460
   222.2,0.169049,0.105043,1.483723,0.001748,  46.459
   222.4,0.168126,0.104492,1.475520,0.001748,  46.459
   222.6,0.167191,0.103938,1.468395,0.001712,  46.460
   222.8,0.166251,0.103361,1.461569,0.001734,  46.462
   223.0,0.165318,0.102777,1.455211,0.001721,  46.465
   223.2,0.164381,0.102181,1.449307,0.001672,  46.467
   223.4,0.163451,0.101621,1.441694,0.001659,  46.467
   223.6,0.162540,0.101077,1.433695,0.001694,  46.468
   223.8,0.161640,0.100543,1.425322,0.001672,  46.470
   224.0,0.160754,0.099985,1.417140,0.001646,  46.471
   224.2,0.159852,0.099432,1.408959,0.001667,  46.473
   224.4,0.158946,0.098867,1.400462,0.001632,  46.473
   224.6,0.158051,0.098314,1.392247,0.001632,  46.478
   224.8,0.157147,0.097766,1.384173,0.001654,  46.473
   225.0,0.156235,0.097219,1.376079,0.001619,  46.475
   225.2,0.155337,0.096752,1.368159,0.001619,  46.481
   225.4,0.154458,0.096326,1.359957,0.001627,  46.479
   225.6,0.153584,0.095938,1.352065,0.001579,  46.481
   225.8,0.152726,0.095591,1.344422,0.001579,  46.483
   226.0,0.151867,0.095098,1.336625,0.001601,  46.480
   226.2,0.151006,0.094572,1.328970,0.001552,  46.478
   226.4,0.150151,0.094011,1.321092,0.001552,  46.485
   226.6,0.149263,0.093474,1.313242,0.001587,  46.488
   226.8,0.148355,0.092934,1.305183,0.001565,  46.484
   227.0,0.147434,0.092388,1.297315,0.001552,  46.488
   227.2,0.146564,0.091848,1.289431,0.001561,  46.486
   227.4,0.145706,0.091311,1.281548,0.001539,  46.488
   227.6,0.144864,0.090775,1.273535,0.001539,  46.487
   227.8,0.144021,0.090246,1.265351,0.001561,  46.489
   228.0,0.143182,0.089732,1.256907,0.001525,  46.493
   228.2,0.142346,0.089226,1.249514,0.001525,  46.489
   228.4,0.141629,0.088702,1.242420,0.001534,  46.489
   228.6,0.140971,0.088180,1.235514,0.001485,  46.492
   228.8,0.140367,0.087659,1.228131,0.001472,  46.496
   229.0,0.139835,0.087137,1.220565,0.001467,  46.496
   229.2,0.139045,0.086622,1.212932,0.001445,  46.496
   229.4,0.138185,0.086115,1.205447,0.001445,  46.495
   229.6,0.137273,0.085599,1.197900,0.001458,  46.500
   229.8,0.136451,0.085093,1.190395,0.001458,  46.494
   230.0,0.135646,0.084593,1.183190,0.001458,  46.499
   230.2,0.134856,0.084098,1.176001,0.001445,  46.501
   230.4,0.134074,0.083613,1.168930,0.001432,  46.498
   230.6,0.133291,0.083136,1.162037,0.001432,  46.496
   230.8,0.132516,0.082638,1.155250,0.001397,  46.503
   231.0,0.131717,0.082142,1.148467,0.001432,  46.499
   231.2,0.130899,0.081640,1.142343,0.001410,  46.502
   231.4,0.130061,0.081144,1.136655,0.001397,  46.501
   231.6,0.129257,0.080651,1.131218,0.001405,  46.500
   231.8,0.128461,0.080160,1.126120,0.001418,  46.496
   232.0,0.127670,0.079675,1.119330,0.001405,  46.494
   232.2,0.126888,0.079195,1.112164,0.001392,  46.500
   232.4,0.126110,0.078725,1.104642,0.001392,  46.504
   232.6,0.125338,0.078237,1.097745,0.001378,  46.501
   232.8,0.124567,0.077751,1.090860,0.001365,  46.497
   233.0,0.123790,0.077264,1.084054,0.001365,  46.499
   233.2,0.123021,0.076779,1.077238,0.001365,  46.500
   233.4,0.122248,0.076302,1.070234,0.001352,  46.498
   233.6,0.121479,0.075825,1.063278,0.001338,  46.499
   233.8,0.120717,0.075424,1.056499,0.001338,  46.503
   234.0,0.119962,0.075064,1.049763,0.001325,  46.502
   234.2,0.119218,0.074735,1.043072,0.001312,  46.501
   234.4,0.118482,0.074448,1.036460,0.001312,  46.502
   234.6,0.117744,0.074027,1.029879,0.001312,  46.497
   234.8,0.116996,0.073572,1.023401,0.001325,  46.501
   235.0,0.116254,0.073088,1.016953,0.001312,  46.501
   235.2,0.115492,0.072620,1.010474,0.001298,  46.499
   235.4,0.114717,0.072142,1.004037,0.001312,  46.503
   235.6,0.113930,0.071661,0.997369,0.001285,  46.506
   235.8,0.113196,0.071201,0.990615,0.001271,  46.501
   236.0,0.112477,0.070751,0.983787,0.001271,  46.500
   236.2,0.111780,0.070309,0.977295,0.001271,  46.503
   236.4,0.111064,0.069864,0.970957,0.001258,  46.502
   236.6,0.110355,0.069423,0.964651,0.001258,  46.499
   236.8,0.109650,0.068987,0.958274,0.001258,  46.500
   237.0,0.109043,0.068539,0.951831,0.001245,  46.503
   237.2,0.108485,0.068097,0.945319,0.001245,  46.502
   237.4,0.107991,0.067650,0.938998,0.001245,  46.507
   237.6,0.107542,0.067206,0.932665,0.001231,  46.505
   237.8,0.106874,0.066760,0.926370,0.001183,  46.506
   238.0,0.106158,0.066319,0.920160,0.001183,  46.506
   238.2,0.105396,0.065895,0.914031,0.001169,  46.507
   238.4,0.104701,0.065472,0.907891,0.001121,  46.506
   238.6,0.104032,0.065066,0.901972,0.001121,  46.506
   238.8,0.103375,0.064657,0.896182,0.001156,  46.505
   239.0,0.102703,0.064248,0.890506,0.001156,  46.511
   239.2,0.102044,0.063853,0.884558,0.001156,  46.509
   239.4,0.101377,0.063434,0.878527,0.001156,  46.508
   239.6,0.100695,0.063012,0.872318,0.001143,  46.511
   239.8,0.100019,0.062585,0.866313,0.001121,  46.508
   240.0,0.099338,0.062169,0.860328,0.001143,  46.509
   240.2,0.098665,0.061755,0.854271,0.001143,  46.510
   240.4,0.098013,0.061347,0.849382,0.001156,  46.512
   240.6,0.097372,0.060941,0.845079,0.001129,  46.515
   240.8,0.096719,0.060547,0.841208,0.001116,  46.511
   241.0,0.096080,0.060158,0.837856,0.001116,  46.509
   241.2,0.095448,0.059755,0.832364,0.001116,  46.512
   241.4,0.094801,0.059356,0.826294,0.001103,  46.516
   241.6,0.094158,0.058956,0.819740,0.001103,  46.516
   241.8,0.093522,0.058555,0.814038,0.001103,  46.513
   242.0,0.092878,0.058159,0.808510,0.001076,  46.512
   242.2,0.092241,0.057760,0.803156,0.001098,  46.514
   242.4,0.091605,0.057374,0.797802,0.001098,  46.517
   242.6,0.090987,0.056992,0.792468,0.001071,  46.517
   242.8,0.090388,0.056610,0.787204,0.001106,  46.520
   243.0,0.089791,0.056289,0.781903,0.001093,  46.518
   243.2,0.089175,0.055991,0.776569,0.001058,  46.523
   243.4,0.088569,0.055727,0.771279,0.001071,  46.525
   243.6,0.087955,0.055490,0.765920,0.001045,  46.520
   243.8,0.087326,0.055130,0.760554,0.001031,  46.524
   244.0,0.086700,0.054739,0.755108,0.001045,  46.525
   244.2,0.086069,0.054314,0.749766,0.001031,  46.528
   244.4,0.085464,0.053942,0.744477,0.001031,  46.544
   244.6,0.084877,0.053574,0.739153,0.001045,  46.549
   244.8,0.084310,0.053211,0.734002,0.001031,  46.546
   245.0,0.083724,0.052851,0.728911,0.001031,  46.546
   245.2,0.083148,0.052491,0.723851,0.001031,  46.548
   245.4,0.082586,0.052133,0.718778,0.001031,  46.547
   245.6,0.082010,0.051776,0.713703,0.001018,  46.552
   245.8,0.081440,0.051417,0.708622,0.001018,  46.549
   246.0,0.080880,0.051060,0.703627,0.001018,  46.546
   246.2,0.080388,0.050701,0.698619,0.001004,  46.548
   246.4,0.079938,0.050345,0.693637,0.001004,  46.547
   246.6,0.079524,0.049980,0.688768,0.001004,  46.551
   246.8,0.079164,0.049627,0.683953,0.000991,  46.551
   247.0,0.078652,0.049283,0.679185,0.000956,  46.554
   247.2,0.078099,0.048950,0.674533,0.000956,  46.552
   247.4,0.077521,0.048613,0.669996,0.000943,  46.553
   247.6,0.076976,0.048282,0.665505,0.000907,  46.552
   247.8,0.076441,0.047961,0.660752,0.000907,  46.553
   248.0,0.075904,0.047625,0.655980,0.000921,  46.553
   248.2,0.075355,0.047282,0.651062,0.000921,  46.551
   248.4,0.074812,0.046933,0.646262,0.000885,  46.552
   248.6,0.074264,0.046598,0.641492,0.000907,  46.553
   248.8,0.073727,0.046264,0.636681,0.000929,  46.551
   249.0,0.073205,0.045931,0.632771,0.000916,  46.556
   249.2,0.072684,0.045603,0.629241,0.000916,  46.555
   249.4,0.072164,0.045289,0.626152,0.000916,  46.556
   249.6,0.071651,0.044974,0.623399,0.000929,  46.556
   249.8,0.071141,0.044658,0.619184,0.000916,  46.556
   250.0,0.070623,0.044342,0.614649,0.000902,  46.558
   250.2,0.070108,0.044030,0.609800,0.000916,  46.552
   250.4,0.069594,0.043714,0.605325,0.000889,  46.555
   250.6,0.069077,0.043396,0.600870,0.000876,  46.555
   250.8,0.068574,0.043070,0.596455,0.000876,  46.552
   251.0,0.068074,0.042803,0.592164,0.000876,  46.551
   251.2,0.067578,0.042561,0.587882,0.000862,  46.554
   251.4,0.067091,0.042346,0.583662,0.000862,  46.554
   251.6,0.066621,0.042153,0.579519,0.000862,  46.553
   251.8,0.066136,0.041873,0.575415,0.000849,  46.555
   252.0,0.065660,0.041574,0.571349,0.000849,  46.552
   252.2,0.065189,0.041247,0.567128,0.000849,  46.551
   252.4,0.064693,0.040937,0.562878,0.000849,  46.555
   252.6,0.064203,0.040626,0.558560,0.000849,  46.553
   252.8,0.063702,0.040315,0.554432,0.000849,  46.554
   253.0,0.063227,0.040019,0.550371,0.000836,  46.556
   253.2,0.062773,0.039730,0.546375,0.000836,  46.549
   253.4,0.062319,0.039445,0.542361,0.000836,  46.551
   253.6,0.061860,0.039163,0.538361,0.000822,  46.556
   253.8,0.061420,0.038878,0.534414,0.000844,  46.552
   254.0,0.060971,0.038596,0.530481,0.000831,  46.547
   254.2,0.060516,0.038319,0.526557,0.000804,  46.554
   254.4,0.060078,0.038037,0.522668,0.000840,  46.551
   254.6,0.059627,0.037757,0.518704,0.000853,  46.549
   254.8,0.059238,0.037474,0.514677,0.000831,  46.551
   255.0,0.058888,0.037186,0.510623,0.000844,  46.554
   255.2,0.058573,0.036901,0.506873,0.000844,  46.553
   255.4,0.058288,0.036629,0.503226,0.000831,  46.552
   255.6,0.057891,0.036361,0.499728,0.000844,  46.557
   255.8,0.057467,0.036107,0.496224,0.000844,  46.554
   256.0,0.057022,0.035846,0.492768,0.000831,  46.553
   256.2,0.056598,0.035585,0.489363,0.000809,  46.559
   256.4,0.056175,0.035329,0.485597,0.000809,  46.554
   256.6,0.055768,0.035066,0.481680,0.000796,  46.552
   256.8,0.055346,0.034800,0.477625,0.000782,  46.555
   257.0,0.054909,0.034529,0.473953,0.000769,  46.553
   257.2,0.054482,0.034269,0.470407,0.000756,  46.553
   257.4,0.054073,0.034015,0.466998,0.000729,  46.557
   257.6,0.053664,0.033757,0.464079,0.000707,  46.554
   257.8,0.053275,0.033501,0.461468,0.000742,  46.550
   258.0,0.052876,0.033255,0.459151,0.000742,  46.550
   258.2,0.052475,0.033011,0.457119,0.000756,  46.548
   258.4,0.052080,0.032762,0.453982,0.000756,  46.552
   258.6,0.051686,0.032514,0.450569,0.000756,  46.554
   258.8,0.051285,0.032268,0.446904,0.000756,  46.551
   259.0,0.050892,0.032022,0.443493,0.000756,  46.550
   259.2,0.050504,0.031774,0.440056,0.000742,  46.553
   259.4,0.050117,0.031528,0.436612,0.000742,  46.551
   259.6,0.049733,0.031323,0.433356,0.000756,  46.550
   259.8,0.049358,0.031137,0.430197,0.000742,  46.551
   260.0,0.048987,0.030974,0.427130,0.000778,  46.548
   260.2,0.048628,0.030830,0.423976,0.000778,  46.550
   260.4,0.048263,0.030615,0.420846,0.000751,  46.549
   260.6,0.047893,0.030380,0.417743,0.000786,  46.554
   260.8,0.047541,0.030124,0.414502,0.000786,  46.548
   261.0,0.047168,0.029886,0.411221,0.000738,  46.552
   261.2,0.046786,0.029652,0.407883,0.000702,  46.548
   261.4,0.046403,0.029417,0.404551,0.000702,  46.551
   261.6,0.046040,0.029191,0.401181,0.000702,  46.555
   261.8,0.045683,0.028977,0.397802,0.000667,  46.553
   262.0,0.045330,0.028760,0.394435,0.000667,  46.554
   262.2,0.044979,0.028539,0.391023,0.000702,  46.555
   262.4,0.044632,0.028320,0.387609,0.000689,  46.557
   262.6,0.044291,0.028105,0.384726,0.000689,  46.557
   262.8,0.043954,0.027888,0.382071,0.000689,  46.554
   263.0,0.043613,0.027672,0.379644,0.000676,  46.554
   263.2,0.043273,0.027465,0.376909,0.000676,  46.557
   263.4,0.042983,0.027253,0.374141,0.000689,  46.557
   263.6,0.042717,0.027037,0.371341,0.000689,  46.557
   263.8,0.042480,0.026826,0.368681,0.000689,  46.554
   264.0,0.042258,0.026614,0.366043,0.000689,  46.556
   264.2,0.041951,0.026411,0.363484,0.000689,  46.554
   264.4,0.041636,0.026208,0.360901,0.000689,  46.551
   264.6,0.041297,0.026009,0.358316,0.000676,  46.555
   264.8,0.040985,0.025810,0.355731,0.000689,  46.552
   265.0,0.040667,0.025620,0.353038,0.000676,  46.557
   265.2,0.040365,0.025420,0.350293,0.000662,  46.557
   265.4,0.040048,0.025211,0.347472,0.000676,  46.552
   265.6,0.039719,0.025004,0.344770,0.000662,  46.557
   265.8,0.039397,0.024810,0.342105,0.000662,  46.554
   266.0,0.039089,0.024619,0.339439,0.000662,  46.553
   266.2,0.038782,0.024438,0.336875,0.000662,  46.550
   266.4,0.038493,0.024248,0.334362,0.000662,  46.553
   266.6,0.038189,0.024057,0.331896,0.000662,  46.555
   266.8,0.037887,0.023866,0.329758,0.000640,  46.552
   267.0,0.037583,0.023683,0.327821,0.000662,  46.554
   267.2,0.037285,0.023493,0.326073,0.000662,  46.556
   267.4,0.036988,0.023314,0.324509,0.000676,  46.556
   267.6,0.036690,0.023133,0.322167,0.000662,  46.556
   267.8,0.036393,0.022946,0.319623,0.000649,  46.557
   268.0,0.036104,0.022764,0.316908,0.000662,  46.553
   268.2,0.035819,0.022583,0.314462,0.000662,  46.558
   268.4,0.035536,0.022407,0.312075,0.000649,  46.557
   268.6,0.035254,0.022233,0.309728,0.000662,  46.558
   268.8,0.034984,0.022060,0.307333,0.000662,  46.560
   269.0,0.034714,0.021883,0.304926,0.000649,  46.554
   269.2,0.034435,0.021712,0.302511,0.000662,  46.559
   269.4,0.034168,0.021561,0.300119,0.000662,  46.555
   269.6,0.033893,0.021422,0.297730,0.000649,  46.555
   269.8,0.033606,0.021298,0.295328,0.000649,  46.557
   270.0,0.033328,0.021184,0.292935,0.000636,  46.559
   270.2,0.033056,0.021029,0.290554,0.000609,  46.554
   270.4,0.032781,0.020862,0.288172,0.000609,  46.555
   270.6,0.032521,0.020684,0.285823,0.000609,  46.554
   270.8,0.032261,0.020518,0.283500,0.000596,  46.558
   271.0,0.031998,0.020353,0.281177,0.000596,  46.558
   271.2,0.031747,0.020199,0.278997,0.000609,  46.560
   271.4,0.031494,0.020038,0.276888,0.000596,  46.562
   271.6,0.031236,0.019875,0.274839,0.000596,  46.558
   271.8,0.030995,0.019713,0.272727,0.000609,  46.558
   272.0,0.030741,0.019557,0.270588,0.000596,  46.562
   272.2,0.030479,0.019400,0.268436,0.000596,  46.562
   272.4,0.030232,0.019242,0.266412,0.000609,  46.561
   272.6,0.030022,0.019087,0.264434,0.000596,  46.561
   272.8,0.029831,0.018937,0.262492,0.000596,  46.563
   273.0,0.029670,0.018789,0.260495,0.000574,  46.560
   273.2,0.029526,0.018638,0.258495,0.000560,  46.562
   273.4,0.029310,0.018489,0.256481,0.000560,  46.561
   273.6,0.029074,0.018339,0.254488,0.000538,  46.562
   273.8,0.028833,0.018187,0.252505,0.000560,  46.560
   274.0,0.028591,0.018038,0.250531,0.000547,  46.563
   274.2,0.028354,0.017886,0.248232,0.000512,  46.562
   274.4,0.028116,0.017741,0.245790,0.000534,  46.565
   274.6,0.027887,0.017602,0.243196,0.000520,  46.560
   274.8,0.027658,0.017464,0.241331,0.000499,  46.560
   275.0,0.027432,0.017324,0.239743,0.000534,  46.564
   275.2,0.027209,0.017179,0.238445,0.000534,  46.564
   275.4,0.026986,0.017044,0.236725,0.000534,  46.566
   275.6,0.026763,0.016904,0.234924,0.000534,  46.563
   275.8,0.026552,0.016764,0.233071,0.000520,  46.565
   276.0,0.026335,0.016621,0.231566,0.000534,  46.563
   276.2,0.026118,0.016482,0.230201,0.000499,  46.562
   276.4,0.025910,0.016343,0.228974,0.000520,  46.566
   276.6,0.025696,0.016207,0.227873,0.000534,  46.569
   276.8,0.025483,0.016076,0.226257,0.000499,  46.565
   277.0,0.025274,0.015949,0.224504,0.000520,  46.566
   277.2,0.025069,0.015825,0.222648,0.000534,  46.565
   277.4,0.024873,0.015696,0.220915,0.000499,  46.568
   277.6,0.024667,0.015566,0.219173,0.000520,  46.571
   277.8,0.024465,0.015446,0.217444,0.000534,  46.564
   278.0,0.024263,0.015332,0.215716,0.000499,  46.567
   278.2,0.024064,0.015231,0.213962,0.000520,  46.568
   278.4,0.023859,0.015133,0.212211,0.000534,  46.567
   278.6,0.023655,0.015049,0.210544,0.000499,  46.570
   278.8,0.023459,0.014931,0.208910,0.000520,  46.565
   279.0,0.023263,0.014811,0.207302,0.000534,  46.567
   279.2,0.023067,0.014681,0.205695,0.000485,  46.563
   279.4,0.022877,0.014561,0.204103,0.000507,  46.566
   279.6,0.022687,0.014443,0.202528,0.000520,  46.567
   279.8,0.022497,0.014327,0.200957,0.000472,  46.566
   280.0,0.022312,0.014211,0.199408,0.000507,  46.567
   280.2,0.022128,0.014093,0.197873,0.000520,  46.561
   280.4,0.021947,0.013980,0.196281,0.000472,  46.569
   280.6,0.021768,0.013864,0.194671,0.000507,  46.563
   280.8,0.021587,0.013745,0.193053,0.000520,  46.567
   281.0,0.021406,0.013633,0.191518,0.000472,  46.566
   281.2,0.021230,0.013521,0.189993,0.000494,  46.568
   281.4,0.021067,0.013410,0.188522,0.000507,  46.571
   281.6,0.020900,0.013310,0.187110,0.000472,  46.571
   281.8,0.020753,0.013204,0.185710,0.000494,  46.571
   282.0,0.020616,0.013101,0.184357,0.000507,  46.570
   282.2,0.020493,0.012997,0.182877,0.000472,  46.567
   282.4,0.020381,0.012889,0.181337,0.000494,  46.569
   282.6,0.020219,0.012781,0.179755,0.000507,  46.567
   282.8,0.020053,0.012670,0.178292,0.000472,  46.569
   283.0,0.019873,0.012564,0.176852,0.000494,  46.565
   283.2,0.019713,0.012457,0.175451,0.000507,  46.571
   283.4,0.019546,0.012354,0.174093,0.000472,  46.565
   283.6,0.019374,0.012242,0.172772,0.000507,  46.571
   283.8,0.019216,0.012144,0.171478,0.000507,  46.569
   284.0,0.019052,0.012045,0.170172,0.000472,  46.569
   284.2,0.018898,0.011940,0.168890,0.000520,  46.572
   284.4,0.018736,0.011840,0.167621,0.000507,  46.571
   284.6,0.018576,0.011743,0.166293,0.000507,  46.570
   284.8,0.018424,0.011640,0.164948,0.000507,  46.571
   285.0,0.018266,0.011543,0.163591,0.000494,  46.569
   285.2,0.018114,0.011450,0.162470,0.000507,  46.572
   285.4,0.017971,0.011355,0.161466,0.000472,  46.573
   285.6,0.017815,0.011264,0.160562,0.000494,  46.572
   285.8,0.017669,0.011179,0.159779,0.000507,  46.571
   286.0,0.017526,0.011084,0.158621,0.000459,  46.570
   286.2,0.017371,0.010991,0.157394,0.000480,  46.577
   286.4,0.017235,0.010900,0.156075,0.000494,  46.574
   286.6,0.017098,0.010808,0.154801,0.000459,  46.576
   286.8,0.016948,0.010715,0.153508,0.000494,  46.572
   287.0,0.016804,0.010623,0.152188,0.000507,  46.571
   287.2,0.016656,0.010549,0.151008,0.000472,  46.572
   287.4,0.016515,0.010476,0.149889,0.000494,  46.568
   287.6,0.016380,0.010417,0.148823,0.000507,  46.572
   287.8,0.016242,0.010358,0.147654,0.000459,  46.575
   288.0,0.016104,0.010279,0.146459,0.000480,  46.575
   288.2,0.015972,0.010190,0.145244,0.000494,  46.572
   288.4,0.015843,0.010099,0.144093,0.000445,  46.578
   288.6,0.015702,0.010017,0.142967,0.000480,  46.575
   288.8,0.015570,0.009932,0.141852,0.000494,  46.576
   289.0,0.015438,0.009855,0.140735,0.000445,  46.582
   289.2,0.015300,0.009768,0.139620,0.000480,  46.579
   289.4,0.015174,0.009683,0.138523,0.000494,  46.583
   289.6,0.015045,0.009599,0.137469,0.000445,  46.581
   289.8,0.014916,0.009514,0.136429,0.000480,  46.584
   290.0,0.014801,0.009440,0.135430,0.000494,  46.586
   290.2,0.014680,0.009359,0.134417,0.000445,  46.589
   290.4,0.014551,0.009280,0.133381,0.000480,  46.590
   290.6,0.014433,0.009205,0.132350,0.000494,  46.586
   290.8,0.014307,0.009128,0.131278,0.000445,  46.587
   291.0,0.014207,0.009048,0.130175,0.000480,  46.587
   291.2,0.014112,0.008969,0.129046,0.000494,  46.586
   291.4,0.014028,0.008891,0.128017,0.000445,  46.585
   291.6,0.013959,0.008810,0.127028,0.000480,  46.590
   291.8,0.013846,0.008738,0.126088,0.000480,  46.590
   292.0,0.013728,0.008669,0.125117,0.000445,  46.588
   292.2,0.013607,0.008590,0.124140,0.000467,  46.590
   292.4,0.013491,0.008520,0.123162,0.000467,  46.593
   292.6,0.013372,0.008449,0.122211,0.000432,  46.598
   292.8,0.013267,0.008374,0.121299,0.000454,  46.593
   293.0,0.013151,0.008308,0.120391,0.000440,  46.592
   293.2,0.013039,0.008240,0.119469,0.000405,  46.592
   293.4,0.012924,0.008168,0.118554,0.000440,  46.592
   293.6,0.012811,0.008093,0.117638,0.000440,  46.595
   293.8,0.012702,0.008024,0.116696,0.000440,  46.598
   294.0,0.012598,0.007956,0.115740,0.000427,  46.598
   294.2,0.012488,0.007888,0.114764,0.000440,  46.596
   294.4,0.012385,0.007823,0.114002,0.000440,  46.600
   294.6,0.012284,0.007759,0.113329,0.000419,  46.599
   294.8,0.012174,0.007696,0.112758,0.000440,  46.601
   295.0,0.012074,0.007631,0.112273,0.000440,  46.602
   295.2,0.011974,0.007562,0.111425,0.000419,  46.604
   295.4,0.011873,0.007493,0.110478,0.000440,  46.600
   295.6,0.011777,0.007428,0.109449,0.000440,  46.604
   295.8,0.011684,0.007362,0.108555,0.000419,  46.604
   296.0,0.011586,0.007304,0.107687,0.000440,  46.604
   296.2,0.011487,0.007247,0.106830,0.000440,  46.602
   296.4,0.011387,0.007195,0.106008,0.000419,  46.601
   296.6,0.011289,0.007146,0.105213,0.000440,  46.605
   296.8,0.011190,0.007102,0.104453,0.000440,  46.603
   297.0,0.011101,0.007061,0.103639,0.000419,  46.602
   297.2,0.011002,0.007008,0.102797,0.000440,  46.606
   297.4,0.010910,0.006948,0.101950,0.000440,  46.608
   297.6,0.010817,0.006885,0.101161,0.000419,  46.606
   297.8,0.010724,0.006827,0.100404,0.000440,  46.603
   298.0,0.010638,0.006764,0.099653,0.000440,  46.605
   298.2,0.010545,0.006704,0.098882,0.000419,  46.604
   298.4,0.010452,0.006644,0.098123,0.000440,  46.606
   298.6,0.010371,0.006594,0.097354,0.000440,  46.609
   298.8,0.010287,0.006545,0.096634,0.000419,  46.627
   299.0,0.010194,0.006481,0.095927,0.000440,  46.624
   299.2,0.010113,0.006428,0.095252,0.000440,  46.630
   299.4,0.010027,0.006373,0.094510,0.000419,  46.629
   299.6,0.009951,0.006318,0.093735,0.000440,  46.626
   299.8,0.009883,0.006261,0.092944,0.000440,  46.632
   300.0,0.009814,0.006211,0.092209,0.000419,  46.625
   300.2,0.009766,0.006163,0.091503,0.000440,  46.629
   300.4,0.009687,0.006108,0.090823,0.000440,  46.629
   300.6,0.009605,0.006058,0.090122,0.000419,  46.628
   300.8,0.009527,0.006006,0.089428,0.000440,  46.630
   301.0,0.009445,0.005954,0.088721,0.000440,  46.630
   301.2,0.009373,0.005904,0.088032,0.000419,  46.631
   301.4,0.009292,0.005852,0.087362,0.000405,  46.630
   301.6,0.009210,0.005802,0.086680,0.000405,  46.631
   301.8,0.009134,0.005756,0.086021,0.000405,  46.632
   302.0,0.009052,0.005703,0.085397,0.000405,  46.630
   302.2,0.008970,0.005659,0.084779,0.000405,  46.631
   302.4,0.008895,0.005613,0.084131,0.000419,  46.635
   302.6,0.008825,0.005567,0.083481,0.000405,  46.634
   302.8,0.008749,0.005522,0.082806,0.000392,  46.629
   303.0,0.008673,0.005476,0.082226,0.000392,  46.630
   303.2,0.008607,0.005430,0.081699,0.000392,  46.629
   303.4,0.008534,0.005383,0.081211,0.000392,  46.632
   303.6,0.008452,0.005335,0.080761,0.000392,  46.632
   303.8,0.008386,0.005291,0.080164,0.000392,  46.628
   304.0,0.008318,0.005245,0.079523,0.000392,  46.629
   304.2,0.008239,0.005201,0.078846,0.000392,  46.633
   304.4,0.008175,0.005157,0.078257,0.000405,  46.632
   304.6,0.008107,0.005111,0.077685,0.000405,  46.629
   304.8,0.008033,0.005068,0.077141,0.000405,  46.629
   305.0,0.007969,0.005030,0.076423,0.000419,  46.630
   305.2,0.007905,0.005001,0.075630,0.000405,  46.630
   305.4,0.007831,0.004966,0.074757,0.000405,  46.628
   305.6,0.007772,0.004943,0.074209,0.000405,  46.625
   305.8,0.007708,0.004898,0.073789,0.000392,  46.629
   306.0,0.007636,0.004858,0.073492,0.000392,  46.630
   306.2,0.007575,0.004812,0.072989,0.000405,  46.631
   306.4,0.007513,0.004772,0.072459,0.000405,  46.630
   306.6,0.007445,0.004730,0.071895,0.000405,  46.630
   306.8,0.007389,0.004693,0.071250,0.000419,  46.627
   307.0,0.007332,0.004655,0.070561,0.000405,  46.630
   307.2,0.007267,0.004615,0.069828,0.000405,  46.628
   307.4,0.007216,0.004581,0.069238,0.000419,  46.630
   307.6,0.007160,0.004546,0.068678,0.000405,  46.633
   307.8,0.007097,0.004509,0.068166,0.000405,  46.627
   308.0,0.007041,0.004474,0.067483,0.000419,  46.627
   308.2,0.006985,0.004441,0.066720,0.000405,  46.629
   308.4,0.006922,0.004406,0.065884,0.000405,  46.628
   308.6,0.006866,0.004368,0.065473,0.000419,  46.625
   308.8,0.006807,0.004327,0.065226,0.000405,  46.620
   309.0,0.006744,0.004292,0.065155,0.000405,  46.624
   309.2,0.006691,0.004255,0.064832,0.000419,  46.624
   309.4,0.006642,0.004220,0.064463,0.000405,  46.624
   309.6,0.006590,0.004182,0.064060,0.000405,  46.626
   309.8,0.006565,0.004146,0.063696,0.000419,  46.628
   310.0,0.006530,0.004115,0.063326,0.000405,  46.627
   310.2,0.006476,0.004074,0.062948,0.000405,  46.624
   310.4,0.006416,0.004039,0.062519,0.000419,  46.624
   310.6,0.006363,0.004003,0.062058,0.000405,  46.626
   310.8,0.006310,0.003963,0.061555,0.000405,  46.621
   311.0,0.006256,0.003929,0.061146,0.000419,  46.623
   311.2,0.006202,0.003895,0.060782,0.000405,  46.621
   311.4,0.006151,0.003859,0.060441,0.000405,  46.617
   311.6,0.006100,0.003832,0.060040,0.000405,  46.624
   311.8,0.006049,0.003800,0.059632,0.000405,  46.621
   312.0,0.006000,0.003762,0.059212,0.000392,  46.622
   312.2,0.005946,0.003735,0.058850,0.000405,  46.618
   312.4,0.005894,0.003702,0.058516,0.000405,  46.622
   312.6,0.005843,0.003673,0.058191,0.000392,  46.622
   312.8,0.005789,0.003645,0.057898,0.000392,  46.622
   313.0,0.005747,0.003612,0.057451,0.000392,  46.622
   313.2,0.005698,0.003583,0.056959,0.000392,  46.619
   313.4,0.005646,0.003553,0.056427,0.000392,  46.617
   313.6,0.005607,0.003523,0.056010,0.000405,  46.620
   313.8,0.005564,0.003492,0.055643,0.000405,  46.621
   314.0,0.005518,0.003463,0.055311,0.000405,  46.620
   314.2,0.005476,0.003433,0.054908,0.000419,  46.618
   314.4,0.005430,0.003406,0.054487,0.000405,  46.621
   314.6,0.005385,0.003376,0.054044,0.000405,  46.619
   314.8,0.005345,0.003350,0.053640,0.000419,  46.618
   315.0,0.005302,0.003333,0.053235,0.000405,  46.620
   315.2,0.005253,0.003311,0.052825,0.000405,  46.622
   315.4,0.005214,0.003297,0.052305,0.000419,  46.621
   315.6,0.005174,0.003269,0.051730,0.000405,  46.621
   315.8,0.005127,0.003250,0.051092,0.000405,  46.616
   316.0,0.005090,0.003226,0.050746,0.000419,  46.621
   316.2,0.005050,0.003198,0.050509,0.000405,  46.620
   316.4,0.005001,0.003170,0.050387,0.000405,  46.622
   316.6,0.004964,0.003139,0.050088,0.000405,  46.619
   316.8,0.004921,0.003115,0.049741,0.000392,  46.622
   317.0,0.004875,0.003087,0.049361,0.000392,  46.619
   317.2,0.004835,0.003065,0.049046,0.000392,  46.616
   317.4,0.004794,0.003043,0.048752,0.000392,  46.618
   317.6,0.004757,0.003012,0.048468,0.000392,  46.618
   317.8,0.004722,0.002990,0.048113,0.000392,  46.619
   318.0,0.004690,0.002969,0.047747,0.000392,  46.620
   318.2,0.004663,0.002943,0.047357,0.000392,  46.617
   318.4,0.004634,0.002922,0.047016,0.000392,  46.618
   318.6,0.004616,0.002902,0.046677,0.000392,  46.616
   318.8,0.004581,0.002877,0.046346,0.000392,  46.620
   319.0,0.004546,0.002852,0.046024,0.000392,  46.621
   319.2,0.004506,0.002830,0.045715,0.000392,  46.619
   319.4,0.004471,0.002801,0.045413,0.000392,  46.623
   319.6,0.004433,0.002774,0.045143,0.000392,  46.617
   319.8,0.004402,0.002747,0.044883,0.000392,  46.619
   320.0,0.004367,0.002724,0.044648,0.000392,  46.620
   320.2,0.004333,0.002706,0.044372,0.000392,  46.622
   320.4,0.004298,0.002684,0.044079,0.000405,  46.618
   320.6,0.004263,0.002668,0.043779,0.000392,  46.621
   320.8,0.004231,0.002644,0.043464,0.000405,  46.620
   321.0,0.004196,0.002621,0.043140,0.000405,  46.623
   321.2,0.004161,0.002599,0.042799,0.000392,  46.623
   321.4,0.004129,0.002575,0.042304,0.000392,  46.619
   321.6,0.004097,0.002549,0.041733,0.000405,  46.620
   321.8,0.004067,0.002529,0.041077,0.000405,  46.621
   322.0,0.004033,0.002512,0.040333,0.000405,  46.621
   322.2,0.003995,0.002491,0.040135,0.000419,  46.625
   322.4,0.003966,0.002466,0.040097,0.000405,  46.624
   322.6,0.003934,0.002444,0.040206,0.000405,  46.625
   322.8,0.003899,0.002422,0.040027,0.000419,  46.624
   323.0,0.003873,0.002405,0.039778,0.000405,  46.623
   323.2,0.003838,0.002388,0.039456,0.000405,  46.622
   323.4,0.003807,0.002370,0.039284,0.000419,  46.624
   323.6,0.003778,0.002360,0.039143,0.000405,  46.627
   323.8,0.003751,0.002342,0.039037,0.000405,  46.623
   324.0,0.003718,0.002334,0.038879,0.000419,  46.622
   324.2,0.003691,0.002309,0.038705,0.000405,  46.628
   324.4,0.003664,0.002293,0.038522,0.000405,  46.625
   324.6,0.003635,0.002271,0.038280,0.000419,  46.623
   324.8,0.003608,0.002251,0.037995,0.000405,  46.626
   325.0,0.003581,0.002235,0.037685,0.000405,  46.623
   325.2,0.003549,0.002215,0.037422,0.000419,  46.622
   325.4,0.003525,0.002198,0.037165,0.000405,  46.627
   325.6,0.003496,0.002185,0.036909,0.000405,  46.624
   325.8,0.003469,0.002170,0.036677,0.000419,  46.625
   326.0,0.003439,0.002155,0.036479,0.000405,  46.622
   326.2,0.003412,0.002135,0.036275,0.000405,  46.625
   326.4,0.003385,0.002120,0.036055,0.000419,  46.628
   326.6,0.003355,0.002104,0.035836,0.000405,  46.630
   326.8,0.003328,0.002086,0.035616,0.000405,  46.624
   327.0,0.003308,0.002068,0.035404,0.000419,  46.628
   327.2,0.003284,0.002049,0.035193,0.000405,  46.628
   327.4,0.003268,0.002031,0.034984,0.000405,  46.628
   327.6,0.003240,0.002011,0.034780,0.000419,  46.631
   327.8,0.003230,0.001992,0.034576,0.000405,  46.628
   328.0,0.003209,0.001979,0.034365,0.000405,  46.629
   328.2,0.003182,0.001967,0.034102,0.000419,  46.631
   328.4,0.003159,0.001953,0.033807,0.000405,  46.629
   328.6,0.003144,0.001938,0.033495,0.000405,  46.629
   328.8,0.003123,0.001924,0.033269,0.000419,  46.629
   329.0,0.003092,0.001908,0.033066,0.000405,  46.630
   329.2,0.003071,0.001888,0.032899,0.000419,  46.637
   329.4,0.003047,0.001872,0.032594,0.000383,  46.632
   329.6,0.003023,0.001860,0.032257,0.000432,  46.633
   329.8,0.003002,0.001844,0.031867,0.000397,  46.638
   330.0,0.002980,0.001834,0.031647,0.000410,  46.640
   330.2,0.002956,0.001822,0.031494,0.000397,  46.638
   330.4,0.002935,0.001804,0.031398,0.000419,  46.637
   330.6,0.002913,0.001795,0.031257,0.000419,  46.637
   330.8,0.002893,0.001783,0.031115,0.000419,  46.642
   331.0,0.002865,0.001765,0.030985,0.000405,  46.639
   331.2,0.002844,0.001752,0.030856,0.000405,  46.641
   331.4,0.002832,0.001736,0.030702,0.000419,  46.638
   331.6,0.002800,0.001723,0.030541,0.000405,  46.640
   331.8,0.002779,0.001707,0.030369,0.000405,  46.641
   332.0,0.002758,0.001693,0.030215,0.000419,  46.641
   332.2,0.002736,0.001683,0.030055,0.000405,  46.644
   332.4,0.002718,0.001676,0.029882,0.000405,  46.645
   332.6,0.002697,0.001666,0.029686,0.000419,  46.645
   332.8,0.002685,0.001651,0.029499,0.000405,  46.647
   333.0,0.002666,0.001646,0.029283,0.000405,  46.642
   333.2,0.002641,0.001636,0.028961,0.000419,  46.642
   333.4,0.002622,0.001622,0.028556,0.000419,  46.644
   333.6,0.002604,0.001614,0.028104,0.000419,  46.646
   333.8,0.002591,0.001599,0.027797,0.000419,  46.645
   334.0,0.002569,0.001588,0.027507,0.000419,  46.644
   334.2,0.002548,0.001576,0.027264,0.000419,  46.646
   334.4,0.002532,0.001562,0.027133,0.000419,  46.646
   334.6,0.002516,0.001550,0.027086,0.000405,  46.647
   334.8,0.002497,0.001540,0.027105,0.000405,  46.640
   335.0,0.002478,0.001526,0.027040,0.000419,  46.643
   335.2,0.002462,0.001514,0.026985,0.000405,  46.642
   335.4,0.002446,0.001505,0.026911,0.000405,  46.649
   335.6,0.002428,0.001491,0.026839,0.000419,  46.648
   335.8,0.002412,0.001481,0.026771,0.000405,  46.646
   336.0,0.002401,0.001469,0.026690,0.000405,  46.646
   336.2,0.002385,0.001457,0.026559,0.000419,  46.646
   336.4,0.002374,0.001448,0.026410,0.000405,  46.644
   336.6,0.002359,0.001435,0.026218,0.000405,  46.647
   336.8,0.002342,0.001424,0.026094,0.000432,  46.644
   337.0,0.002327,0.001414,0.025990,0.000432,  46.645
   337.2,0.002305,0.001406,0.025894,0.000432,  46.647
   337.4,0.002295,0.001394,0.025768,0.000445,  46.649
   337.6,0.002284,0.001383,0.025628,0.000432,  46.651
   337.8,0.002264,0.001375,0.025466,0.000432,  46.646
   338.0,0.002251,0.001362,0.025296,0.000445,  46.647
   338.2,0.002230,0.001346,0.025104,0.000432,  46.646
   338.4,0.002210,0.001338,0.024884,0.000432,  46.646
   338.6,0.002200,0.001328,0.024722,0.000432,  46.648
   338.8,0.002184,0.001318,0.024581,0.000432,  46.647
   339.0,0.002165,0.001310,0.024453,0.000432,  46.644
   339.2,0.002149,0.001301,0.024318,0.000445,  46.648
   339.4,0.002135,0.001291,0.024176,0.000432,  46.649
   339.6,0.002116,0.001280,0.024039,0.000445,  46.650
   339.8,0.002103,0.001270,0.023909,0.000445,  46.652
   340.0,0.002094,0.001253,0.023796,0.000432,  46.650
   340.2,0.002074,0.001245,0.023679,0.000419,  46.650
   340.4,0.002055,0.001239,0.023575,0.000419,  46.654
   340.6,0.002039,0.001231,0.023405,0.000419,  46.654
   340.8,0.002023,0.001222,0.023200,0.000419,  46.654
   341.0,0.002009,0.001217,0.022964,0.000419,  46.651
   341.2,0.002002,0.001211,0.022832,0.000383,  46.650
   341.4,0.001985,0.001201,0.022742,0.000383,  46.655
   341.6,0.001972,0.001186,0.022686,0.000383,  46.653
   341.8,0.001962,0.001176,0.022531,0.000383,  46.658
   342.0,0.001943,0.001171,0.022347,0.000419,  46.659
   342.2,0.001936,0.001168,0.022134,0.000419,  46.656
   342.4,0.001929,0.001166,0.022050,0.000419,  46.656
   342.6,0.001912,0.001157,0.022025,0.000419,  46.661
   342.8,0.001902,0.001147,0.022049,0.000419,  46.659
   343.0,0.001886,0.001138,0.021936,0.000419,  46.657
   343.2,0.001869,0.001128,0.021794,0.000419,  46.659
   343.4,0.001865,0.001122,0.021601,0.000419,  46.660
   343.6,0.001854,0.001119,0.021489,0.000419,  46.658
   343.8,0.001840,0.001104,0.021398,0.000419,  46.658
   344.0,0.001826,0.001099,0.021320,0.000419,  46.661
   344.2,0.001818,0.001094,0.021237,0.000419,  46.661
   344.4,0.001804,0.001083,0.021162,0.000419,  46.661
   344.6,0.001797,0.001078,0.021085,0.000419,  46.659
   344.8,0.001796,0.001069,0.020951,0.000432,  46.662
   345.0,0.001786,0.001062,0.020801,0.000432,  46.657
   345.2,0.001769,0.001053,0.020609,0.000445,  46.658
   345.4,0.001767,0.001050,0.020488,0.000410,  46.659
   345.6,0.001756,0.001042,0.020382,0.000410,  46.656
   345.8,0.001746,0.001035,0.020290,0.000423,  46.657
   346.0,0.001735,0.001030,0.020170,0.000375,  46.655
   346.2,0.001728,0.001024,0.020050,0.000410,  46.657
   346.4,0.001711,0.001015,0.019916,0.000423,  46.660
   346.6,0.001707,0.001003,0.019830,0.000388,  46.656
   346.8,0.001696,0.000994,0.019754,0.000423,  46.654
   347.0,0.001682,0.000988,0.019699,0.000423,  46.654
   347.2,0.001671,0.000980,0.019612,0.000388,  46.656
   347.4,0.001658,0.000971,0.019506,0.000423,  46.654
   347.6,0.001644,0.000963,0.019380,0.000423,  46.652
   347.8,0.001636,0.000962,0.019301,0.000423,  46.654
   348.0,0.001631,0.000957,0.019223,0.000423,  46.653
   348.2,0.001614,0.000950,0.019170,0.000423,  46.655
   348.4,0.001606,0.000945,0.019119,0.000437,  46.655
   348.6,0.001599,0.000939,0.018983,0.000388,  46.654
   348.8,0.001585,0.000930,0.018811,0.000410,  46.657
   349.0,0.001581,0.000925,0.018612,0.000423,  46.656
   349.2,0.001576,0.000915,0.018522,0.000375,  46.656
   349.4,0.001562,0.000913,0.018479,0.000410,  46.659
   349.6,0.001558,0.000908,0.018473,0.000423,  46.661
   349.8,0.001544,0.000902,0.018403,0.000375,  46.657
   350.0,0.001527,0.000893,0.018318,0.000410,  46.660
   350.2,0.001523,0.000889,0.018230,0.000423,  46.661
   350.4,0.001512,0.000882,0.018115,0.000375,  46.661
   350.6,0.001495,0.000874,0.017974,0.000410,  46.660
   350.8,0.001491,0.000872,0.017817,0.000423,  46.665
   351.0,0.001483,0.000866,0.017733,0.000375,  46.661
   351.2,0.001471,0.000860,0.017675,0.000410,  46.663
   351.4,0.001467,0.000854,0.017640,0.000423,  46.661
   351.6,0.001459,0.000850,0.017562,0.000375,  46.663
   351.8,0.001448,0.000839,0.017476,0.000410,  46.661
   352.0,0.001443,0.000829,0.017376,0.000423,  46.662
   352.2,0.001435,0.000830,0.017317,0.000375,  46.662
   352.4,0.001430,0.000826,0.017267,0.000410,  46.662
   352.6,0.001419,0.000821,0.017224,0.000423,  46.664
   352.8,0.001417,0.000824,0.016816,0.000375,  46.666
   353.0,0.001412,0.000817,0.016239,0.000410,  46.667
   353.2,0.001398,0.000815,0.015463,0.000423,  46.668
   353.4,0.001396,0.000807,0.015337,0.000388,  46.667
   353.6,0.001391,0.000803,0.015453,0.000423,  46.669
   353.8,0.001386,0.000797,0.015792,0.000423,  46.674
   354.0,0.001380,0.000790,0.015846,0.000423,  46.670
   354.2,0.001372,0.000788,0.015865,0.000432,  46.674
   354.4,0.001374,0.000784,0.015863,0.000445,  46.673
   354.6,0.001362,0.000776,0.015853,0.000445,  46.678
   354.8,0.001362,0.000764,0.015816,0.000445,  46.673
   355.0,0.001353,0.000763,0.015751,0.000459,  46.673
   355.2,0.001350,0.000760,0.015716,0.000445,  46.675
   355.4,0.001338,0.000754,0.015692,0.000445,  46.675
   355.6,0.001329,0.000747,0.015669,0.000459,  46.677
   355.8,0.001317,0.000742,0.015613,0.000445,  46.676
   356.0,0.001309,0.000740,0.015561,0.000445,  46.680
   356.2,0.001298,0.000736,0.015488,0.000445,  46.678
   356.4,0.001292,0.000732,0.015381,0.000423,  46.680
   356.6,0.001281,0.000726,0.015245,0.000437,  46.678
   356.8,0.001269,0.000719,0.015080,0.000401,  46.682
   357.0,0.001268,0.000717,0.015015,0.000401,  46.679
   357.2,0.001257,0.000711,0.014997,0.000401,  46.683
   357.4,0.001245,0.000703,0.015009,0.000401,  46.682
   357.6,0.001246,0.000704,0.015061,0.000379,  46.684
   357.8,0.001241,0.000702,0.014989,0.000401,  46.684
   358.0,0.001236,0.000695,0.014893,0.000401,  46.684
   358.2,0.001230,0.000691,0.014764,0.000379,  46.685
   358.4,0.001229,0.000690,0.014718,0.000401,  46.685
   358.6,0.001226,0.000686,0.014688,0.000401,  46.688
   358.8,0.001214,0.000682,0.014666,0.000415,  46.688
   359.0,0.001213,0.000678,0.014607,0.000401,  46.685
   359.2,0.001210,0.000680,0.014540,0.000437,  46.688
   359.4,0.001205,0.000673,0.014441,0.000450,  46.691
   359.6,0.001203,0.000672,0.014392,0.000401,  46.687
   359.8,0.001198,0.000668,0.014374,0.000437,  46.689
   360.0,0.001192,0.000667,0.014371,0.000450,  46.689
   360.2,0.001187,0.000668,0.014342,0.000401,  46.689
   360.4,0.001184,0.000662,0.014312,0.000423,  46.690
   360.6,0.001173,0.000662,0.014289,0.000437,  46.688
   360.8,0.001167,0.000658,0.014226,0.000401,  46.686
   361.0,0.001165,0.000650,0.014165,0.000423,  46.687
   361.2,0.001151,0.000649,0.014071,0.000437,  46.687
   361.4,0.001149,0.000645,0.013993,0.000401,  46.688
   361.6,0.001144,0.000636,0.013933,0.000423,  46.687
   361.8,0.001133,0.000635,0.013868,0.000437,  46.694
   362.0,0.001131,0.000633,0.013712,0.000401,  46.690
   362.2,0.001132,0.000629,0.013507,0.000423,  46.693
   362.4,0.001129,0.000622,0.013267,0.000437,  46.692
   362.6,0.001124,0.000622,0.013182,0.000437,  46.693
   362.8,0.001115,0.000616,0.013164,0.000459,  46.690
   363.0,0.001113,0.000613,0.013195,0.000472,  46.689
   363.2,0.001105,0.000609,0.013172,0.000472,  46.692
   363.4,0.001097,0.000600,0.013147,0.000459,  46.692
   363.6,0.001094,0.000602,0.013123,0.000472,  46.689
   363.8,0.001089,0.000602,0.013065,0.000472,  46.689
   364.0,0.001083,0.000600,0.012985,0.000459,  46.691
   364.2,0.001078,0.000594,0.012891,0.000472,  46.688
   364.4,0.001070,0.000590,0.012820,0.000472,  46.691
   364.6,0.001065,0.000589,0.012774,0.000459,  46.689
   364.8,0.001062,0.000587,0.012729,0.000459,  46.688
   365.0,0.001057,0.000582,0.012747,0.000437,  46.694
   365.2,0.001051,0.000573,0.012794,0.000472,  46.690
   365.4,0.001049,0.000574,0.012873,0.000450,  46.687
   365.6,0.001043,0.000568,0.012861,0.000450,  46.690
   365.8,0.001035,0.000562,0.012803,0.000437,  46.688
   366.0,0.001030,0.000560,0.012721,0.000437,  46.686
   366.2,0.001025,0.000557,0.012592,0.000450,  46.686
   366.4,0.001022,0.000551,0.012528,0.000401,  46.685
   366.6,0.001017,0.000549,0.012487,0.000437,  46.686
   366.8,0.001012,0.000549,0.012442,0.000450,  46.686
   367.0,0.001006,0.000545,0.012129,0.000401,  46.684
   367.2,0.001004,0.000547,0.011696,0.000437,  46.690
   367.4,0.001001,0.000541,0.011128,0.000450,  46.687
   367.6,0.000996,0.000537,0.011035,0.000415,  46.686
   367.8,0.000993,0.000532,0.011119,0.000450,  46.690
   368.0,0.000988,0.000526,0.011362,0.000463,  46.688
   368.2,0.000982,0.000524,0.011420,0.000428,  46.685
   368.4,0.000980,0.000519,0.011485,0.000450,  46.688
   368.6,0.000977,0.000518,0.011530,0.000463,  46.689
   368.8,0.000972,0.000520,0.011534,0.000428,  46.686
   369.0,0.000972,0.000521,0.011509,0.000463,  46.685
   369.2,0.000966,0.000518,0.011457,0.000463,  46.686
   369.4,0.000970,0.000519,0.011398,0.000428,  46.686
   369.6,0.000967,0.000517,0.011325,0.000463,  46.680
   369.8,0.000959,0.000514,0.011229,0.000463,  46.687
   370.0,0.000955,0.000514,0.011185,0.000428,  46.683
   370.2,0.000952,0.000510,0.011160,0.000450,  46.683
   370.4,0.000950,0.000509,0.011149,0.000463,  46.685
   370.6,0.000947,0.000506,0.011159,0.000428,  46.683
   370.8,0.000944,0.000502,0.011190,0.000463,  46.688
   371.0,0.000935,0.000502,0.011234,0.000463,  46.684
   371.2,0.000930,0.000502,0.011203,0.000428,  46.685
   371.4,0.000927,0.000500,0.011143,0.000463,  46.688
   371.6,0.000919,0.000495,0.011054,0.000463,  46.686
   371.8,0.000916,0.000493,0.011003,0.000428,  46.691
   372.0,0.000917,0.000490,0.010966,0.000450,  46.686
   372.2,0.000908,0.000490,0.010941,0.000463,  46.687
   372.4,0.000905,0.000487,0.010889,0.000428,  46.687
   372.6,0.000906,0.000485,0.010817,0.000450,  46.685
   372.8,0.000906,0.000485,0.010736,0.000463,  46.683
   373.0,0.000897,0.000483,0.010718,0.000428,  46.683
   373.2,0.000901,0.000480,0.010722,0.000450,  46.686
   373.4,0.000901,0.000478,0.010765,0.000450,  46.688
   373.6,0.000895,0.000477,0.010719,0.000428,  46.688
   373.8,0.000896,0.000473,0.010646,0.000450,  46.686
   374.0,0.000893,0.000471,0.010546,0.000450,  46.685
   374.2,0.000884,0.000469,0.010486,0.000450,  46.691
   374.4,0.000885,0.000465,0.010433,0.000450,  46.689
   374.6,0.000882,0.000465,0.010393,0.000450,  46.691
   374.8,0.000871,0.000460,0.010353,0.000463,  46.690
   375.0,0.000874,0.000460,0.010336,0.000428,  46.693
   375.2,0.000874,0.000459,0.010325,0.000450,  46.690
   375.4,0.000865,0.000457,0.010327,0.000463,  46.694
   375.6,0.000869,0.000452,0.010280,0.000428,  46.694
   375.8,0.000866,0.000457,0.010214,0.000450,  46.694
   376.0,0.000857,0.000455,0.010127,0.000463,  46.700
   376.2,0.000858,0.000458,0.010082,0.000428,  46.695
   376.4,0.000856,0.000453,0.010057,0.000450,  46.695
   376.6,0.000847,0.000451,0.010045,0.000463,  46.695
   376.8,0.000848,0.000451,0.010021,0.000428,  46.695
   377.0,0.000845,0.000447,0.010009,0.000450,  46.694
   377.2,0.000836,0.000444,0.009992,0.000463,  46.698
   377.4,0.000837,0.000440,0.009940,0.000428,  46.696
   377.6,0.000834,0.000434,0.009860,0.000450,  46.700
   377.8,0.000826,0.000430,0.009778,0.000463,  46.695
   378.0,0.000829,0.000432,0.009753,0.000428,  46.695
   378.2,0.000829,0.000426,0.009736,0.000463,  46.697
   378.4,0.000823,0.000424,0.009745,0.000463,  46.699
   378.6,0.000824,0.000426,0.009713,0.000428,  46.695
   378.8,0.000824,0.000420,0.009660,0.000463,  46.697
   379.0,0.000815,0.000419,0.009598,0.000463,  46.697
   379.2,0.000816,0.000426,0.009581,0.000428,  46.695
   379.4,0.000813,0.000424,0.009583,0.000463,  46.699
   379.6,0.000807,0.000420,0.009599,0.000463,  46.695
   379.8,0.000802,0.000422,0.009554,0.000428,  46.699
   380.0,0.000808,0.000422,0.009488,0.000463,  46.700
   380.2,0.000802,0.000420,0.009413,0.000463,  46.707
   380.4,0.000805,0.000418,0.009382,0.000428,  46.703
   380.6,0.000806,0.000420,0.009364,0.000463,  46.705
   380.8,0.000810,0.000416,0.009366,0.000463,  46.705
   381.0,0.000807,0.000414,0.009313,0.000428,  46.704
   381.2,0.000799,0.000414,0.009245,0.000463,  46.705
   381.4,0.000805,0.000410,0.009144,0.000463,  46.702
   381.6,0.000803,0.000406,0.009071,0.000441,  46.704
   381.8,0.000794,0.000402,0.008996,0.000477,  46.707
   382.0,0.000796,0.000401,0.008922,0.000463,  46.705
   382.2,0.000794,0.000399,0.008918,0.000463,  46.707
   382.4,0.000791,0.000394,0.008946,0.000463,  46.706
   382.6,0.000791,0.000394,0.009010,0.000463,  46.706
   382.8,0.000791,0.000397,0.009107,0.000477,  46.707
   383.0,0.000788,0.000393,0.009102,0.000441,  46.706
   383.2,0.000786,0.000391,0.009072,0.000477,  46.706
   383.4,0.000783,0.000397,0.009026,0.000490,  46.711
   383.6,0.000775,0.000392,0.008974,0.000468,  46.710
   383.8,0.000773,0.000387,0.008901,0.000490,  46.710
   384.0,0.000770,0.000389,0.008832,0.000490,  46.711
   384.2,0.000765,0.000389,0.008786,0.000468,  46.714
   384.4,0.000765,0.000387,0.008739,0.000490,  46.711
   384.6,0.000762,0.000385,0.008706,0.000490,  46.712
   384.8,0.000757,0.000383,0.008688,0.000468,  46.711
   385.0,0.000754,0.000379,0.008677,0.000490,  46.712
   385.2,0.000751,0.000383,0.008672,0.000490,  46.727
   385.4,0.000749,0.000383,0.008633,0.000468,  46.731
   385.6,0.000749,0.000382,0.008587,0.000490,  46.729
   385.8,0.000746,0.000382,0.008514,0.000490,  46.728
   386.0,0.000746,0.000385,0.008352,0.000468,  46.729
   386.2,0.000746,0.000383,0.008141,0.000490,  46.736
   386.4,0.000743,0.000379,0.007870,0.000490,  46.732
   386.6,0.000744,0.000381,0.007900,0.000468,  46.736
   386.8,0.000735,0.000382,0.008066,0.000490,  46.732
   387.0,0.000733,0.000379,0.008348,0.000490,  46.737
   387.2,0.000736,0.000379,0.008379,0.000468,  46.738
   387.4,0.000736,0.000377,0.008340,0.000490,  46.737
   387.6,0.000734,0.000379,0.008245,0.000477,  46.738
   387.8,0.000736,0.000376,0.008206,0.000477,  46.734
   388.0,0.000734,0.000376,0.008160,0.000485,  46.733
   388.2,0.000727,0.000379,0.008118,0.000485,  46.733
   388.4,0.000731,0.000377,0.008086,0.000485,  46.736
   388.6,0.000731,0.000377,0.008055,0.000499,  46.737
   388.8,0.000725,0.000375,0.008042,0.000512,  46.738
   389.0,0.000728,0.000373,0.007989,0.000512,  46.741
   389.2,0.000729,0.000369,0.007929,0.000512,  46.742
   389.4,0.000723,0.000369,0.007849,0.000525,  46.741
   389.6,0.000729,0.000367,0.007844,0.000525,  46.742
   389.8,0.000727,0.000364,0.007866,0.000512,  46.745
   390.0,0.000720,0.000364,0.007916,0.000512,  46.743
   390.2,0.000727,0.000359,0.007891,0.000525,  46.745
   390.4,0.000727,0.000358,0.007838,0.000512,  46.746
   390.6,0.000718,0.000356,0.007769,0.000525,  46.746
   390.8,0.000721,0.000357,0.007586,0.000538,  46.749
   391.0,0.000719,0.000357,0.007329,0.000538,  46.749
   391.2,0.000710,0.000356,0.007003,0.000525,  46.746
   391.4,0.000713,0.000361,0.006599,0.000525,  46.748
   391.6,0.000713,0.000363,0.006464,0.000538,  46.751
   391.8,0.000710,0.000359,0.006397,0.000538,  46.752
   392.0,0.000711,0.000353,0.006385,0.000538,  46.751
   392.2,0.000708,0.000350,0.006476,0.000503,  46.752
   392.4,0.000702,0.000350,0.006654,0.000503,  46.751
   392.6,0.000703,0.000352,0.006907,0.000503,  46.751
   392.8,0.000697,0.000348,0.006990,0.000468,  46.753
   393.0,0.000688,0.000344,0.007032,0.000503,  46.749
   393.2,0.000692,0.000344,0.007033,0.000503,  46.753
   393.4,0.000696,0.000342,0.007076,0.000468,  46.755
   393.6,0.000689,0.000340,0.007118,0.000503,  46.755
   393.8,0.000687,0.000340,0.007155,0.000503,  46.756
   394.0,0.000696,0.000337,0.007109,0.000468,  46.756
   394.2,0.000692,0.000337,0.007022,0.000503,  46.753
   394.4,0.000687,0.000335,0.006873,0.000503,  46.755
   394.6,0.000690,0.000334,0.006861,0.000468,  46.758
   394.8,0.000687,0.000334,0.006889,0.000490,  46.755
   395.0,0.000684,0.000326,0.006946,0.000490,  46.755
   395.2,0.000690,0.000329,0.006962,0.000468,  46.756
   395.4,0.000684,0.000329,0.006978,0.000503,  46.758
   395.6,0.000684,0.000329,0.006987,0.000503,  46.762
   395.8,0.000681,0.000331,0.006764,0.000468,  46.755
   396.0,0.000675,0.000328,0.006406,0.000503,  46.759
   396.2,0.000681,0.000328,0.005939,0.000503,  46.760
   396.4,0.000676,0.000332,0.005900,0.000468,  46.761
   396.6,0.000674,0.000329,0.006004,0.000503,  46.758
   396.8,0.000674,0.000323,0.006275,0.000503,  46.758
   397.0,0.000671,0.000326,0.006379,0.000468,  46.763
   397.2,0.000671,0.000328,0.006469,0.000503,  46.766
   397.4,0.000671,0.000323,0.006565,0.000503,  46.765
   397.6,0.000665,0.000327,0.006615,0.000468,  46.763
   397.8,0.000671,0.000324,0.006642,0.000503,  46.762
   398.0,0.000665,0.000324,0.006649,0.000503,  46.764
   398.2,0.000671,0.000324,0.006678,0.000468,  46.769
   398.4,0.000671,0.000324,0.006700,0.000503,  46.766
   398.6,0.000665,0.000320,0.006729,0.000503,  46.763
   398.8,0.000668,0.000321,0.006731,0.000468,  46.766
   399.0,0.000663,0.000321,0.006724,0.000503,  46.767
   399.2,0.000659,0.000315,0.006692,0.000503,  46.769
   399.4,0.000663,0.000317,0.006679,0.000503,  46.767
   399.6,0.000660,0.000313,0.006660,0.000503,  46.766
   399.8,0.000654,0.000309,0.006640,0.000503,  46.766
   400.0,0.000660,0.000310,0.006614,0.000503,  46.768
   400.2,0.000658,0.000310,0.006391,0.000481,  46.762
   400.4,0.000649,0.000303,0.006093,0.000517,  46.768
   400.6,0.000652,0.000305,0.005715,0.000517,  46.769
   400.8,0.000653,0.000303,0.005658,0.000481,  46.771
   401.0,0.000651,0.000304,0.005733,0.000503,  46.769
   401.2,0.000653,0.000305,0.005930,0.000503,  46.770
   401.4,0.000661,0.000305,0.005993,0.000468,  46.772
   401.6,0.000665,0.000303,0.006056,0.000503,  46.772
   401.8,0.000663,0.000301,0.006117,0.000503,  46.772
   402.0,0.000664,0.000303,0.006160,0.000503,  46.770
   402.2,0.000654,0.000301,0.006203,0.000525,  46.770
   402.4,0.000647,0.000299,0.006231,0.000525,  46.775
   402.6,0.000646,0.000300,0.006226,0.000538,  46.771
   402.8,0.000643,0.000297,0.006219,0.000525,  46.772
   403.0,0.000636,0.000299,0.006180,0.000525,  46.772
   403.2,0.000643,0.000300,0.006174,0.000538,  46.772
   403.4,0.000639,0.000300,0.006181,0.000525,  46.775
   403.6,0.000639,0.000296,0.006183,0.000525,  46.774
   403.8,0.000633,0.000302,0.006022,0.000538,  46.770
   404.0,0.000629,0.000300,0.005772,0.000538,  46.769
   404.2,0.000629,0.000300,0.005441,0.000538,  46.774
   404.4,0.000627,0.000296,0.005207,0.000517,  46.774
   404.6,0.000623,0.000290,0.004992,0.000517,  46.770
   404.8,0.000620,0.000288,0.004790,0.000517,  46.771
   405.0,0.000624,0.000288,0.004428,0.000495,  46.768
   405.2,0.000620,0.000284,0.003999,0.000517,  46.774
   405.4,0.000624,0.000286,0.003497,0.000517,  46.772
   405.6,0.000628,0.000288,0.003573,0.000495,  46.773
   405.8,0.000634,0.000286,0.003909,0.000517,  46.771
   406.0,0.000621,0.000288,0.004476,0.000517,  46.774
   406.2,0.000628,0.000294,0.004720,0.000495,  46.776
   406.4,0.000625,0.000290,0.004911,0.000517,  46.770
   406.6,0.000619,0.000288,0.005073,0.000517,  46.776
   406.8,0.000622,0.000287,0.005216,0.000495,  46.772
   407.0,0.000620,0.000282,0.005319,0.000517,  46.772
   407.2,0.000613,0.000284,0.005387,0.000517,  46.773
   407.4,0.000617,0.000284,0.005436,0.000495,  46.774
   407.6,0.000614,0.000280,0.005457,0.000517,  46.774
   407.8,0.000608,0.000280,0.005444,0.000517,  46.775
   408.0,0.000617,0.000282,0.005480,0.000481,  46.774
   408.2,0.000617,0.000278,0.005528,0.000530,  46.770
   408.4,0.000608,0.000280,0.005595,0.000517,  46.775
   408.6,0.000614,0.000280,0.005590,0.000517,  46.774
   408.8,0.000609,0.000278,0.005558,0.000530,  46.777
   409.0,0.000609,0.000280,0.005491,0.000517,  46.769
   409.2,0.000606,0.000285,0.005485,0.000517,  46.774
   409.4,0.000610,0.000281,0.005501,0.000495,  46.772
   409.6,0.000613,0.000281,0.005528,0.000517,  46.774
   409.8,0.000610,0.000285,0.005570,0.000530,  46.777
   410.0,0.000614,0.000282,0.005551,0.000495,  46.773
   410.2,0.000616,0.000284,0.005518,0.000530,  46.775
   410.4,0.000616,0.000284,0.005465,0.000543,  46.775
   410.6,0.000622,0.000282,0.005445,0.000495,  46.771
   410.8,0.000625,0.000284,0.005421,0.000530,  46.770
   411.0,0.000621,0.000284,0.005407,0.000543,  46.768
   411.2,0.000628,0.000284,0.005353,0.000508,  46.770
   411.4,0.000630,0.000283,0.005273,0.000543,  46.771
   411.6,0.000624,0.000278,0.005166,0.000557,  46.767
   411.8,0.000628,0.000281,0.005160,0.000521,  46.765
   412.0,0.000630,0.000277,0.005195,0.000543,  46.763
   412.2,0.000621,0.000273,0.005252,0.000557,  46.761
   412.4,0.000625,0.000274,0.005246,0.000521,  46.763
   412.6,0.000628,0.000274,0.005221,0.000543,  46.760
   412.8,0.000619,0.000270,0.005179,0.000557,  46.760
   413.0,0.000619,0.000277,0.005133,0.000521,  46.759
   413.2,0.000621,0.000281,0.005079,0.000543,  46.754
   413.4,0.000619,0.000277,0.004998,0.000521,  46.757
   413.6,0.000622,0.000278,0.004737,0.000521,  46.753
   413.8,0.000625,0.000278,0.004387,0.000521,  46.752
   414.0,0.000616,0.000279,0.003937,0.000499,  46.751
   414.2,0.000620,0.000277,0.003925,0.000521,  46.750
   414.4,0.000622,0.000271,0.004080,0.000521,  46.747
   414.6,0.000614,0.000273,0.004411,0.000499,  46.750
   414.8,0.000620,0.000279,0.004506,0.000535,  46.747
   415.0,0.000617,0.000275,0.004561,0.000535,  46.746
   415.2,0.000620,0.000275,0.004588,0.000513,  46.744
   415.4,0.000617,0.000275,0.004631,0.000548,  46.738
   415.6,0.000617,0.000271,0.004679,0.000548,  46.743
   415.8,0.000617,0.000273,0.004720,0.000513,  46.740
   416.0,0.000612,0.000275,0.004749,0.000548,  46.746
   416.2,0.000612,0.000273,0.004763,0.000548,  46.740
   416.4,0.000609,0.000270,0.004763,0.000513,  46.737
   416.6,0.000603,0.000272,0.004650,0.000548,  46.735
   416.8,0.000604,0.000268,0.004469,0.000535,  46.735
   417.0,0.000601,0.000268,0.004226,0.000535,  46.737
   417.2,0.000599,0.000270,0.004199,0.000548,  46.735
   417.4,0.000599,0.000264,0.004241,0.000535,  46.734
   417.6,0.000599,0.000266,0.004356,0.000535,  46.735
   417.8,0.000599,0.000265,0.004398,0.000535,  46.735
   418.0,0.000597,0.000261,0.004447,0.000535,  46.732
   418.2,0.000597,0.000260,0.004494,0.000535,  46.738
   418.4,0.000597,0.000264,0.004536,0.000513,  46.733
   418.6,0.000594,0.000266,0.004553,0.000548,  46.727
   418.8,0.000594,0.000264,0.004561,0.000535,  46.731
   419.0,0.000597,0.000267,0.004562,0.000513,  46.728
   419.2,0.000594,0.000267,0.004557,0.000548,  46.729
   419.4,0.000594,0.000271,0.004539,0.000535,  46.726
   419.6,0.000594,0.000266,0.004525,0.000513,  46.728
   419.8,0.000592,0.000266,0.004514,0.000548,  46.725
   420.0,0.000589,0.000265,0.004515,0.000535,  46.724
   420.2,0.000589,0.000267,0.004515,0.000513,  46.727
   420.4,0.000589,0.000267,0.004490,0.000548,  46.726
   420.6,0.000586,0.000267,0.004464,0.000535,  46.726
   420.8,0.000584,0.000265,0.004437,0.000513,  46.726
   421.0,0.000584,0.000263,0.004404,0.000548,  46.726
   421.2,0.000592,0.000263,0.004358,0.000548,  46.726
   421.4,0.000590,0.000261,0.004318,0.000513,  46.724
   421.6,0.000587,0.000261,0.004333,0.000548,  46.724
   421.8,0.000596,0.000261,0.004367,0.000548,  46.725
   422.0,0.000596,0.000259,0.004423,0.000513,  46.724
   422.2,0.000587,0.000260,0.004169,0.000548,  46.724
   422.4,0.000590,0.000260,0.003791,0.000535,  46.726
   422.6,0.000592,0.000260,0.003266,0.000513,  46.727
   422.8,0.000592,0.000262,0.003181,0.000548,  46.725
   423.0,0.000595,0.000264,0.003248,0.000548,  46.729
   423.2,0.000595,0.000266,0.003469,0.000513,  46.728
   423.4,0.000592,0.000268,0.003550,0.000548,  46.731
   423.6,0.000592,0.000270,0.003626,0.000548,  46.731
   423.8,0.000592,0.000268,0.003702,0.000513,  46.733
   424.0,0.000592,0.000268,0.003743,0.000548,  46.731
   424.2,0.000590,0.000270,0.003763,0.000548,  46.733
   424.4,0.000592,0.000264,0.003758,0.000513,  46.733
   424.6,0.000592,0.000264,0.003781,0.000548,  46.729
   424.8,0.000590,0.000268,0.003815,0.000548,  46.731
   425.0,0.000592,0.000261,0.003855,0.000513,  46.734
   425.2,0.000587,0.000265,0.003884,0.000548,  46.732
   425.4,0.000584,0.000265,0.003919,0.000548,  46.734
   425.6,0.000587,0.000263,0.003946,0.000513,  46.733
   425.8,0.000584,0.000266,0.003982,0.000548,  46.735
   426.0,0.000584,0.000264,0.004017,0.000548,  46.735
   426.2,0.000587,0.000255,0.004059,0.000548,  46.733
   426.4,0.000587,0.000256,0.004047,0.000548,  46.734
   426.6,0.000587,0.000256,0.004001,0.000548,  46.738
   426.8,0.000590,0.000249,0.003927,0.000548,  46.738
   427.0,0.000590,0.000251,0.003908,0.000548,  46.736
   427.2,0.000587,0.000248,0.003896,0.000548,  46.737
   427.4,0.000590,0.000252,0.003902,0.000548,  46.738
   427.6,0.000587,0.000256,0.003922,0.000513,  46.737
   427.8,0.000584,0.000254,0.003822,0.000548,  46.742
   428.0,0.000584,0.000254,0.003675,0.000548,  46.740
   428.2,0.000582,0.000250,0.003494,0.000513,  46.740
   428.4,0.000577,0.000248,0.003454,0.000548,  46.742
   428.6,0.000577,0.000248,0.003456,0.000548,  46.737
   428.8,0.000577,0.000248,0.003517,0.000513,  46.741
   429.0,0.000574,0.000246,0.003553,0.000548,  46.744
   429.2,0.000571,0.000248,0.003606,0.000548,  46.744
   429.4,0.000571,0.000244,0.003662,0.000513,  46.745
   429.6,0.000571,0.000249,0.003704,0.000548,  46.744
   429.8,0.000571,0.000249,0.003745,0.000548,  46.745
   430.0,0.000571,0.000254,0.003779,0.000513,  46.742
   430.2,0.000574,0.000256,0.003717,0.000548,  46.750
   430.4,0.000574,0.000256,0.003597,0.000548,  46.745
   430.6,0.000574,0.000251,0.003417,0.000513,  46.746
   430.8,0.000571,0.000252,0.003417,0.000548,  46.748
   431.0,0.000569,0.000254,0.003486,0.000548,  46.749
   431.2,0.000569,0.000249,0.003609,0.000513,  46.749
   431.4,0.000577,0.000253,0.003288,0.000548,  46.752
   431.6,0.000571,0.000255,0.002766,0.000548,  46.750
   431.8,0.000571,0.000250,0.002069,0.000513,  46.749
   432.0,0.000577,0.000251,0.001796,0.000548,  46.752
   432.2,0.000571,0.000249,0.001650,0.000548,  46.754
   432.4,0.000569,0.000242,0.001616,0.000526,  46.747
   432.6,0.000572,0.000245,0.001771,0.000561,  46.752
   432.8,0.000572,0.000243,0.002079,0.000561,  46.749
   433.0,0.000566,0.000241,0.002535,0.000539,  46.753
   433.2,0.000569,0.000245,0.002738,0.000575,  46.751
   433.4,0.000569,0.000249,0.002899,0.000561,  46.751
   433.6,0.000569,0.000249,0.002993,0.000526,  46.748
   433.8,0.000569,0.000251,0.003089,0.000561,  46.750
   434.0,0.000569,0.000251,0.003163,0.000561,  46.745
   434.2,0.000566,0.000251,0.003210,0.000526,  46.748
   434.4,0.000563,0.000247,0.003224,0.000575,  46.747
   434.6,0.000567,0.000249,0.003211,0.000575,  46.751
   434.8,0.000563,0.000249,0.003170,0.000539,  46.745
   435.0,0.000561,0.000253,0.003036,0.000588,  46.747
   435.2,0.000567,0.000255,0.002842,0.000575,  46.753
   435.4,0.000563,0.000255,0.002588,0.000575,  46.746
   435.6,0.000561,0.000253,0.002562,0.000575,  46.745
   435.8,0.000567,0.000253,0.002623,0.000575,  46.753
   436.0,0.000561,0.000253,0.002777,0.000575,  46.748
   436.2,0.000561,0.000251,0.002831,0.000575,  46.747
   436.4,0.000564,0.000251,0.002879,0.000575,  46.752
   436.6,0.000558,0.000247,0.002907,0.000575,  46.741
   436.8,0.000561,0.000247,0.002947,0.000539,  46.744
   437.0,0.000564,0.000245,0.003002,0.000588,  46.743
   437.2,0.000558,0.000240,0.003056,0.000575,  46.744
   437.4,0.000564,0.000243,0.003099,0.000539,  46.738
   437.6,0.000568,0.000245,0.003154,0.000588,  46.742
   437.8,0.000562,0.000244,0.003190,0.000575,  46.743
   438.0,0.000568,0.000247,0.003237,0.000561,  46.742
   438.2,0.000568,0.000250,0.003238,0.000561,  46.740
   438.4,0.000562,0.000250,0.003219,0.000570,  46.740
   438.6,0.000562,0.000245,0.003178,0.000548,  46.739
   438.8,0.000562,0.000247,0.003185,0.000548,  46.737
   439.0,0.000555,0.000249,0.003200,0.000561,  46.735
   439.2,0.000562,0.000247,0.003227,0.000539,  46.733
   439.4,0.000565,0.000247,0.003202,0.000588,  46.733
   439.6,0.000559,0.000245,0.003161,0.000575,  46.737
   439.8,0.000568,0.000248,0.003089,0.000539,  46.729
   440.0,0.000568,0.000253,0.002956,0.000588,  46.732
   440.2,0.000562,0.000246,0.002788,0.000588,  46.732
   440.4,0.000568,0.000249,0.002586,0.000553,  46.726
   440.6,0.000571,0.000249,0.002572,0.000588,  46.730
   440.8,0.000565,0.000247,0.002621,0.000588,  46.733
   441.0,0.000565,0.000246,0.002749,0.000553,  46.730
   441.2,0.000569,0.000246,0.002776,0.000588,  46.732
   441.4,0.000562,0.000243,0.002783,0.000588,  46.732
   441.6,0.000562,0.000241,0.002769,0.000553,  46.731
   441.8,0.000569,0.000246,0.002804,0.000601,  46.729
   442.0,0.000569,0.000243,0.002859,0.000601,  46.731
   442.2,0.000571,0.000245,0.002915,0.000566,  46.724
   442.4,0.000565,0.000250,0.002922,0.000615,  46.731
   442.6,0.000571,0.000252,0.002916,0.000601,  46.732
   442.8,0.000568,0.000252,0.002882,0.000566,  46.732
   443.0,0.000568,0.000253,0.002882,0.000615,  46.731
   443.2,0.000565,0.000256,0.002890,0.000601,  46.730
   443.4,0.000559,0.000255,0.002899,0.000566,  46.728
   443.6,0.000565,0.000253,0.002879,0.000615,  46.731
   443.8,0.000562,0.000250,0.002853,0.000601,  46.732
   444.0,0.000554,0.000245,0.002806,0.000601,  46.733
   444.2,0.000560,0.000246,0.002813,0.000615,  46.735
   444.4,0.000560,0.000246,0.002841,0.000601,  46.733
   444.6,0.000551,0.000246,0.002871,0.000601,  46.731
   444.8,0.000555,0.000246,0.002865,0.000615,  46.733
   445.0,0.000555,0.000243,0.002859,0.000601,  46.732
   445.2,0.000551,0.000239,0.002820,0.000601,  46.737
   445.4,0.000552,0.000242,0.002779,0.000566,  46.736
   445.6,0.000549,0.000237,0.002739,0.000615,  46.731
   445.8,0.000543,0.000234,0.002698,0.000601,  46.733
   446.0,0.000549,0.000238,0.002639,0.000566,  46.738
   446.2,0.000547,0.000234,0.002628,0.000615,  46.735
   446.4,0.000540,0.000232,0.002655,0.000601,  46.735
   446.6,0.000547,0.000237,0.002690,0.000566,  46.737
   446.8,0.000541,0.000235,0.002686,0.000615,  46.733
   447.0,0.000535,0.000229,0.002673,0.000601,  46.736
   447.2,0.000541,0.000225,0.002647,0.000566,  46.740
   447.4,0.000545,0.000223,0.002635,0.000615,  46.740
   447.6,0.000536,0.000221,0.002615,0.000601,  46.739
