Run Name,50% Concentration Group 11
Run Date,01:25:56 PM   02-10-11
Method Name,50%B-Isocrat
Export Format Version, 1.00
Method ID, 1177
Points/Second, 1.00
Number of Records,    459
Offset from Run Start Time,00:00:00
Run End Time,00:07:48
Time,Second
QuadTec 1, (280.0 nm), AU
QuadTec 2, (260.0 nm), AU
Gradient Pump,<Not Selected>
QuadTec 3, (214.0 nm), AU
QuadTec 4, (405.0 nm), AU
Conductivity,mS/cm
Trace 6,<Not Available>
GP Pressure,<Not Selected>
Volume,<Not Selected>
Fraction,<Not Available>
Time,QuadTec 1,QuadTec 2,QuadTec 3,QuadTec 4,Conductivity
     0.0,0.010105,-0.359514,0.063275,0.000000,  46.688
     1.0,0.010105,-0.359516,0.000000,0.000000,  46.694
     2.0,0.010105,-0.359519,0.000000,0.000000,  46.694
     3.0,0.010103,-0.359525,0.000000,0.000000,  46.695
     4.0,0.010100,-0.359521,0.000000,0.000000,  46.700
     5.0,0.010100,0.000000,0.001576,-0.000049,  46.701
     6.0,0.010100,0.000000,0.001216,-0.000044,  46.700
     7.0,0.000000,0.000000,0.001720,-0.000067,  46.696
     8.0,0.000000,0.000000,0.001844,-0.000031,  46.694
     9.0,0.000000,0.000000,0.001831,-0.000053,  46.688
    10.0,0.000000,0.000019,0.001372,-0.000040,  46.682
    11.0,0.000003,0.000021,0.001669,-0.000018,  46.679
    12.0,0.000003,0.000023,0.001688,-0.000004,  46.677
    13.0,-0.000002,0.000033,0.001738,-0.000040,  46.675
    14.0,0.000004,0.000039,0.001730,-0.000027,  46.674
    15.0,0.000003,0.000041,0.001735,-0.000062,  46.675
    16.0,0.000012,0.000053,0.001687,-0.000027,  46.668
    17.0,0.000009,0.000046,0.001515,-0.000027,  46.664
    18.0,0.000007,0.000041,0.000520,-0.000035,  46.668
    19.0,0.000014,0.000044,0.001417,-0.000013,  46.665
    20.0,0.000008,0.000046,0.001713,0.000014,  46.661
    21.0,0.000007,0.000056,0.001927,0.000014,  46.664
    22.0,0.000019,0.000055,0.001987,0.000014,  46.659
    23.0,0.000015,0.000059,0.001936,-0.000022,  46.653
    24.0,0.000015,0.000060,0.001974,0.000027,  46.648
    25.0,0.000021,0.000067,0.001665,0.000005,  46.645
    26.0,0.000023,0.000067,0.001941,-0.000017,  46.636
    27.0,0.000040,0.000084,0.002184,-0.000031,  46.633
    28.0,0.000045,0.000090,0.002218,-0.000017,  46.629
    29.0,0.000051,0.000092,0.001731,-0.000004,  46.629
    30.0,0.000057,0.000095,0.001901,-0.000066,  46.618
    31.0,0.000061,0.000097,0.002111,-0.000017,  46.622
    32.0,0.000057,0.000085,0.001893,-0.000031,  46.619
    33.0,0.000053,0.000079,0.001975,-0.000031,  46.599
    34.0,0.000042,0.000078,0.001982,-0.000004,  46.599
    35.0,0.000049,0.000069,0.001993,-0.000004,  46.597
    36.0,0.000043,0.000076,0.001980,0.000009,  46.598
    37.0,0.000049,0.000073,0.001960,0.000023,  46.595
    38.0,0.000046,0.000082,0.002028,0.000009,  46.603
    39.0,0.000045,0.000084,0.002147,-0.000013,  46.602
    40.0,0.000049,0.000087,0.002028,0.000009,  46.606
    41.0,0.000060,0.000097,0.001986,0.000023,  46.607
    42.0,0.000063,0.000106,0.002050,0.000023,  46.606
    43.0,0.000065,0.000107,0.002137,0.000023,  46.603
    44.0,0.000068,0.000102,0.002018,0.000023,  46.607
    45.0,0.000079,0.000101,0.002130,0.000023,  46.632
    46.0,0.000081,0.000107,0.002043,0.000023,  46.639
    47.0,0.000087,0.000106,0.001982,0.000023,  46.644
    48.0,0.000090,0.000103,0.001815,0.000036,  46.647
    49.0,0.000093,0.000111,0.001930,0.000036,  46.649
    50.0,0.000080,0.000109,0.002050,0.000036,  46.646
    51.0,0.000081,0.000116,0.001712,0.000036,  46.643
    52.0,0.000081,0.000109,0.002072,0.000036,  46.713
    53.0,0.000081,0.000104,0.001936,0.000009,  46.653
    54.0,0.000074,0.000110,0.002324,-0.000044,  46.646
    55.0,0.000073,0.000104,0.002156,-0.000017,  46.647
    56.0,0.000087,0.000111,0.001902,0.000036,  46.647
    57.0,0.000088,0.000116,0.001545,0.000027,  46.659
    58.0,0.000093,0.000169,0.002148,0.000156,  46.658
    59.0,0.000101,0.000256,0.002431,0.000170,  46.653
    60.0,0.000186,0.000108,0.002324,0.000156,  46.658
    61.0,0.000081,0.000113,0.002344,0.000130,  46.659
    62.0,0.000086,0.000153,0.001685,0.000090,  46.649
    63.0,0.000101,0.000344,0.001781,0.000116,  46.639
    64.0,0.000242,0.000310,0.002108,0.000116,  46.635
    65.0,0.000265,0.000254,0.001378,0.000116,  46.626
    66.0,0.000252,0.000248,0.001532,0.000081,  46.628
    67.0,0.000209,0.000221,0.002113,0.000116,  46.625
    68.0,0.000199,0.000220,0.002297,0.000116,  46.624
    69.0,0.000196,0.000220,0.002353,0.000130,  46.623
    70.0,0.000210,0.000217,0.002348,0.000103,  46.620
    71.0,0.000210,0.000212,0.002270,0.000103,  46.626
    72.0,0.000194,0.000206,0.002183,0.000090,  46.630
    73.0,0.000194,0.000203,0.002241,0.000103,  46.631
    74.0,0.000181,0.000207,0.002174,0.000103,  46.638
    75.0,0.000187,0.000199,0.002313,0.000103,  46.638
    76.0,0.000200,0.000204,0.002294,0.000116,  46.635
    77.0,0.000192,0.000202,0.002295,0.000130,  46.628
    78.0,0.000182,0.000195,0.002257,0.000116,  46.625
    79.0,0.000176,0.000193,0.002132,0.000130,  46.629
    80.0,0.000188,0.000198,0.002201,0.000143,  46.625
    81.0,0.000195,0.000193,0.002299,0.000130,  46.623
    82.0,0.000201,0.000195,0.002369,0.000143,  46.626
    83.0,0.000204,0.000201,0.002317,0.000156,  46.632
    84.0,0.000204,0.000207,0.002289,0.000183,  46.631
    85.0,0.000212,0.000212,0.002685,0.000183,  46.636
    86.0,0.000215,0.000223,0.002398,0.000170,  46.632
    87.0,0.000225,0.000243,0.002855,0.000197,  46.634
    88.0,0.000233,0.000257,0.004049,0.000197,  46.632
    89.0,0.000243,0.000271,0.005532,0.000197,  46.642
    90.0,0.000255,0.000303,0.007870,0.000210,  46.640
    91.0,0.000289,0.000333,0.011031,0.000197,  46.638
    92.0,0.000335,0.000363,0.015580,0.000188,  46.635
    93.0,0.000368,0.000388,0.020266,0.000237,  46.632
    94.0,0.000412,0.000418,0.027821,0.000250,  46.632
    95.0,0.000486,0.000502,0.036668,0.000264,  46.634
    96.0,0.000604,0.000652,0.047803,0.000255,  46.634
    97.0,0.000793,0.000869,0.062880,0.000241,  46.632
    98.0,0.001122,0.001150,0.078711,0.000241,  46.634
    99.0,0.001569,0.001523,0.098731,0.000255,  46.634
   100.0,0.002161,0.001859,0.120106,0.000282,  46.636
   101.0,0.002859,0.002361,0.142304,0.000295,  46.632
   102.0,0.003710,0.002972,0.169885,0.000308,  46.639
   103.0,0.004818,0.003636,0.204349,0.000322,  46.639
   104.0,0.005877,0.004518,0.240116,0.000349,  46.645
   105.0,0.007244,0.005569,0.284515,0.000375,  46.645
   106.0,0.009031,0.006837,0.329922,0.000389,  46.648
   107.0,0.011193,0.008284,0.384540,0.000402,  46.648
   108.0,0.013603,0.009943,0.443040,0.000442,  46.662
   109.0,0.016677,0.011476,0.506881,0.000420,  46.667
   110.0,0.019884,0.013800,0.564264,0.000482,  46.668
   111.0,0.024006,0.016196,0.643564,0.000523,  46.670
   112.0,0.028320,0.019110,0.722751,0.000563,  46.672
   113.0,0.032361,0.022316,0.807958,0.000576,  46.671
   114.0,0.037917,0.025930,0.902614,0.000590,  46.669
   115.0,0.044177,0.029775,0.998100,0.000630,  46.673
   116.0,0.050989,0.034193,1.100349,0.000670,  46.676
   117.0,0.058627,0.037953,1.203863,0.000683,  46.677
   118.0,0.066541,0.042494,1.311198,0.000697,  46.671
   119.0,0.075165,0.047604,1.393529,0.000724,  46.671
   120.0,0.084448,0.052815,1.507125,0.000724,  46.665
   121.0,0.093807,0.058437,1.610777,0.000773,  46.664
   122.0,0.102693,0.064255,1.717186,0.000786,  46.659
   123.0,0.112187,0.070162,1.810906,0.000777,  46.657
   124.0,0.122982,0.076111,1.911979,0.000764,  46.651
   125.0,0.133588,0.082301,2.004149,0.000777,  46.647
   126.0,0.144865,0.086949,2.090835,0.000764,  46.642
   127.0,0.155552,0.093276,2.164522,0.000764,  46.629
   128.0,0.166801,0.099164,2.227921,0.000786,  46.615
   129.0,0.177590,0.105176,2.291742,0.000724,  46.585
   130.0,0.188493,0.110963,2.349263,0.000737,  46.564
   131.0,0.196753,0.116799,2.397640,0.000697,  46.542
   132.0,0.207397,0.122249,2.440619,0.000683,  46.516
   133.0,0.217477,0.127770,2.475883,0.000670,  46.476
   134.0,0.227236,0.132766,2.506794,0.000652,  46.455
   135.0,0.236724,0.136729,2.533896,0.000612,  46.420
   136.0,0.245581,0.141532,2.552252,0.000563,  46.391
   137.0,0.254394,0.145884,2.569310,0.000531,  46.342
   138.0,0.262170,0.150082,2.589403,0.000505,  46.305
   139.0,0.269860,0.154009,2.600919,0.000464,  46.251
   140.0,0.275490,0.157687,2.612687,0.000424,  46.213
   141.0,0.282243,0.160950,2.627287,0.000398,  46.169
   142.0,0.288210,0.164113,2.632254,0.000384,  46.102
   143.0,0.294161,0.166802,2.642530,0.000304,  46.027
   144.0,0.299156,0.169080,2.650323,0.000290,  45.957
   145.0,0.304022,0.171499,2.652887,0.000264,  45.867
   146.0,0.308243,0.173745,2.660851,0.000179,  45.767
   147.0,0.312186,0.175742,2.663499,0.000215,  45.658
   148.0,0.315021,0.177665,2.671911,0.000241,  45.535
   149.0,0.318307,0.179367,2.680171,0.000295,  45.400
   150.0,0.321392,0.181117,2.682901,0.000447,  45.235
   151.0,0.324304,0.182738,2.691399,0.000505,  45.048
   152.0,0.327176,0.184569,2.700180,0.000648,  44.852
   153.0,0.329864,0.186115,2.703063,0.000818,  44.614
   154.0,0.333159,0.188067,2.711973,0.001019,  44.368
   155.0,0.336262,0.190417,2.718021,0.001260,  44.098
   156.0,0.340072,0.192988,2.724156,0.001529,  43.828
   157.0,0.343535,0.196124,2.733579,0.001797,  43.550
   158.0,0.347989,0.199475,2.736756,0.002021,  43.267
   159.0,0.353274,0.203541,2.743241,0.002209,  43.004
   160.0,0.359672,0.207788,2.746473,0.002344,  42.761
   161.0,0.366356,0.212443,2.752998,0.002465,  42.554
   162.0,0.374051,0.216859,2.756666,0.002483,  42.390
   163.0,0.382207,0.222055,2.756407,0.002497,  42.288
   164.0,0.390386,0.227259,2.763115,0.002470,  42.230
   165.0,0.398459,0.232400,2.766481,0.002429,  42.243
   166.0,0.405922,0.237159,2.763085,0.002362,  42.312
   167.0,0.412430,0.241492,2.763095,0.002254,  42.436
   168.0,0.419063,0.245421,2.766506,0.002174,  42.617
   169.0,0.425226,0.248505,2.763125,0.002097,  42.828
   170.0,0.429877,0.251105,2.763120,0.001932,  43.090
   171.0,0.433676,0.252631,2.763069,0.001802,  43.367
   172.0,0.436358,0.253779,2.763080,0.001744,  43.659
   173.0,0.437303,0.254367,2.756351,0.001601,  43.958
   174.0,0.437432,0.254436,2.752917,0.001556,  44.248
   175.0,0.436881,0.253974,2.749690,0.001475,  44.519
   176.0,0.435666,0.253104,2.746473,0.001408,  44.794
   177.0,0.433403,0.251774,2.739996,0.001368,  45.057
   178.0,0.430587,0.250033,2.736801,0.001287,  45.284
   179.0,0.427084,0.248421,2.727249,0.001260,  45.492
   180.0,0.423221,0.246241,2.721131,0.001207,  45.682
   181.0,0.418600,0.243779,2.712145,0.001166,  45.829
   182.0,0.413676,0.241015,2.703038,0.001139,  45.960
   183.0,0.408530,0.238146,2.694193,0.001126,  46.087
   184.0,0.404010,0.235085,2.677155,0.001113,  46.168
   185.0,0.398215,0.232089,2.663474,0.001072,  46.252
   186.0,0.392535,0.228800,2.650202,0.001072,  46.324
   187.0,0.386417,0.225551,2.634797,0.001045,  46.366
   188.0,0.380341,0.222873,2.617436,0.001032,  46.408
   189.0,0.374282,0.219055,2.603097,0.001019,  46.434
   190.0,0.367428,0.215441,2.580255,0.001005,  46.447
   191.0,0.360822,0.211814,2.556544,0.000978,  46.456
   192.0,0.354935,0.208138,2.529957,0.000978,  46.469
   193.0,0.349001,0.204399,2.497388,0.000938,  46.479
   194.0,0.342167,0.200785,2.467159,0.000938,  46.497
   195.0,0.335693,0.196884,2.432508,0.000952,  46.505
   196.0,0.328736,0.193428,2.394730,0.000938,  46.509
   197.0,0.322232,0.189951,2.359785,0.000925,  46.512
   198.0,0.315358,0.186035,2.323864,0.000925,  46.513
   199.0,0.308451,0.182136,2.282609,0.000898,  46.515
   200.0,0.301576,0.178405,2.238866,0.000925,  46.516
   201.0,0.296404,0.174448,2.189954,0.000911,  46.518
   202.0,0.289381,0.170587,2.144368,0.000898,  46.520
   203.0,0.282793,0.166756,2.096457,0.000898,  46.526
   204.0,0.276280,0.162956,2.047402,0.000885,  46.541
   205.0,0.269648,0.159939,1.996357,0.000885,  46.542
   206.0,0.263243,0.155973,1.956960,0.000871,  46.539
   207.0,0.256465,0.152211,1.906522,0.000858,  46.540
   208.0,0.250125,0.148422,1.857092,0.000836,  46.543
   209.0,0.243998,0.144680,1.805837,0.000822,  46.549
   210.0,0.238648,0.140917,1.752503,0.000809,  46.556
   211.0,0.232138,0.137359,1.701077,0.000760,  46.552
   212.0,0.226134,0.133725,1.655150,0.000795,  46.557
   213.0,0.219837,0.130433,1.605563,0.000818,  46.565
   214.0,0.214191,0.127421,1.558732,0.000818,  46.561
   215.0,0.208081,0.123812,1.510576,0.000804,  46.563
   216.0,0.202136,0.120305,1.474978,0.000804,  46.573
   217.0,0.196429,0.117087,1.429208,0.000831,  46.579
   218.0,0.191087,0.113601,1.382257,0.000818,  46.582
   219.0,0.186403,0.110396,1.338908,0.000818,  46.584
   220.0,0.180723,0.107178,1.294776,0.000804,  46.592
   221.0,0.175545,0.104136,1.252745,0.000804,  46.596
   222.0,0.170240,0.101012,1.210343,0.000777,  46.621
   223.0,0.165152,0.098086,1.170957,0.000791,  46.627
   224.0,0.159838,0.095511,1.131320,0.000764,  46.627
   225.0,0.154920,0.092487,1.101828,0.000764,  46.634
   226.0,0.149944,0.089685,1.063162,0.000750,  46.638
   227.0,0.145340,0.086769,1.025674,0.000764,  46.640
   228.0,0.141580,0.084080,0.989341,0.000764,  46.647
   229.0,0.136949,0.081332,0.955986,0.000764,  46.655
   230.0,0.132490,0.078822,0.921345,0.000764,  46.666
   231.0,0.128308,0.076166,0.888486,0.000764,  46.668
   232.0,0.123949,0.074114,0.857228,0.000750,  46.679
   233.0,0.119615,0.071610,0.827718,0.000728,  46.680
   234.0,0.115589,0.069269,0.803440,0.000750,  46.684
   235.0,0.111755,0.066882,0.772764,0.000679,  46.686
   236.0,0.107860,0.064590,0.744313,0.000728,  46.681
   237.0,0.104778,0.062406,0.715683,0.000728,  46.677
   238.0,0.101216,0.060264,0.690547,0.000679,  46.681
   239.0,0.097583,0.058147,0.664471,0.000715,  46.672
   240.0,0.094241,0.056075,0.640373,0.000701,  46.671
   241.0,0.090774,0.054441,0.615856,0.000679,  46.673
   242.0,0.087481,0.052440,0.596381,0.000701,  46.668
   243.0,0.084281,0.050620,0.574853,0.000666,  46.670
   244.0,0.081330,0.048761,0.552682,0.000675,  46.661
   245.0,0.078432,0.047020,0.531245,0.000683,  46.661
   246.0,0.076032,0.045282,0.511016,0.000710,  46.660
   247.0,0.073206,0.043680,0.490571,0.000675,  46.655
   248.0,0.070518,0.042005,0.472379,0.000675,  46.645
   249.0,0.067826,0.040598,0.454293,0.000639,  46.650
   250.0,0.065193,0.039202,0.437195,0.000661,  46.652
   251.0,0.062767,0.037760,0.421239,0.000639,  46.657
   252.0,0.060399,0.036330,0.405366,0.000675,  46.664
   253.0,0.058035,0.034921,0.390288,0.000661,  46.663
   254.0,0.056114,0.033597,0.374708,0.000612,  46.663
   255.0,0.054124,0.032330,0.360331,0.000661,  46.669
   256.0,0.052039,0.031100,0.345519,0.000648,  46.669
   257.0,0.050027,0.029845,0.332277,0.000612,  46.661
   258.0,0.048022,0.028818,0.318820,0.000675,  46.652
   259.0,0.046196,0.027816,0.306724,0.000661,  46.654
   260.0,0.044338,0.026725,0.296754,0.000675,  46.649
   261.0,0.042602,0.025681,0.284462,0.000661,  46.639
   262.0,0.040892,0.024681,0.272199,0.000639,  46.641
   263.0,0.039353,0.023700,0.262262,0.000661,  46.639
   264.0,0.037980,0.022789,0.251454,0.000657,  46.638
   265.0,0.036508,0.021863,0.241145,0.000621,  46.639
   266.0,0.035021,0.020975,0.231610,0.000634,  46.642
   267.0,0.033553,0.020314,0.221564,0.000621,  46.638
   268.0,0.032231,0.019514,0.213167,0.000648,  46.636
   269.0,0.030954,0.018703,0.206110,0.000634,  46.629
   270.0,0.029647,0.017924,0.197851,0.000585,  46.628
   271.0,0.028425,0.017223,0.189628,0.000634,  46.628
   272.0,0.027520,0.016530,0.181918,0.000621,  46.627
   273.0,0.026384,0.015844,0.174660,0.000585,  46.619
   274.0,0.025284,0.015194,0.167576,0.000634,  46.624
   275.0,0.024227,0.014613,0.160759,0.000634,  46.618
   276.0,0.023222,0.014123,0.154554,0.000634,  46.618
   277.0,0.022260,0.013553,0.148905,0.000634,  46.616
   278.0,0.021364,0.013008,0.143072,0.000612,  46.607
   279.0,0.020483,0.012475,0.137504,0.000648,  46.614
   280.0,0.019797,0.011981,0.132019,0.000621,  46.618
   281.0,0.018996,0.011504,0.126491,0.000585,  46.621
   282.0,0.018230,0.011035,0.121243,0.000634,  46.637
   283.0,0.017469,0.010563,0.116493,0.000634,  46.652
   284.0,0.016710,0.010191,0.111786,0.000599,  46.656
   285.0,0.016007,0.009820,0.107982,0.000621,  46.665
   286.0,0.015359,0.009416,0.103084,0.000585,  46.671
   287.0,0.014720,0.009030,0.099421,0.000634,  46.674
   288.0,0.014117,0.008674,0.095109,0.000621,  46.679
   289.0,0.013646,0.008345,0.091713,0.000585,  46.688
   290.0,0.013065,0.008002,0.088138,0.000634,  46.687
   291.0,0.012546,0.007661,0.084681,0.000621,  46.695
   292.0,0.012008,0.007360,0.081311,0.000585,  46.695
   293.0,0.011505,0.007129,0.078098,0.000621,  46.695
   294.0,0.011019,0.006849,0.075668,0.000585,  46.695
   295.0,0.010597,0.006572,0.072478,0.000648,  46.679
   296.0,0.010144,0.006300,0.069597,0.000621,  46.674
   297.0,0.009774,0.006060,0.067003,0.000585,  46.671
   298.0,0.009416,0.005829,0.064378,0.000634,  46.660
   299.0,0.009048,0.005607,0.061768,0.000621,  46.664
   300.0,0.008668,0.005372,0.058410,0.000585,  46.669
   301.0,0.008297,0.005197,0.054939,0.000621,  46.673
   302.0,0.007962,0.004994,0.054376,0.000621,  46.677
   303.0,0.007638,0.004808,0.052931,0.000634,  46.677
   304.0,0.007325,0.004621,0.051111,0.000621,  46.670
   305.0,0.007041,0.004455,0.048958,0.000585,  46.676
   306.0,0.006813,0.004291,0.047276,0.000634,  46.678
   307.0,0.006551,0.004133,0.045631,0.000621,  46.679
   308.0,0.006302,0.003975,0.043933,0.000585,  46.681
   309.0,0.006050,0.003825,0.042352,0.000634,  46.684
   310.0,0.005820,0.003710,0.040803,0.000634,  46.684
   311.0,0.005578,0.003578,0.039275,0.000648,  46.686
   312.0,0.005371,0.003449,0.037917,0.000621,  46.690
   313.0,0.005167,0.003319,0.036498,0.000612,  46.696
   314.0,0.004981,0.003202,0.035272,0.000612,  46.688
   315.0,0.004818,0.003100,0.034042,0.000599,  46.694
   316.0,0.004646,0.002997,0.032807,0.000585,  46.696
   317.0,0.004467,0.002887,0.031745,0.000621,  46.701
   318.0,0.004300,0.002796,0.030712,0.000634,  46.705
   319.0,0.004150,0.002717,0.029079,0.000612,  46.709
   320.0,0.004003,0.002640,0.028530,0.000634,  46.725
   321.0,0.003865,0.002544,0.027823,0.000612,  46.726
   322.0,0.003735,0.002471,0.026901,0.000661,  46.724
   323.0,0.003607,0.002377,0.025982,0.000648,  46.717
   324.0,0.003494,0.002304,0.024711,0.000612,  46.710
   325.0,0.003375,0.002240,0.024164,0.000648,  46.683
   326.0,0.003262,0.002172,0.023240,0.000634,  46.681
   327.0,0.003145,0.002113,0.022713,0.000626,  46.685
   328.0,0.003061,0.002066,0.022028,0.000626,  46.673
   329.0,0.002959,0.002011,0.021506,0.000626,  46.676
   330.0,0.002867,0.001955,0.020056,0.000626,  46.674
   331.0,0.002773,0.001912,0.019747,0.000612,  46.669
   332.0,0.002697,0.001853,0.019325,0.000612,  46.657
   333.0,0.002631,0.001799,0.018796,0.000626,  46.647
   334.0,0.002542,0.001743,0.018286,0.000612,  46.635
   335.0,0.002462,0.001692,0.016939,0.000639,  46.628
   336.0,0.002382,0.001654,0.016998,0.000626,  46.620
   337.0,0.002311,0.001623,0.016786,0.000639,  46.609
   338.0,0.002254,0.001582,0.016385,0.000626,  46.609
   339.0,0.002190,0.001548,0.016104,0.000612,  46.601
   340.0,0.002134,0.001514,0.015508,0.000639,  46.606
   341.0,0.002087,0.001473,0.015091,0.000639,  46.609
   342.0,0.002044,0.001436,0.014670,0.000639,  46.609
   343.0,0.001979,0.001402,0.013999,0.000639,  46.610
   344.0,0.001927,0.001381,0.013604,0.000639,  46.614
   345.0,0.001874,0.001362,0.013275,0.000639,  46.623
   346.0,0.001832,0.001342,0.013007,0.000652,  46.620
   347.0,0.001802,0.001312,0.012995,0.000639,  46.628
   348.0,0.001761,0.001294,0.012796,0.000666,  46.628
   349.0,0.001727,0.001269,0.012428,0.000652,  46.634
   350.0,0.001700,0.001251,0.011971,0.000652,  46.636
   351.0,0.001663,0.001226,0.011785,0.000626,  46.634
   352.0,0.001631,0.001212,0.011495,0.000639,  46.626
   353.0,0.001605,0.001197,0.011216,0.000626,  46.629
   354.0,0.001573,0.001177,0.010926,0.000639,  46.636
   355.0,0.001543,0.001155,0.010700,0.000626,  46.632
   356.0,0.001510,0.001137,0.010451,0.000639,  46.635
   357.0,0.001477,0.001112,0.010263,0.000639,  46.639
   358.0,0.001454,0.001100,0.009989,0.000626,  46.639
   359.0,0.001428,0.001080,0.009784,0.000639,  46.638
   360.0,0.001405,0.001064,0.009574,0.000675,  46.634
   361.0,0.001382,0.001046,0.009409,0.000675,  46.639
   362.0,0.001351,0.001041,0.009236,0.000652,  46.641
   363.0,0.001333,0.001025,0.009228,0.000688,  46.640
   364.0,0.001318,0.001014,0.009016,0.000652,  46.637
   365.0,0.001297,0.001006,0.008803,0.000652,  46.640
   366.0,0.001279,0.001001,0.008686,0.000652,  46.633
   367.0,0.001261,0.000994,0.008556,0.000666,  46.641
   368.0,0.001248,0.000984,0.008258,0.000652,  46.650
   369.0,0.001243,0.000970,0.008148,0.000652,  46.654
   370.0,0.001226,0.000966,0.007839,0.000652,  46.659
   371.0,0.001215,0.000960,0.008038,0.000652,  46.661
   372.0,0.001202,0.000957,0.007955,0.000679,  46.656
   373.0,0.001184,0.000945,0.007729,0.000666,  46.653
   374.0,0.001185,0.000943,0.007624,0.000666,  46.656
   375.0,0.001175,0.000929,0.007587,0.000679,  46.662
   376.0,0.001160,0.000930,0.007551,0.000679,  46.664
   377.0,0.001155,0.000924,0.007360,0.000652,  46.658
   378.0,0.001143,0.000913,0.007231,0.000679,  46.654
   379.0,0.001126,0.000906,0.007259,0.000679,  46.644
   380.0,0.001120,0.000903,0.007050,0.000693,  46.640
   381.0,0.001102,0.000902,0.006513,0.000666,  46.634
   382.0,0.001107,0.000895,0.006650,0.000679,  46.626
   383.0,0.001100,0.000890,0.006709,0.000679,  46.622
   384.0,0.001085,0.000886,0.006830,0.000679,  46.620
   385.0,0.001083,0.000882,0.006607,0.000679,  46.606
   386.0,0.001074,0.000879,0.006511,0.000679,  46.606
   387.0,0.001075,0.000869,0.006534,0.000693,  46.612
   388.0,0.001067,0.000866,0.006457,0.000693,  46.608
   389.0,0.001054,0.000867,0.006516,0.000706,  46.607
   390.0,0.001049,0.000869,0.006349,0.000706,  46.606
   391.0,0.001042,0.000867,0.005851,0.000706,  46.612
   392.0,0.001039,0.000873,0.005756,0.000706,  46.614
   393.0,0.001047,0.000874,0.005557,0.000693,  46.613
   394.0,0.001041,0.000864,0.005757,0.000706,  46.615
   395.0,0.001042,0.000861,0.005931,0.000693,  46.624
   396.0,0.001034,0.000865,0.005751,0.000693,  46.644
   397.0,0.001041,0.000859,0.005901,0.000719,  46.654
   398.0,0.001038,0.000849,0.005877,0.000693,  46.659
   399.0,0.001026,0.000849,0.004832,0.000706,  46.658
   400.0,0.001028,0.000851,0.005326,0.000733,  46.669
   401.0,0.001026,0.000845,0.005441,0.000693,  46.668
   402.0,0.001028,0.000846,0.005570,0.000719,  46.663
   403.0,0.001020,0.000837,0.005603,0.000733,  46.664
   404.0,0.001013,0.000840,0.005556,0.000719,  46.668
   405.0,0.001008,0.000837,0.005459,0.000719,  46.667
   406.0,0.001000,0.000837,0.005430,0.000719,  46.666
   407.0,0.001002,0.000840,0.005496,0.000733,  46.668
   408.0,0.000996,0.000843,0.005303,0.000733,  46.682
   409.0,0.001002,0.000842,0.004708,0.000733,  46.684
   410.0,0.000996,0.000836,0.004571,0.000733,  46.676
   411.0,0.000999,0.000840,0.004602,0.000746,  46.665
   412.0,0.000989,0.000836,0.005040,0.000746,  46.662
   413.0,0.000992,0.000838,0.004948,0.000760,  46.656
   414.0,0.000990,0.000835,0.004208,0.000746,  46.648
   415.0,0.000995,0.000840,0.004801,0.000746,  46.644
   416.0,0.001000,0.000840,0.004997,0.000760,  46.643
   417.0,0.001002,0.000844,0.005305,0.000760,  46.641
   418.0,0.001005,0.000843,0.005220,0.000760,  46.636
   419.0,0.001005,0.000845,0.005253,0.000760,  46.637
   420.0,0.001002,0.000848,0.005090,0.000760,  46.640
   421.0,0.001000,0.000849,0.005047,0.000773,  46.637
   422.0,0.001005,0.000855,0.004222,0.000746,  46.648
   423.0,0.001011,0.000848,0.004363,0.000773,  46.644
   424.0,0.001002,0.000850,0.004118,0.000724,  46.642
   425.0,0.000995,0.000860,0.004523,0.000711,  46.639
   426.0,0.001001,0.000840,0.004749,0.000688,  46.632
   427.0,0.000997,0.000830,0.004622,0.000724,  46.608
   428.0,0.000996,0.000821,0.004636,0.000711,  46.606
   429.0,0.000977,0.000815,0.004788,0.000688,  46.603
   430.0,0.000972,0.000811,0.004664,0.000724,  46.606
   431.0,0.000969,0.000808,0.004738,0.000724,  46.607
   432.0,0.000969,0.000812,0.004637,0.000724,  46.607
   433.0,0.000964,0.000817,0.004684,0.000724,  46.611
   434.0,0.000975,0.000819,0.004701,0.000688,  46.620
   435.0,0.000970,0.000826,0.004619,0.000760,  46.627
   436.0,0.000976,0.000827,0.004422,0.000746,  46.625
   437.0,0.000976,0.000819,0.004267,0.000760,  46.624
   438.0,0.000961,0.000820,0.004026,0.000760,  46.631
   439.0,0.000962,0.000809,0.004317,0.000760,  46.656
   440.0,0.000964,0.000808,0.004456,0.000760,  46.658
   441.0,0.000956,0.000813,0.004402,0.000773,  46.656
   442.0,0.000965,0.000819,0.004254,0.000773,  46.661
   443.0,0.000959,0.000811,0.004341,0.000782,  46.661
   444.0,0.000967,0.000812,0.004205,0.000760,  46.661
   445.0,0.000956,0.000810,0.004338,0.000773,  46.652
   446.0,0.000956,0.000816,0.004182,0.000773,  46.651
   447.0,0.000960,0.000813,0.004248,0.000773,  46.644
   448.0,0.000966,0.000818,0.002996,0.000729,  46.651
   449.0,0.000967,0.000823,0.003760,0.000751,  46.647
   450.0,0.000973,0.000820,0.003911,0.000729,  46.650
   451.0,0.000966,0.000812,0.003944,0.000751,  46.649
   452.0,0.000969,0.000813,0.003983,0.000751,  46.651
   453.0,0.000966,0.000812,0.004020,0.000715,  46.652
   454.0,0.000965,0.000813,0.004008,0.000751,  46.654
   455.0,0.000968,0.000805,0.004074,0.000751,  46.656
   456.0,0.000971,0.000814,0.004179,0.000729,  46.659
   457.0,0.000965,0.000806,0.003440,0.000751,  46.655
   458.0,0.000966,0.000810,0.003840,0.000751,  46.660
