Run Name,Run 1: a
Run Date,04:32:57 PM   02-25-16
Method Name,12% isocratic
Export Format Version, 1.00
Method ID, 3006
Points/Second, 1.00
Number of Records,   1186
Offset from Run Start Time,00:00:00
Run End Time,00:19:47
Time,Second
QuadTec 1, (280.0 nm), AU
QuadTec 2, (260.0 nm), AU
Gradient Pump,<Not Selected>
QuadTec 3, (214.0 nm), AU
QuadTec 4, (405.0 nm), AU
Conductivity,mS/cm
Trace 6,<Not Available>
GP Pressure,<Not Selected>
Volume,<Not Selected>
Fraction,<Not Available>
Time,QuadTec 1,QuadTec 2,QuadTec 3,QuadTec 4,Conductivity
     0.0,-0.002062,-0.000670,0.013033,-0.000236,  86.558
     1.0,-0.002067,-0.000676,0.013023,-0.000274,  86.496
     2.0,-0.002079,-0.000670,0.013075,-0.000260,  86.385
     3.0,-0.002071,-0.000667,0.013210,-0.000236,  86.304
     4.0,-0.005884,0.000000,0.013251,-0.000274,  86.193
     5.0,0.000000,0.000000,0.000000,0.000000,  86.093
     6.0,0.000000,0.000000,0.000000,0.000000,  85.955
     7.0,0.000000,0.000000,0.000000,0.000000,  85.888
     8.0,0.000027,0.000032,0.000000,0.000000,  85.846
     9.0,0.000066,0.000043,0.000091,-0.000008,  85.846
    10.0,0.000081,0.000048,-0.000537,0.000006,  85.883
    11.0,0.000076,0.000073,-0.001906,0.000073,  85.931
    12.0,0.000074,0.000062,-0.003192,0.000087,  85.997
    13.0,0.000053,0.000065,-0.004513,0.000037,  86.074
    14.0,0.000059,0.000069,-0.005742,0.000062,  86.208
    15.0,0.000059,0.000059,-0.006731,0.000037,  86.295
    16.0,0.000043,0.000060,-0.007670,0.000139,  86.364
    17.0,0.000046,0.000074,-0.008558,0.000115,  86.438
    18.0,0.000051,0.000067,-0.009565,0.000076,  86.495
    19.0,0.000031,0.000079,-0.010058,0.000115,  86.543
    20.0,0.000048,0.000091,-0.010670,0.000129,  86.630
    21.0,0.000073,0.000092,-0.011204,0.000076,  86.660
    22.0,0.000092,0.000119,-0.011726,0.000090,  86.665
    23.0,0.000106,0.000152,-0.012123,0.000079,  86.679
    24.0,0.000099,0.000152,-0.012491,0.000170,  86.673
    25.0,0.000092,0.000153,-0.012800,0.000170,  86.660
    26.0,0.000085,0.000125,-0.013215,0.000118,  86.656
    27.0,0.000057,0.000103,-0.013543,0.000170,  86.636
    28.0,0.000066,0.000110,-0.013851,0.000156,  86.631
    29.0,0.000070,0.000103,-0.014091,0.000118,  86.633
    30.0,0.000082,0.000112,-0.014419,0.000170,  86.632
    31.0,0.000073,0.000126,-0.014592,0.000146,  86.628
    32.0,0.000078,0.000123,-0.015113,0.000132,  86.640
    33.0,0.000054,0.000125,-0.015228,0.000156,  86.651
    34.0,0.000055,0.000110,-0.015323,0.000170,  86.652
    35.0,0.000043,0.000106,-0.015601,0.000156,  86.658
    36.0,0.000055,0.000108,-0.015918,0.000156,  86.668
    37.0,0.000043,0.000118,-0.016081,0.000132,  86.654
    38.0,0.000048,0.000109,-0.016378,0.000170,  86.658
    39.0,0.000033,0.000104,-0.016330,0.000184,  86.663
    40.0,0.000021,0.000090,-0.018665,0.000118,  86.662
    41.0,0.000015,0.000084,-0.018340,0.000156,  86.663
    42.0,0.000007,0.000075,-0.017757,0.000170,  86.664
    43.0,0.000006,0.000071,-0.017622,0.000156,  86.664
    44.0,0.000016,0.000082,-0.017142,0.000156,  86.666
    45.0,0.000029,0.000097,-0.017631,0.000104,  86.650
    46.0,0.000049,0.000098,-0.017831,0.000181,  86.626
    47.0,0.000049,0.000092,-0.018080,0.000170,  86.601
    48.0,0.000049,0.000109,-0.018223,0.000184,  86.580
    49.0,0.000061,0.000103,-0.018108,0.000170,  86.572
    50.0,0.000044,0.000111,-0.018328,0.000198,  86.567
    51.0,0.000040,0.000112,-0.018213,0.000184,  86.563
    52.0,0.000040,0.000116,-0.018309,0.000146,  86.558
    53.0,0.000040,0.000105,-0.018366,0.000146,  86.503
    54.0,0.000037,0.000118,-0.018471,0.000146,  86.492
    55.0,0.000038,0.000110,-0.018604,0.000146,  86.485
    56.0,0.000039,0.000101,-0.018652,0.000156,  86.482
    57.0,0.000035,0.000104,-0.018718,0.000223,  86.470
    58.0,0.000033,0.000100,-0.018842,0.000107,  86.456
    59.0,0.000037,0.000121,-0.019100,0.000209,  86.440
    60.0,0.000054,0.000124,-0.019109,0.000198,  86.411
    61.0,0.000040,0.000123,-0.019014,0.000160,  86.361
    62.0,0.000046,0.000139,-0.018880,0.000146,  86.292
    63.0,0.000052,0.000148,-0.018861,0.000184,  86.194
    64.0,0.000098,0.000181,-0.018642,0.000143,  86.009
    65.0,0.000126,0.000226,-0.018585,0.000220,  85.833
    66.0,0.000159,0.000287,-0.018414,0.000209,  85.564
    67.0,0.000175,0.000326,-0.017927,0.000107,  85.255
    68.0,0.000212,0.000404,-0.017526,0.000198,  84.864
    69.0,0.000314,0.000473,-0.017125,0.000201,  84.411
    70.0,0.000370,0.000534,-0.016522,0.000276,  83.882
    71.0,0.000485,0.000651,-0.015755,0.000251,  83.227
    72.0,0.000544,0.000736,-0.015094,0.000268,  82.483
    73.0,0.000638,0.000914,-0.014305,0.000282,  81.596
    74.0,0.000818,0.001064,-0.013322,0.000366,  80.656
    75.0,0.000968,0.001243,-0.012520,0.000488,  79.520
    76.0,0.001130,0.001434,-0.011902,0.000530,  78.319
    77.0,0.001251,0.001566,-0.011204,0.000512,  76.984
    78.0,0.001357,0.001767,-0.010943,0.000673,  75.581
    79.0,0.001410,0.001741,-0.010223,0.000743,  74.074
    80.0,0.001574,0.001859,-0.010352,0.000774,  72.469
    81.0,0.001664,0.002028,-0.010097,0.000882,  70.832
    82.0,0.001604,0.001957,-0.010136,0.000913,  69.151
    83.0,0.001699,0.002092,-0.010650,0.000941,  67.442
    84.0,0.001692,0.002078,-0.011145,0.001005,  65.732
    85.0,0.001724,0.002076,-0.011949,0.001075,  63.988
    86.0,0.001747,0.002072,-0.012976,0.001036,  62.286
    87.0,0.001578,0.001978,-0.013909,0.000994,  60.601
    88.0,0.001640,0.001947,-0.015160,0.000955,  58.935
    89.0,0.001529,0.001837,-0.016886,0.000886,  57.302
    90.0,0.001571,0.001841,-0.018166,0.000903,  55.717
    91.0,0.001503,0.001761,-0.019356,0.000917,  54.162
    92.0,0.001426,0.001721,-0.021150,0.000924,  52.688
    93.0,0.001452,0.001639,-0.022852,0.000886,  51.221
    94.0,0.001320,0.001502,-0.024284,0.000872,  49.807
    95.0,0.001394,0.001536,-0.025487,0.000819,  48.469
    96.0,0.001269,0.001464,-0.027041,0.000858,  47.164
    97.0,0.001202,0.001367,-0.028534,0.000882,  45.934
    98.0,0.001229,0.001349,-0.029984,0.000826,  44.756
    99.0,0.001143,0.001269,-0.031337,0.000816,  43.617
   100.0,0.001141,0.001255,-0.032557,0.000862,  42.506
   101.0,0.001100,0.001187,-0.033710,0.000760,  41.473
   102.0,0.001093,0.001188,-0.034822,0.000823,  40.475
   103.0,0.001083,0.001132,-0.035848,0.000820,  39.527
   104.0,0.001031,0.001080,-0.036762,0.000795,  38.606
   105.0,0.001031,0.001081,-0.037558,0.000792,  37.731
   106.0,0.000944,0.001004,-0.038487,0.000729,  36.900
   107.0,0.000983,0.000963,-0.039316,0.000704,  36.102
   108.0,0.000984,0.000929,-0.040042,0.000743,  35.341
   109.0,0.000939,0.000946,-0.040722,0.000809,  34.596
   110.0,0.000951,0.000917,-0.041337,0.000704,  33.894
   111.0,0.000917,0.000912,-0.042077,0.000785,  33.218
   112.0,0.000939,0.000861,-0.042654,0.000743,  32.574
   113.0,0.000916,0.000849,-0.043025,0.000704,  31.957
   114.0,0.000914,0.000845,-0.043690,0.000732,  31.361
   115.0,0.000911,0.000809,-0.044131,0.000718,  30.789
   116.0,0.000898,0.000810,-0.044562,0.000771,  30.244
   117.0,0.000895,0.000792,-0.045081,0.000771,  29.726
   118.0,0.000880,0.000762,-0.045368,0.000732,  29.238
   119.0,0.000892,0.000760,-0.045637,0.000781,  28.764
   120.0,0.000887,0.000752,-0.046187,0.000806,  28.309
   121.0,0.000891,0.000736,-0.046261,0.000795,  27.888
   122.0,0.000884,0.000726,-0.046246,0.000781,  27.481
   123.0,0.000865,0.000721,-0.049488,0.000732,  27.104
   124.0,0.000854,0.000708,-0.047426,0.000757,  26.732
   125.0,0.000879,0.000699,-0.047155,0.000771,  26.377
   126.0,0.000877,0.000717,-0.047059,0.000760,  26.037
   127.0,0.000862,0.000708,-0.047104,0.000795,  25.720
   128.0,0.000859,0.000700,-0.047379,0.000760,  25.404
   129.0,0.000855,0.000667,-0.047574,0.000746,  25.103
   130.0,0.000832,0.000653,-0.047664,0.000721,  24.809
   131.0,0.000840,0.000662,-0.047871,0.000746,  24.527
   132.0,0.000824,0.000646,-0.048012,0.000795,  24.254
   133.0,0.000826,0.000623,-0.048237,0.000823,  23.994
   134.0,0.000818,0.000619,-0.048633,0.000746,  23.754
   135.0,0.000819,0.000614,-0.048864,0.000781,  23.518
   136.0,0.000818,0.000603,-0.049042,0.000785,  23.301
   137.0,0.000814,0.000600,-0.049246,0.000746,  23.093
   138.0,0.000809,0.000604,-0.049571,0.000760,  22.896
   139.0,0.000814,0.000595,-0.049478,0.000721,  22.709
   140.0,0.000802,0.000601,-0.049681,0.000760,  22.528
   141.0,0.000822,0.000612,-0.049682,0.000774,  22.355
   142.0,0.000819,0.000587,-0.049875,0.000802,  22.185
   143.0,0.000819,0.000595,-0.049877,0.000813,  22.025
   144.0,0.000807,0.000573,-0.049983,0.000735,  21.873
   145.0,0.000791,0.000576,-0.050142,0.000774,  21.724
   146.0,0.000792,0.000548,-0.050144,0.000788,  21.585
   147.0,0.000785,0.000552,-0.050234,0.000763,  21.443
   148.0,0.000788,0.000565,-0.050585,0.000788,  21.315
   149.0,0.000800,0.000549,-0.050596,0.000788,  21.189
   150.0,0.000800,0.000571,-0.050937,0.000813,  21.068
   151.0,0.000785,0.000559,-0.050789,0.000799,  20.953
   152.0,0.000797,0.000554,-0.051089,0.000823,  20.836
   153.0,0.000781,0.000551,-0.051839,0.000785,  20.733
   154.0,0.000786,0.000545,-0.051606,0.000813,  20.635
   155.0,0.000799,0.000552,-0.051258,0.000749,  20.534
   156.0,0.000774,0.000535,-0.051137,0.000788,  20.439
   157.0,0.000793,0.000536,-0.051250,0.000763,  20.347
   158.0,0.000763,0.000539,-0.051408,0.000763,  20.257
   159.0,0.000766,0.000539,-0.051609,0.000774,  20.180
   160.0,0.000763,0.000521,-0.053870,0.000763,  20.105
   161.0,0.000747,0.000519,-0.052326,0.000763,  20.030
   162.0,0.000763,0.000537,-0.052491,0.000774,  19.962
   163.0,0.000777,0.000529,-0.051999,0.000788,  19.894
   164.0,0.000783,0.000544,-0.052068,0.000837,  19.836
   165.0,0.000799,0.000554,-0.052155,0.000774,  19.782
   166.0,0.000810,0.000555,-0.052165,0.000763,  19.724
   167.0,0.000814,0.000575,-0.051972,0.000763,  19.667
   168.0,0.000810,0.000576,-0.051780,0.000777,  19.617
   169.0,0.000807,0.000560,-0.051806,0.000791,  19.565
   170.0,0.000808,0.000555,-0.051772,0.000816,  19.517
   171.0,0.000800,0.000544,-0.051809,0.000826,  19.471
   172.0,0.000769,0.000543,-0.051921,0.000760,  19.431
   173.0,0.000759,0.000545,-0.052287,0.000788,  19.396
   174.0,0.000770,0.000531,-0.052367,0.000777,  19.357
   175.0,0.000774,0.000519,-0.052344,0.000840,  19.325
   176.0,0.000778,0.000518,-0.052502,0.000777,  19.295
   177.0,0.000770,0.000530,-0.052486,0.000763,  19.264
   178.0,0.000764,0.000527,-0.052601,0.000749,  19.228
   179.0,0.000766,0.000519,-0.052670,0.000763,  19.193
   180.0,0.000766,0.000514,-0.052776,0.000763,  19.154
   181.0,0.000771,0.000524,-0.052821,0.000763,  19.120
   182.0,0.000753,0.000527,-0.052761,0.000763,  19.085
   183.0,0.000754,0.000526,-0.053012,0.000788,  19.055
   184.0,0.000771,0.000521,-0.052918,0.000763,  19.021
   185.0,0.000777,0.000525,-0.052956,0.000777,  18.989
   186.0,0.000789,0.000538,-0.053014,0.000802,  18.959
   187.0,0.000788,0.000543,-0.053100,0.000763,  18.938
   188.0,0.000792,0.000545,-0.052910,0.000763,  18.910
   189.0,0.000793,0.000542,-0.053004,0.000802,  18.888
   190.0,0.000778,0.000536,-0.052910,0.000777,  18.870
   191.0,0.000763,0.000528,-0.053006,0.000788,  18.851
   192.0,0.000764,0.000523,-0.052998,0.000763,  18.832
   193.0,0.000763,0.000513,-0.053087,0.000763,  18.820
   194.0,0.000767,0.000513,-0.053253,0.000774,  18.803
   195.0,0.000766,0.000505,-0.053410,0.000749,  18.789
   196.0,0.000761,0.000523,-0.053228,0.000735,  18.773
   197.0,0.000771,0.000517,-0.053705,0.000823,  18.754
   198.0,0.000782,0.000521,-0.053599,0.000851,  18.745
   199.0,0.000793,0.000544,-0.053410,0.000788,  18.728
   200.0,0.000793,0.000537,-0.054905,0.000791,  18.712
   201.0,0.000796,0.000537,-0.053764,0.000777,  18.702
   202.0,0.000796,0.000533,-0.053487,0.000802,  18.687
   203.0,0.000808,0.000548,-0.053348,0.000777,  18.671
   204.0,0.000796,0.000547,-0.053330,0.000791,  18.668
   205.0,0.000797,0.000554,-0.053979,0.000816,  18.656
   206.0,0.000792,0.000542,-0.054792,0.000791,  18.641
   207.0,0.000785,0.000545,-0.053694,0.000791,  18.629
   208.0,0.000797,0.000528,-0.053399,0.000791,  18.623
   209.0,0.000785,0.000533,-0.053529,0.000791,  18.616
   210.0,0.000785,0.000530,-0.053479,0.000802,  18.609
   211.0,0.000780,0.000528,-0.053350,0.000816,  18.600
   212.0,0.000777,0.000535,-0.053308,0.000777,  18.600
   213.0,0.000786,0.000522,-0.053548,0.000802,  18.598
   214.0,0.000785,0.000526,-0.053480,0.000763,  18.593
   215.0,0.000774,0.000537,-0.053464,0.000777,  18.587
   216.0,0.000774,0.000524,-0.053377,0.000791,  18.585
   217.0,0.000785,0.000540,-0.053351,0.000791,  18.582
   218.0,0.000780,0.000536,-0.053317,0.000749,  18.574
   219.0,0.000788,0.000521,-0.053722,0.000763,  18.574
   220.0,0.000788,0.000539,-0.053532,0.000763,  18.567
   221.0,0.000781,0.000534,-0.053427,0.000851,  18.554
   222.0,0.000781,0.000517,-0.053366,0.000788,  18.546
   223.0,0.000765,0.000510,-0.053359,0.000816,  18.535
   224.0,0.000772,0.000513,-0.053472,0.000777,  18.526
   225.0,0.000764,0.000509,-0.053507,0.000777,  18.517
   226.0,0.000757,0.000515,-0.053672,0.000763,  18.509
   227.0,0.000770,0.000506,-0.053481,0.000763,  18.500
   228.0,0.000770,0.000510,-0.053476,0.000802,  18.491
   229.0,0.000753,0.000505,-0.053545,0.000837,  18.483
   230.0,0.000758,0.000505,-0.053736,0.000802,  18.480
   231.0,0.000758,0.000503,-0.053728,0.000763,  18.477
   232.0,0.000759,0.000506,-0.053772,0.000763,  18.476
   233.0,0.000754,0.000497,-0.053884,0.000724,  18.470
   234.0,0.000747,0.000501,-0.053875,0.000749,  18.464
   235.0,0.000748,0.000500,-0.054032,0.000763,  18.461
   236.0,0.000748,0.000500,-0.054007,0.000763,  18.458
   237.0,0.000747,0.000501,-0.053880,0.000799,  18.453
   238.0,0.000752,0.000504,-0.053999,0.000749,  18.446
   239.0,0.000742,0.000521,-0.053915,0.000760,  18.443
   240.0,0.000750,0.000521,-0.053863,0.000837,  18.437
   241.0,0.000776,0.000530,-0.053887,0.000865,  18.438
   242.0,0.000787,0.000533,-0.053817,0.000788,  18.431
   243.0,0.000811,0.000546,-0.053738,0.000763,  18.433
   244.0,0.000798,0.000552,-0.053806,0.000777,  18.430
   245.0,0.000798,0.000559,-0.053631,0.000830,  18.430
   246.0,0.000798,0.000550,-0.053414,0.000840,  18.432
   247.0,0.000799,0.000545,-0.053395,0.000826,  18.430
   248.0,0.000792,0.000542,-0.053507,0.000851,  18.435
   249.0,0.000792,0.000537,-0.053498,0.000788,  18.436
   250.0,0.000772,0.000537,-0.053559,0.000777,  18.435
   251.0,0.000781,0.000530,-0.053525,0.000738,  18.436
   252.0,0.000781,0.000525,-0.053525,0.000791,  18.429
   253.0,0.000777,0.000539,-0.053535,0.000763,  18.431
   254.0,0.000782,0.000534,-0.053571,0.000763,  18.433
   255.0,0.000785,0.000533,-0.053544,0.000777,  18.429
   256.0,0.000789,0.000523,-0.053641,0.000777,  18.431
   257.0,0.000777,0.000516,-0.053710,0.000777,  18.433
   258.0,0.000777,0.000539,-0.053771,0.000774,  18.428
   259.0,0.000781,0.000535,-0.054039,0.000774,  18.429
   260.0,0.000774,0.000536,-0.053755,0.000816,  18.429
   261.0,0.000765,0.000521,-0.053849,0.000749,  18.426
   262.0,0.000777,0.000512,-0.053902,0.000752,  18.421
   263.0,0.000785,0.000525,-0.053842,0.000816,  18.422
   264.0,0.000792,0.000530,-0.053842,0.000791,  18.417
   265.0,0.000803,0.000543,-0.053875,0.000791,  18.406
   266.0,0.000796,0.000549,-0.053761,0.000777,  18.397
   267.0,0.000800,0.000544,-0.053631,0.000826,  18.385
   268.0,0.000788,0.000542,-0.053580,0.000826,  18.380
   269.0,0.000764,0.000532,-0.053562,0.000826,  18.371
   270.0,0.000781,0.000535,-0.053710,0.000791,  18.361
   271.0,0.000788,0.000525,-0.053745,0.000791,  18.350
   272.0,0.000780,0.000542,-0.053729,0.000763,  18.345
   273.0,0.000788,0.000533,-0.053798,0.000763,  18.337
   274.0,0.000774,0.000523,-0.053730,0.000791,  18.332
   275.0,0.000781,0.000521,-0.053721,0.000788,  18.325
   276.0,0.000761,0.000508,-0.053825,0.000763,  18.318
   277.0,0.000757,0.000511,-0.053826,0.000840,  18.320
   278.0,0.000786,0.000519,-0.053964,0.000763,  18.322
   279.0,0.000777,0.000524,-0.053956,0.000763,  18.323
   280.0,0.000781,0.000527,-0.053982,0.000763,  18.323
   281.0,0.000781,0.000531,-0.053869,0.000788,  18.327
   282.0,0.000789,0.000524,-0.053929,0.000826,  18.334
   283.0,0.000774,0.000530,-0.053974,0.000813,  18.335
   284.0,0.000774,0.000517,-0.053895,0.000788,  18.336
   285.0,0.000765,0.000514,-0.053799,0.000851,  18.337
   286.0,0.000785,0.000520,-0.054170,0.000837,  18.334
   287.0,0.000776,0.000535,-0.053964,0.000763,  18.337
   288.0,0.000768,0.000525,-0.054206,0.000763,  18.340
   289.0,0.000772,0.000523,-0.053903,0.000777,  18.339
   290.0,0.000772,0.000528,-0.054066,0.000788,  18.343
   291.0,0.000792,0.000536,-0.053834,0.000813,  18.347
   292.0,0.000780,0.000535,-0.053901,0.000813,  18.346
   293.0,0.000768,0.000540,-0.053780,0.000840,  18.354
   294.0,0.000779,0.000537,-0.053926,0.000816,  18.357
   295.0,0.000775,0.000536,-0.053771,0.000763,  18.360
   296.0,0.000775,0.000542,-0.053607,0.000774,  18.358
   297.0,0.000785,0.000544,-0.053026,0.000724,  18.362
   298.0,0.000764,0.000531,-0.053390,0.000791,  18.359
   299.0,0.000769,0.000526,-0.053468,0.000788,  18.364
   300.0,0.000761,0.000521,-0.053692,0.000774,  18.366
   301.0,0.000770,0.000499,-0.053926,0.000735,  18.376
   302.0,0.000754,0.000507,-0.053652,0.000799,  18.382
   303.0,0.000742,0.000512,-0.053928,0.000724,  18.376
   304.0,0.000735,0.000504,-0.053879,0.000749,  18.377
   305.0,0.000752,0.000503,-0.054155,0.000763,  18.373
   306.0,0.000781,0.000570,-0.054017,0.000749,  18.376
   307.0,0.000732,0.000538,-0.053782,0.000788,  18.377
   308.0,0.000726,0.000502,-0.053674,0.000749,  18.383
   309.0,0.000706,0.000491,-0.053561,0.000679,  18.379
   310.0,0.000699,0.000485,-0.053553,0.000693,  18.379
   311.0,0.000694,0.000480,-0.053845,0.000707,  18.381
   312.0,0.000703,0.000489,-0.053759,0.000693,  18.379
   313.0,0.000719,0.000486,-0.053541,0.000721,  18.381
   314.0,0.000730,0.000478,-0.053272,0.000721,  18.376
   315.0,0.000721,0.000499,-0.053185,0.000746,  18.376
   316.0,0.000730,0.000504,-0.053140,0.000707,  18.374
   317.0,0.000722,0.000493,-0.053269,0.000718,  18.369
   318.0,0.000706,0.000486,-0.053356,0.000707,  18.365
   319.0,0.000694,0.000483,-0.056515,0.000721,  18.366
   320.0,0.000683,0.000479,-0.054214,0.000721,  18.362
   321.0,0.000677,0.000454,-0.053661,0.000707,  18.362
   322.0,0.000680,0.000454,-0.053366,0.000654,  18.352
   323.0,0.000670,0.000455,-0.053480,0.000654,  18.350
   324.0,0.000671,0.000448,-0.053342,0.000718,  18.348
   325.0,0.000650,0.000430,-0.053412,0.000602,  18.346
   326.0,0.000660,0.000436,-0.053560,0.000715,  18.345
   327.0,0.000654,0.000430,-0.053674,0.000637,  18.340
   328.0,0.000654,0.000436,-0.053588,0.000640,  18.338
   329.0,0.000670,0.000441,-0.053581,0.000640,  18.337
   330.0,0.000676,0.000436,-0.053685,0.000654,  18.330
   331.0,0.000670,0.000448,-0.053589,0.000679,  18.331
   332.0,0.000662,0.000449,-0.053871,0.000676,  18.331
   333.0,0.000647,0.000445,-0.053803,0.000704,  18.330
   334.0,0.000655,0.000439,-0.053606,0.000704,  18.331
   335.0,0.000662,0.000431,-0.053650,0.000679,  18.331
   336.0,0.000661,0.000431,-0.053694,0.000651,  18.331
   337.0,0.000670,0.000438,-0.053685,0.000676,  18.330
   338.0,0.000669,0.000431,-0.053780,0.000679,  18.330
   339.0,0.000673,0.000436,-0.053633,0.000665,  18.329
   340.0,0.000678,0.000447,-0.053641,0.000665,  18.330
   341.0,0.000676,0.000445,-0.053459,0.000679,  18.333
   342.0,0.000669,0.000449,-0.053822,0.000679,  18.329
   343.0,0.000689,0.000444,-0.053667,0.000665,  18.331
   344.0,0.000665,0.000439,-0.053588,0.000679,  18.326
   345.0,0.000662,0.000440,-0.053684,0.000679,  18.326
   346.0,0.000661,0.000441,-0.053553,0.000640,  18.322
   347.0,0.000665,0.000447,-0.053518,0.000679,  18.322
   348.0,0.000677,0.000448,-0.053664,0.000693,  18.321
   349.0,0.000681,0.000446,-0.053500,0.000665,  18.319
   350.0,0.000661,0.000441,-0.053510,0.000679,  18.316
   351.0,0.000694,0.000447,-0.053544,0.000651,  18.312
   352.0,0.000671,0.000435,-0.053510,0.000640,  18.304
   353.0,0.000659,0.000441,-0.053596,0.000640,  18.298
   354.0,0.000659,0.000430,-0.053571,0.000665,  18.295
   355.0,0.000648,0.000437,-0.053752,0.000665,  18.288
   356.0,0.000659,0.000433,-0.053692,0.000665,  18.286
   357.0,0.000671,0.000432,-0.055543,0.000679,  18.285
   358.0,0.000662,0.000434,-0.054894,0.000679,  18.279
   359.0,0.000655,0.000422,-0.054117,0.000654,  18.278
   360.0,0.000639,0.000420,-0.053962,0.000732,  18.276
   361.0,0.000636,0.000418,-0.053825,0.000715,  18.276
   362.0,0.000627,0.000421,-0.053790,0.000701,  18.271
   363.0,0.000639,0.000418,-0.053938,0.000665,  18.277
   364.0,0.000000,0.000000,-0.054034,0.000640,  18.274
   365.0,0.000000,0.000000,-0.053940,0.000000,  18.277
   366.0,0.000000,0.000000,0.000000,0.000000,  18.277
   367.0,-0.000012,0.000000,0.000000,0.000000,  18.284
   368.0,-0.000014,-0.000019,0.000000,0.000000,  18.287
   369.0,-0.000007,-0.000022,-0.000053,0.000011,  18.286
   370.0,-0.000007,-0.000010,-0.000224,-0.000028,  18.283
   371.0,-0.000012,-0.000001,-0.000060,-0.000014,  18.274
   372.0,-0.000001,0.000004,0.000096,0.000011,  18.274
   373.0,0.000012,0.000006,0.000003,-0.000039,  18.275
   374.0,0.000011,0.000018,0.000149,-0.000025,  18.274
   375.0,0.000008,0.000021,0.000176,0.000003,  18.271
   376.0,0.000008,0.000017,0.000219,-0.000011,  18.271
   377.0,0.000000,0.000010,0.000291,-0.000011,  18.270
   378.0,-0.000003,0.000011,0.000289,0.000003,  18.266
   379.0,0.000001,0.000010,0.000245,-0.000025,  18.269
   380.0,-0.000007,-0.000005,0.000253,-0.000025,  18.265
   381.0,0.000001,0.000000,0.000218,0.000014,  18.272
   382.0,0.000005,0.000002,0.000201,0.000000,  18.271
   383.0,-0.000003,-0.000002,0.000211,0.000000,  18.273
   384.0,0.000000,0.000001,0.000099,-0.000011,  18.275
   385.0,0.000004,-0.000010,0.000108,-0.000011,  18.279
   386.0,0.000000,0.000000,0.000099,0.000053,  18.279
   387.0,-0.000003,0.000009,-0.000006,0.000014,  18.281
   388.0,0.000008,0.000010,0.000081,0.000014,  18.282
   389.0,0.000022,0.000015,0.000230,0.000042,  18.286
   390.0,0.000022,0.000011,0.000255,0.000028,  18.283
   391.0,0.000019,0.000017,0.000144,0.000014,  18.290
   392.0,0.000015,0.000011,0.000075,0.000014,  18.295
   393.0,0.000011,0.000018,-0.002967,0.000014,  18.295
   394.0,0.000019,0.000020,-0.000651,0.000003,  18.297
   395.0,0.000014,0.000018,-0.000056,0.000003,  18.300
   396.0,0.000026,0.000017,0.000188,0.000003,  18.305
   397.0,0.000026,0.000018,0.000258,0.000003,  18.308
   398.0,0.000022,0.000024,0.000379,-0.000011,  18.309
   399.0,0.000031,0.000022,0.000414,0.000003,  18.311
   400.0,0.000015,0.000019,0.000484,0.000053,  18.320
   401.0,0.000015,0.000014,0.000510,0.000014,  18.316
   402.0,0.000011,0.000018,0.000534,0.000028,  18.324
   403.0,0.000015,0.000024,0.000421,-0.000014,  18.321
   404.0,0.000023,0.000025,0.000404,0.000014,  18.321
   405.0,0.000027,0.000021,0.000284,0.000014,  18.323
   406.0,0.000019,0.000025,0.000473,0.000014,  18.322
   407.0,0.000023,0.000017,0.000475,0.000053,  18.320
   408.0,0.000015,0.000016,0.000431,0.000028,  18.325
   409.0,0.000011,0.000004,0.000415,0.000014,  18.323
   410.0,0.000004,0.000003,0.000388,0.000014,  18.323
   411.0,0.000004,-0.000000,0.000301,-0.000050,  18.325
   412.0,0.000008,0.000011,0.000319,-0.000011,  18.326
   413.0,0.000011,0.000006,0.000422,0.000003,  18.321
   414.0,0.000015,0.000004,-0.000252,-0.000011,  18.319
   415.0,0.000011,0.000013,-0.000130,-0.000011,  18.319
   416.0,0.000015,0.000005,0.000304,0.000025,  18.311
   417.0,0.000011,0.000017,0.000494,0.000039,  18.304
   418.0,0.000016,0.000005,0.000469,0.000028,  18.305
   419.0,0.000015,0.000006,0.000607,0.000000,  18.297
   420.0,0.000022,0.000018,-0.002086,0.000000,  18.295
   421.0,0.000033,0.000022,-0.000091,0.000000,  18.289
   422.0,0.000041,0.000033,0.000664,0.000028,  18.284
   423.0,0.000041,0.000027,0.000935,-0.000025,  18.279
   424.0,0.000059,0.000039,0.001119,0.000003,  18.273
   425.0,0.000070,0.000035,-0.001304,-0.000011,  18.276
   426.0,0.000077,0.000061,0.000941,-0.000011,  18.269
   427.0,0.000092,0.000072,0.001577,0.000003,  18.264
   428.0,0.000110,0.000102,0.001928,0.000003,  18.261
   429.0,0.000132,0.000109,0.002245,0.000003,  18.261
   430.0,0.000135,0.000118,0.002606,0.000053,  18.255
   431.0,0.000153,0.000143,0.002802,0.000000,  18.251
   432.0,0.000180,0.000161,0.002964,0.000028,  18.240
   433.0,0.000189,0.000186,0.003318,-0.000025,  18.233
   434.0,0.000223,0.000218,0.003804,-0.000011,  18.223
   435.0,0.000260,0.000239,0.004325,-0.000050,  18.214
   436.0,0.000289,0.000269,0.004558,-0.000011,  18.199
   437.0,0.000326,0.000302,0.004977,0.000042,  18.182
   438.0,0.000367,0.000324,0.005571,0.000056,  18.163
   439.0,0.000397,0.000364,0.006256,0.000014,  18.150
   440.0,0.000426,0.000386,0.006781,0.000000,  18.128
   441.0,0.000455,0.000422,0.007299,0.000042,  18.105
   442.0,0.000485,0.000459,0.007942,0.000028,  18.078
   443.0,0.000505,0.000497,0.008569,0.000003,  18.054
   444.0,0.000550,0.000534,0.009089,0.000053,  18.029
   445.0,0.000590,0.000568,0.009511,0.000014,  17.996
   446.0,0.000646,0.000602,0.009955,0.000014,  17.967
   447.0,0.000679,0.000648,0.010807,0.000028,  17.929
   448.0,0.000735,0.000697,0.011519,0.000042,  17.893
   449.0,0.000782,0.000762,0.012178,0.000003,  17.859
   450.0,0.000819,0.000799,0.012992,0.000003,  17.817
   451.0,0.000871,0.000843,0.013700,0.000003,  17.776
   452.0,0.000887,0.000881,0.014562,0.000003,  17.736
   453.0,0.000947,0.000928,0.015182,0.000017,  17.689
   454.0,0.001006,0.000983,0.016127,0.000031,  17.642
   455.0,0.001058,0.001020,0.017167,0.000045,  17.590
   456.0,0.001110,0.001070,0.018147,0.000084,  17.541
   457.0,0.001137,0.001111,0.019402,0.000056,  17.487
   458.0,0.001178,0.001144,0.020461,0.000042,  17.435
   459.0,0.001230,0.001181,0.021586,0.000042,  17.377
   460.0,0.001271,0.001220,0.022834,0.000042,  17.311
   461.0,0.001308,0.001254,0.024049,0.000123,  17.252
   462.0,0.001333,0.001273,0.025090,0.000020,  17.190
   463.0,0.001355,0.001297,0.026060,0.000045,  17.119
   464.0,0.001384,0.001296,0.024002,0.000059,  17.051
   465.0,0.001414,0.001307,0.026277,0.000073,  16.972
   466.0,0.001436,0.001316,0.027321,0.000045,  16.899
   467.0,0.001439,0.001316,0.027396,0.000059,  16.819
   468.0,0.001446,0.001294,0.026993,0.000031,  16.732
   469.0,0.001461,0.001295,0.025966,-0.000011,  16.648
   470.0,0.001478,0.001280,0.024431,-0.000064,  16.566
   471.0,0.001505,0.001274,0.022845,-0.000053,  16.486
   472.0,0.001534,0.001264,0.021300,-0.000042,  16.417
   473.0,0.001559,0.001261,0.019183,-0.000067,  16.354
   474.0,0.001613,0.001255,0.016921,-0.000081,  16.302
   475.0,0.001653,0.001256,0.014842,-0.000081,  16.258
   476.0,0.001690,0.001248,0.012685,-0.000081,  16.241
   477.0,0.001742,0.001261,0.010514,-0.000095,  16.241
   478.0,0.001797,0.001270,0.009226,-0.000056,  16.259
   479.0,0.001863,0.001295,0.008096,-0.000070,  16.293
   480.0,0.001933,0.001319,0.007373,-0.000133,  16.358
   481.0,0.002003,0.001341,0.006812,-0.000095,  16.431
   482.0,0.002081,0.001364,0.006755,-0.000070,  16.528
   483.0,0.002143,0.001397,0.006837,-0.000095,  16.642
   484.0,0.002195,0.001411,0.007142,-0.000067,  16.770
   485.0,0.002265,0.001432,0.007802,-0.000081,  16.903
   486.0,0.002330,0.001457,0.008803,-0.000067,  17.059
   487.0,0.002419,0.001496,0.009727,-0.000067,  17.217
   488.0,0.002489,0.001547,0.010672,-0.000053,  17.385
   489.0,0.002558,0.001578,0.011557,-0.000039,  17.556
   490.0,0.002634,0.001604,0.012721,-0.000053,  17.732
   491.0,0.002715,0.001620,0.013781,-0.000014,  17.910
   492.0,0.002772,0.001668,0.014879,-0.000014,  18.079
   493.0,0.002832,0.001704,0.015945,-0.000039,  18.251
   494.0,0.002922,0.001723,0.017049,-0.000039,  18.417
   495.0,0.003003,0.001779,0.018192,-0.000039,  18.591
   496.0,0.003072,0.001810,0.019248,-0.000014,  18.758
   497.0,0.003152,0.001856,0.020094,-0.000116,  18.919
   498.0,0.003246,0.001905,0.021254,-0.000064,  19.077
   499.0,0.003327,0.001935,0.022446,-0.000102,  19.228
   500.0,0.003412,0.001979,0.023762,-0.000064,  19.373
   501.0,0.003480,0.002011,0.025016,-0.000064,  19.519
   502.0,0.003543,0.002038,0.026367,-0.000074,  19.642
   503.0,0.003617,0.002083,0.027714,-0.000050,  19.773
   504.0,0.003683,0.002107,0.028914,0.000014,  19.887
   505.0,0.003754,0.002142,0.030174,-0.000011,  20.005
   506.0,0.003809,0.002171,0.031221,-0.000025,  20.105
   507.0,0.003860,0.002198,0.032421,-0.000011,  20.205
   508.0,0.003918,0.002230,0.033530,-0.000025,  20.294
   509.0,0.003986,0.002269,0.034718,-0.000050,  20.380
   510.0,0.004041,0.002300,0.034202,-0.000074,  20.454
   511.0,0.004082,0.002329,0.036050,0.000014,  20.521
   512.0,0.004130,0.002361,0.037447,0.000000,  20.567
   513.0,0.004194,0.002379,0.038464,-0.000025,  20.624
   514.0,0.004235,0.002384,0.039493,0.000003,  20.662
   515.0,0.004265,0.002402,0.039984,0.000042,  20.692
   516.0,0.004296,0.002417,0.040640,0.000003,  20.711
   517.0,0.004338,0.002431,0.041364,-0.000011,  20.728
   518.0,0.004367,0.002440,0.041963,0.000028,  20.737
   519.0,0.004408,0.002452,0.042370,-0.000064,  20.736
   520.0,0.004434,0.002472,0.042728,-0.000011,  20.736
   521.0,0.004470,0.002497,0.043106,-0.000022,  20.726
   522.0,0.004516,0.002525,0.043632,-0.000036,  20.710
   523.0,0.004553,0.002539,0.043971,-0.000060,  20.697
   524.0,0.004596,0.002558,0.044243,-0.000036,  20.680
   525.0,0.004634,0.002566,0.044241,0.000003,  20.654
   526.0,0.004672,0.002583,0.043506,0.000017,  20.630
   527.0,0.004705,0.002598,0.044649,0.000017,  20.608
   528.0,0.004719,0.002621,0.045068,-0.000022,  20.577
   529.0,0.004763,0.002635,0.045537,0.000031,  20.550
   530.0,0.004798,0.002643,0.045870,0.000017,  20.517
   531.0,0.004831,0.002672,0.046085,0.000014,  20.482
   532.0,0.004863,0.002682,0.046399,-0.000011,  20.458
   533.0,0.004901,0.002693,0.046556,-0.000011,  20.420
   534.0,0.004926,0.002708,0.046445,-0.000074,  20.384
   535.0,0.004963,0.002724,0.046838,-0.000050,  20.353
   536.0,0.005001,0.002754,0.047014,-0.000036,  20.315
   537.0,0.005022,0.002760,0.047150,-0.000074,  20.278
   538.0,0.005060,0.002773,0.047515,-0.000036,  20.237
   539.0,0.005090,0.002788,0.047701,-0.000036,  20.206
   540.0,0.005130,0.002802,0.047620,-0.000036,  20.164
   541.0,0.005164,0.002817,0.047985,-0.000036,  20.128
   542.0,0.005209,0.002847,0.048172,-0.000074,  20.083
   543.0,0.005234,0.002847,0.048398,-0.000064,  20.045
   544.0,0.005268,0.002853,0.048654,-0.000064,  20.002
   545.0,0.005309,0.002891,0.048751,-0.000102,  19.965
   546.0,0.005353,0.002899,0.048789,-0.000064,  19.934
   547.0,0.005402,0.002922,0.048926,-0.000025,  19.898
   548.0,0.005431,0.002933,0.049361,-0.000116,  19.868
   549.0,0.005461,0.002954,0.049586,-0.000039,  19.828
   550.0,0.005502,0.002976,0.049913,-0.000025,  19.794
   551.0,0.005558,0.002993,0.050070,-0.000039,  19.757
   552.0,0.005628,0.003031,0.050198,-0.000039,  19.723
   553.0,0.005677,0.003065,0.050602,-0.000039,  19.689
   554.0,0.005729,0.003091,0.050978,-0.000053,  19.657
   555.0,0.005771,0.003124,0.051345,-0.000067,  19.626
   556.0,0.005810,0.003137,0.051611,0.000025,  19.597
   557.0,0.005888,0.003180,0.049586,0.000000,  19.568
   558.0,0.005942,0.003208,0.051763,-0.000014,  19.547
   559.0,0.005996,0.003243,0.052499,-0.000025,  19.522
   560.0,0.006064,0.003279,0.052986,-0.000025,  19.494
   561.0,0.006109,0.003296,0.053404,0.000053,  19.480
   562.0,0.006149,0.003317,0.053871,0.000014,  19.448
   563.0,0.006194,0.003353,0.054389,0.000028,  19.422
   564.0,0.006254,0.003392,0.054818,0.000042,  19.399
   565.0,0.006317,0.003429,0.053646,-0.000050,  19.377
   566.0,0.006358,0.003447,0.054426,-0.000011,  19.346
   567.0,0.006413,0.003473,0.055549,-0.000036,  19.330
   568.0,0.006459,0.003498,0.056282,-0.000036,  19.308
   569.0,0.006507,0.003524,0.056785,-0.000074,  19.281
   570.0,0.006551,0.003544,0.057278,-0.000036,  19.258
   571.0,0.006623,0.003567,0.057589,-0.000025,  19.238
   572.0,0.006679,0.003606,0.058081,-0.000078,  19.220
   573.0,0.006723,0.003629,0.058450,-0.000036,  19.199
   574.0,0.006779,0.003660,0.058872,-0.000050,  19.181
   575.0,0.006823,0.003697,0.059407,-0.000060,  19.162
   576.0,0.006890,0.003724,0.059852,-0.000022,  19.146
   577.0,0.006958,0.003753,0.060215,-0.000074,  19.128
   578.0,0.007013,0.003783,0.060720,-0.000060,  19.112
   579.0,0.007070,0.003820,0.061154,-0.000060,  19.096
   580.0,0.007110,0.003844,0.061660,-0.000046,  19.079
   581.0,0.007167,0.003857,0.061955,-0.000060,  19.067
   582.0,0.007230,0.003897,0.062387,-0.000060,  19.052
   583.0,0.007282,0.003928,0.062802,-0.000046,  19.035
   584.0,0.007346,0.003975,0.063332,-0.000022,  19.023
   585.0,0.007402,0.003987,0.063695,-0.000046,  19.005
   586.0,0.007457,0.004018,0.064188,-0.000022,  18.989
   587.0,0.007521,0.004040,0.064541,-0.000022,  18.972
   588.0,0.007577,0.004063,0.065145,-0.000074,  18.960
   589.0,0.007625,0.004092,0.065618,-0.000088,  18.947
   590.0,0.007674,0.004123,0.066098,-0.000088,  18.939
   591.0,0.007741,0.004152,0.066496,-0.000074,  18.925
   592.0,0.007808,0.004185,0.066906,-0.000050,  18.913
   593.0,0.007879,0.004234,0.067240,-0.000088,  18.903
   594.0,0.007954,0.004279,0.066708,-0.000036,  18.894
   595.0,0.008037,0.004311,0.068121,-0.000036,  18.878
   596.0,0.008104,0.004352,0.068979,-0.000008,  18.875
   597.0,0.008163,0.004395,0.069641,-0.000022,  18.857
   598.0,0.008216,0.004422,0.070376,-0.000022,  18.844
   599.0,0.008265,0.004442,0.070756,-0.000074,  18.835
   600.0,0.008341,0.004480,0.071346,-0.000036,  18.824
   601.0,0.008403,0.004508,0.071834,-0.000036,  18.813
   602.0,0.008466,0.004561,0.072394,-0.000074,  18.802
   603.0,0.008546,0.004591,0.072842,-0.000036,  18.783
   604.0,0.008613,0.004619,0.073265,-0.000074,  18.776
   605.0,0.008679,0.004656,0.073911,-0.000074,  18.769
   606.0,0.008770,0.004698,0.074185,-0.000074,  18.759
   607.0,0.008849,0.004747,0.074714,-0.000074,  18.749
   608.0,0.008905,0.004802,0.075586,-0.000036,  18.739
   609.0,0.008976,0.004830,0.076109,-0.000036,  18.730
   610.0,0.009035,0.004868,0.076735,-0.000036,  18.717
   611.0,0.009118,0.004896,0.077455,0.000003,  18.708
   612.0,0.009193,0.004942,0.076382,0.000053,  18.695
   613.0,0.009252,0.004964,0.078095,-0.000050,  18.686
   614.0,0.009328,0.004999,0.079054,-0.000036,  18.676
   615.0,0.009381,0.005028,0.079717,-0.000074,  18.659
   616.0,0.009455,0.005054,0.080386,-0.000036,  18.653
   617.0,0.009515,0.005095,0.080990,-0.000011,  18.652
   618.0,0.009578,0.005138,0.081583,-0.000074,  18.643
   619.0,0.009666,0.005179,0.082003,-0.000050,  18.640
   620.0,0.009722,0.005223,0.082451,-0.000050,  18.635
   621.0,0.009800,0.005260,0.083136,-0.000088,  18.626
   622.0,0.009891,0.005297,0.083770,-0.000025,  18.620
   623.0,0.009958,0.005331,0.084486,-0.000025,  18.606
   624.0,0.010018,0.005362,0.085053,-0.000064,  18.602
   625.0,0.010093,0.005397,0.085762,-0.000039,  18.594
   626.0,0.010160,0.005441,0.086392,-0.000053,  18.582
   627.0,0.010244,0.005484,0.085074,0.000000,  18.565
   628.0,0.010315,0.005520,0.086149,-0.000014,  18.559
   629.0,0.010382,0.005569,0.087442,-0.000039,  18.547
   630.0,0.010473,0.005610,0.088365,-0.000064,  18.543
   631.0,0.010560,0.005651,0.089075,-0.000102,  18.538
   632.0,0.010622,0.005692,0.089843,-0.000064,  18.528
   633.0,0.010721,0.005736,0.090631,-0.000064,  18.520
   634.0,0.010793,0.005779,0.091414,-0.000102,  18.514
   635.0,0.010864,0.005815,0.091987,-0.000053,  18.509
   636.0,0.010951,0.005873,0.092618,-0.000078,  18.500
   637.0,0.011032,0.005915,0.093411,-0.000036,  18.490
   638.0,0.011143,0.005976,0.094081,-0.000036,  18.482
   639.0,0.011207,0.006012,0.094664,-0.000060,  18.468
   640.0,0.011273,0.006044,0.095532,-0.000022,  18.461
   641.0,0.011368,0.006088,0.095949,-0.000022,  18.447
   642.0,0.011440,0.006134,0.096911,-0.000060,  18.431
   643.0,0.011523,0.006166,0.097784,-0.000039,  18.418
   644.0,0.011587,0.006216,0.098334,-0.000064,  18.397
   645.0,0.011661,0.006266,0.099075,-0.000074,  18.385
   646.0,0.011760,0.006314,0.099712,-0.000036,  18.375
   647.0,0.011859,0.006355,0.100544,-0.000074,  18.367
   648.0,0.011946,0.006407,0.101196,-0.000008,  18.363
   649.0,0.012033,0.006452,0.101817,-0.000008,  18.352
   650.0,0.012115,0.006508,0.102509,-0.000046,  18.352
   651.0,0.012227,0.006558,0.103257,0.000006,  18.355
   652.0,0.012301,0.006604,0.104251,0.000003,  18.351
   653.0,0.012356,0.006660,0.105082,0.000067,  18.354
   654.0,0.012447,0.006707,0.105821,0.000028,  18.360
   655.0,0.012534,0.006744,0.106665,0.000017,  18.369
   656.0,0.012601,0.006781,0.107178,0.000045,  18.367
   657.0,0.012676,0.006827,0.107895,0.000031,  18.377
   658.0,0.012756,0.006853,0.108668,-0.000046,  18.380
   659.0,0.012824,0.006897,0.109193,-0.000008,  18.386
   660.0,0.012896,0.006914,0.109849,-0.000022,  18.390
   661.0,0.012956,0.006956,0.110487,-0.000074,  18.399
   662.0,0.013051,0.007008,0.111235,-0.000036,  18.403
   663.0,0.013119,0.007038,0.111750,-0.000074,  18.402
   664.0,0.013206,0.007083,0.112541,-0.000074,  18.404
   665.0,0.013293,0.007124,0.113183,-0.000074,  18.406
   666.0,0.013395,0.007173,0.113667,-0.000074,  18.409
   667.0,0.013474,0.007211,0.114521,-0.000074,  18.415
   668.0,0.013557,0.007251,0.115240,-0.000074,  18.415
   669.0,0.013637,0.007290,0.115973,-0.000074,  18.411
   670.0,0.013706,0.007337,0.116630,-0.000074,  18.420
   671.0,0.013793,0.007383,0.117343,-0.000036,  18.423
   672.0,0.013879,0.007421,0.118113,-0.000074,  18.421
   673.0,0.013975,0.007482,0.118778,-0.000036,  18.415
   674.0,0.014057,0.007523,0.119601,-0.000074,  18.415
   675.0,0.014137,0.007576,0.120180,-0.000036,  18.413
   676.0,0.014236,0.007621,0.120834,-0.000011,  18.414
   677.0,0.014320,0.007671,0.121614,-0.000036,  18.409
   678.0,0.014410,0.007720,0.122522,-0.000036,  18.411
   679.0,0.014467,0.007768,0.123226,-0.000036,  18.408
   680.0,0.014550,0.007801,0.123982,-0.000074,  18.405
   681.0,0.014630,0.007845,0.124656,-0.000036,  18.406
   682.0,0.014725,0.007896,0.125467,-0.000074,  18.407
   683.0,0.014816,0.007946,0.126016,-0.000060,  18.400
   684.0,0.014907,0.007994,0.126722,-0.000036,  18.403
   685.0,0.015006,0.008053,0.127362,0.000003,  18.399
   686.0,0.015097,0.008115,0.128334,0.000003,  18.402
   687.0,0.015192,0.008156,0.129237,-0.000011,  18.400
   688.0,0.015266,0.008195,0.129942,0.000042,  18.396
   689.0,0.015330,0.008250,0.129723,-0.000008,  18.394
   690.0,0.015420,0.008290,0.131143,-0.000008,  18.391
   691.0,0.015504,0.008323,0.132142,-0.000046,  18.393
   692.0,0.015587,0.008373,0.132915,0.000003,  18.392
   693.0,0.015660,0.008402,0.133655,0.000003,  18.391
   694.0,0.015737,0.008420,0.134292,0.000003,  18.390
   695.0,0.015816,0.008472,0.135093,-0.000011,  18.388
   696.0,0.015912,0.008519,0.135760,-0.000074,  18.381
   697.0,0.015969,0.008570,0.136418,-0.000036,  18.377
   698.0,0.016064,0.008617,0.137111,-0.000022,  18.369
   699.0,0.016139,0.008662,0.137873,-0.000046,  18.363
   700.0,0.016231,0.008720,0.138379,-0.000022,  18.362
   701.0,0.016307,0.008758,0.139237,-0.000046,  18.360
   702.0,0.016390,0.008817,0.139969,-0.000032,  18.356
   703.0,0.016474,0.008846,0.140848,-0.000046,  18.349
   704.0,0.016554,0.008885,0.141529,-0.000046,  18.343
   705.0,0.016638,0.008927,0.142275,-0.000032,  18.338
   706.0,0.016711,0.008974,0.142756,-0.000046,  18.343
   707.0,0.016804,0.009018,0.143547,-0.000046,  18.336
   708.0,0.016872,0.009059,0.144421,-0.000032,  18.336
   709.0,0.016943,0.009094,0.145138,-0.000046,  18.331
   710.0,0.017042,0.009134,0.145746,-0.000019,  18.330
   711.0,0.017123,0.009203,0.146297,-0.000032,  18.332
   712.0,0.017199,0.009234,0.146745,-0.000019,  18.332
   713.0,0.017268,0.009284,0.147724,-0.000019,  18.331
   714.0,0.017352,0.009317,0.148570,-0.000008,  18.333
   715.0,0.017416,0.009362,0.149025,-0.000019,  18.330
   716.0,0.017497,0.009400,0.149976,0.000034,  18.329
   717.0,0.017569,0.009440,0.150746,-0.000008,  18.328
   718.0,0.017646,0.009492,0.151321,-0.000008,  18.334
   719.0,0.017730,0.009533,0.151979,0.000017,  18.331
   720.0,0.017814,0.009584,0.152478,-0.000008,  18.338
   721.0,0.017906,0.009616,0.153193,0.000020,  18.336
   722.0,0.017978,0.009669,0.153984,0.000006,  18.333
   723.0,0.018059,0.009700,0.154721,-0.000019,  18.336
   724.0,0.018112,0.009746,0.155336,0.000020,  18.334
   725.0,0.018173,0.009773,0.155974,0.000006,  18.332
   726.0,0.018250,0.009813,0.156707,-0.000019,  18.331
   727.0,0.018311,0.009855,0.157332,0.000006,  18.334
   728.0,0.018388,0.009880,0.157783,-0.000019,  18.330
   729.0,0.018460,0.009913,0.158520,0.000006,  18.332
   730.0,0.018529,0.009960,0.159083,0.000017,  18.339
   731.0,0.018614,0.009997,0.159479,0.000031,  18.339
   732.0,0.018686,0.010045,0.160429,0.000017,  18.343
   733.0,0.018744,0.010093,0.161014,0.000031,  18.343
   734.0,0.018824,0.010140,0.161778,-0.000019,  18.341
   735.0,0.018909,0.010195,0.162442,0.000006,  18.341
   736.0,0.018981,0.010235,0.163241,-0.000046,  18.339
   737.0,0.019054,0.010260,0.163849,0.000020,  18.338
   738.0,0.019119,0.010298,0.164420,0.000020,  18.339
   739.0,0.019192,0.010330,0.165064,-0.000005,  18.338
   740.0,0.019249,0.010362,0.165579,0.000048,  18.334
   741.0,0.019306,0.010389,0.166264,0.000020,  18.338
   742.0,0.019368,0.010421,0.166815,-0.000019,  18.333
   743.0,0.019425,0.010462,0.167240,-0.000005,  18.332
   744.0,0.019491,0.010488,0.167910,-0.000019,  18.333
   745.0,0.019547,0.010530,0.168503,-0.000005,  18.329
   746.0,0.019621,0.010558,0.169177,-0.000019,  18.327
   747.0,0.019695,0.010598,0.169653,-0.000019,  18.327
   748.0,0.019756,0.010630,0.170242,0.000009,  18.323
   749.0,0.019818,0.010664,0.170883,-0.000019,  18.326
   750.0,0.019875,0.010690,0.171311,-0.000019,  18.322
   751.0,0.019937,0.010713,0.171919,-0.000005,  18.322
   752.0,0.019979,0.010746,0.172272,-0.000032,  18.324
   753.0,0.020044,0.010769,0.172854,-0.000046,  18.321
   754.0,0.020098,0.010810,0.173540,-0.000032,  18.323
   755.0,0.020156,0.010842,0.173866,-0.000032,  18.319
   756.0,0.020213,0.010871,0.174336,-0.000032,  18.321
   757.0,0.020267,0.010882,0.174706,-0.000046,  18.320
   758.0,0.020313,0.010906,0.175205,-0.000046,  18.318
   759.0,0.020367,0.010932,0.175645,-0.000032,  18.321
   760.0,0.020413,0.010964,0.176153,-0.000046,  18.318
   761.0,0.020463,0.010994,0.176636,-0.000060,  18.312
   762.0,0.020522,0.011027,0.177224,-0.000060,  18.313
   763.0,0.020575,0.011053,0.177655,-0.000060,  18.315
   764.0,0.020636,0.011085,0.178082,-0.000032,  18.310
   765.0,0.020679,0.011125,0.178417,-0.000046,  18.310
   766.0,0.020725,0.011137,0.178824,-0.000046,  18.306
   767.0,0.020779,0.011157,0.179355,-0.000060,  18.307
   768.0,0.020817,0.011185,0.179892,-0.000060,  18.306
   769.0,0.020875,0.011202,0.180230,-0.000046,  18.304
   770.0,0.020925,0.011238,0.180690,-0.000060,  18.307
   771.0,0.020971,0.011272,0.181161,-0.000060,  18.306
   772.0,0.021033,0.011298,0.181651,-0.000046,  18.310
   773.0,0.021075,0.011337,0.182149,-0.000060,  18.310
   774.0,0.021137,0.011349,0.182330,-0.000074,  18.316
   775.0,0.021191,0.011369,0.182794,-0.000088,  18.317
   776.0,0.021241,0.011404,0.183345,-0.000060,  18.321
   777.0,0.021283,0.011442,0.183801,-0.000008,  18.323
   778.0,0.021331,0.011463,0.184329,0.000003,  18.327
   779.0,0.021376,0.011505,0.184901,0.000003,  18.328
   780.0,0.021434,0.011527,0.185268,-0.000022,  18.332
   781.0,0.021476,0.011551,0.185593,-0.000032,  18.338
   782.0,0.021518,0.011573,0.185988,-0.000019,  18.339
   783.0,0.021576,0.011590,0.186464,-0.000032,  18.338
   784.0,0.021611,0.011623,0.186860,-0.000046,  18.340
   785.0,0.021657,0.011649,0.187284,-0.000032,  18.339
   786.0,0.021700,0.011673,0.187663,-0.000019,  18.345
   787.0,0.021738,0.011699,0.188096,0.000006,  18.343
   788.0,0.021792,0.011725,0.188485,-0.000008,  18.341
   789.0,0.021823,0.011740,0.188910,0.000006,  18.341
   790.0,0.021863,0.011758,0.188985,-0.000019,  18.345
   791.0,0.021893,0.011789,0.189411,0.000045,  18.342
   792.0,0.021936,0.011808,0.189879,0.000031,  18.342
   793.0,0.021958,0.011816,0.190072,0.000031,  18.347
   794.0,0.021977,0.011834,0.190452,0.000017,  18.341
   795.0,0.021988,0.011833,0.190742,-0.000008,  18.345
   796.0,0.022020,0.011840,0.191087,-0.000008,  18.342
   797.0,0.022051,0.011855,0.191351,-0.000008,  18.339
   798.0,0.022078,0.011870,0.191569,-0.000060,  18.335
   799.0,0.022109,0.011887,0.191680,-0.000008,  18.335
   800.0,0.022140,0.011905,0.191817,-0.000046,  18.332
   801.0,0.022170,0.011919,0.192199,-0.000046,  18.330
   802.0,0.022193,0.011937,0.192436,-0.000032,  18.328
   803.0,0.022233,0.011958,0.192755,-0.000046,  18.323
   804.0,0.022255,0.011969,0.192875,-0.000046,  18.317
   805.0,0.022282,0.011989,0.191436,0.000003,  18.312
   806.0,0.022310,0.012007,0.193015,0.000003,  18.304
   807.0,0.022348,0.012032,0.193433,-0.000022,  18.298
   808.0,0.022394,0.012061,0.193527,-0.000022,  18.299
   809.0,0.022418,0.012076,0.194074,-0.000019,  18.302
   810.0,0.022449,0.012093,0.194331,0.000020,  18.296
   811.0,0.022460,0.012105,0.194816,0.000006,  18.293
   812.0,0.022492,0.012110,0.195100,-0.000019,  18.290
   813.0,0.022503,0.012123,0.195192,-0.000005,  18.296
   814.0,0.022522,0.012130,0.195421,-0.000019,  18.295
   815.0,0.022545,0.012134,0.195624,0.000009,  18.298
   816.0,0.022565,0.012162,0.195881,-0.000005,  18.301
   817.0,0.022595,0.012176,0.196064,-0.000019,  18.301
   818.0,0.022611,0.012192,0.196395,0.000059,  18.306
   819.0,0.022631,0.012199,0.196598,0.000006,  18.301
   820.0,0.022626,0.012196,0.196947,-0.000046,  18.297
   821.0,0.022653,0.012205,0.197031,0.000006,  18.303
   822.0,0.022661,0.012209,0.193561,-0.000032,  18.295
   823.0,0.022673,0.012223,0.196216,-0.000005,  18.292
   824.0,0.022693,0.012221,0.196987,-0.000019,  18.297
   825.0,0.022681,0.012220,0.197299,-0.000019,  18.298
   826.0,0.022680,0.012214,0.197428,-0.000019,  18.297
   827.0,0.022688,0.012209,0.197557,-0.000071,  18.295
   828.0,0.022692,0.012227,0.197621,-0.000096,  18.295
   829.0,0.022696,0.012224,0.197667,-0.000057,  18.296
   830.0,0.022696,0.012218,0.197603,-0.000071,  18.296
   831.0,0.022700,0.012225,0.197621,-0.000085,  18.300
   832.0,0.022692,0.012222,0.197557,-0.000046,  18.298
   833.0,0.022692,0.012221,0.197511,-0.000046,  18.293
   834.0,0.022680,0.012203,0.197475,-0.000060,  18.293
   835.0,0.022676,0.012203,0.197163,-0.000060,  18.289
   836.0,0.022673,0.012197,0.197428,-0.000074,  18.282
   837.0,0.022673,0.012195,0.197594,-0.000074,  18.277
   838.0,0.022669,0.012199,0.197501,-0.000074,  18.274
   839.0,0.022669,0.012195,0.197464,-0.000074,  18.275
   840.0,0.022677,0.012186,0.197335,-0.000074,  18.275
   841.0,0.022661,0.012182,0.197023,-0.000074,  18.273
   842.0,0.022661,0.012171,0.197161,-0.000074,  18.277
   843.0,0.022646,0.012171,0.197123,-0.000074,  18.271
   844.0,0.022642,0.012167,0.197087,-0.000074,  18.276
   845.0,0.022642,0.012178,0.197022,-0.000074,  18.267
   846.0,0.022642,0.012176,0.196793,-0.000088,  18.265
   847.0,0.022625,0.012179,0.196903,-0.000074,  18.258
   848.0,0.022622,0.012171,0.196875,-0.000074,  18.251
   849.0,0.022625,0.012169,0.196884,-0.000064,  18.248
   850.0,0.022592,0.012148,0.197030,-0.000088,  18.251
   851.0,0.022600,0.012148,0.196599,-0.000050,  18.244
   852.0,0.022589,0.012145,0.196361,-0.000074,  18.241
   853.0,0.022572,0.012137,0.196671,-0.000050,  18.238
   854.0,0.022549,0.012122,0.196662,-0.000088,  18.235
   855.0,0.022521,0.012105,0.196533,-0.000074,  18.233
   856.0,0.022518,0.012105,0.196404,-0.000074,  18.231
   857.0,0.022502,0.012097,0.195955,-0.000074,  18.227
   858.0,0.022503,0.012097,0.195982,-0.000060,  18.225
   859.0,0.022491,0.012095,0.195980,-0.000060,  18.219
   860.0,0.022472,0.012090,0.195953,-0.000074,  18.221
   861.0,0.022472,0.012084,0.194801,-0.000074,  18.220
   862.0,0.022464,0.012087,0.194891,-0.000060,  18.218
   863.0,0.022452,0.012081,0.195238,-0.000046,  18.215
   864.0,0.022433,0.012081,0.195293,-0.000032,  18.218
   865.0,0.022429,0.012077,0.195274,-0.000046,  18.217
   866.0,0.022422,0.012056,0.195218,-0.000019,  18.223
   867.0,0.022402,0.012061,0.195309,-0.000032,  18.224
   868.0,0.022387,0.012070,0.195226,-0.000019,  18.228
   869.0,0.022364,0.012054,0.195025,-0.000005,  18.232
   870.0,0.022344,0.012040,0.195052,-0.000019,  18.233
   871.0,0.022317,0.012038,0.194878,-0.000019,  18.234
   872.0,0.022290,0.012015,0.194713,-0.000043,  18.238
   873.0,0.022282,0.012011,0.194393,-0.000071,  18.241
   874.0,0.022255,0.011992,0.194328,-0.000096,  18.246
   875.0,0.022232,0.011981,0.194237,-0.000071,  18.249
   876.0,0.022217,0.011982,0.194007,-0.000096,  18.248
   877.0,0.022186,0.011964,0.193907,-0.000043,  18.248
   878.0,0.022159,0.011955,0.193806,-0.000057,  18.251
   879.0,0.022128,0.011934,0.193623,-0.000068,  18.247
   880.0,0.022101,0.011916,0.193493,-0.000029,  18.247
   881.0,0.022066,0.011901,0.193247,-0.000019,  18.249
   882.0,0.022027,0.011868,0.192892,0.000006,  18.245
   883.0,0.021988,0.011851,0.192409,0.000017,  18.245
   884.0,0.021950,0.011831,0.192335,0.000003,  18.246
   885.0,0.021903,0.011805,0.191989,-0.000060,  18.249
   886.0,0.021881,0.011792,0.191463,0.000017,  18.254
   887.0,0.021858,0.011780,0.191244,-0.000046,  18.257
   888.0,0.021839,0.011765,0.191115,-0.000032,  18.261
   889.0,0.021792,0.011744,0.190977,-0.000046,  18.263
   890.0,0.021769,0.011714,0.190642,-0.000032,  18.269
   891.0,0.021738,0.011699,0.190323,-0.000008,  18.270
   892.0,0.021708,0.011687,0.189997,-0.000046,  18.272
   893.0,0.021665,0.011664,0.189454,-0.000036,  18.277
   894.0,0.021623,0.011632,0.189399,-0.000022,  18.279
   895.0,0.021576,0.011611,0.188948,-0.000046,  18.279
   896.0,0.021534,0.011585,0.188774,-0.000060,  18.286
   897.0,0.021511,0.011574,0.188385,-0.000060,  18.285
   898.0,0.021465,0.011547,0.187997,-0.000046,  18.285
   899.0,0.021427,0.011514,0.187780,-0.000019,  18.288
   900.0,0.021384,0.011501,0.187356,-0.000060,  18.283
   901.0,0.021345,0.011476,0.186745,-0.000046,  18.284
   902.0,0.021310,0.011452,0.186456,-0.000046,  18.283
   903.0,0.021264,0.011446,0.186169,-0.000046,  18.284
   904.0,0.021214,0.011413,0.183943,-0.000032,  18.281
   905.0,0.021179,0.011390,0.183835,-0.000046,  18.283
   906.0,0.021133,0.011379,0.184415,-0.000046,  18.280
   907.0,0.021098,0.011352,0.184439,-0.000046,  18.281
   908.0,0.021048,0.011326,0.184151,-0.000050,  18.279
   909.0,0.020994,0.011296,0.183209,-0.000036,  18.281
   910.0,0.020945,0.011259,0.183170,-0.000036,  18.279
   911.0,0.020891,0.011234,0.182945,-0.000074,  18.279
   912.0,0.020837,0.011220,0.182578,-0.000011,  18.283
   913.0,0.020810,0.011211,0.182177,-0.000011,  18.281
   914.0,0.020760,0.011178,0.181828,-0.000074,  18.284
   915.0,0.020722,0.011151,0.181472,-0.000050,  18.285
   916.0,0.020680,0.011132,0.181054,-0.000060,  18.291
   917.0,0.020636,0.011113,0.180593,-0.000046,  18.290
   918.0,0.020590,0.011078,0.180377,-0.000032,  18.287
   919.0,0.020528,0.011064,0.179883,-0.000110,  18.289
   920.0,0.020498,0.011037,0.179634,-0.000057,  18.293
   921.0,0.020448,0.011022,0.179139,-0.000057,  18.289
   922.0,0.020410,0.011002,0.178760,-0.000096,  18.283
   923.0,0.020348,0.010971,0.178326,-0.000043,  18.286
   924.0,0.020290,0.010930,0.178016,-0.000071,  18.284
   925.0,0.020248,0.010906,0.177558,-0.000096,  18.286
   926.0,0.020202,0.010881,0.177169,-0.000057,  18.286
   927.0,0.020156,0.010852,0.176773,-0.000032,  18.285
   928.0,0.020078,0.010819,0.176168,-0.000032,  18.285
   929.0,0.020028,0.010788,0.175704,-0.000032,  18.287
   930.0,0.019971,0.010760,0.175386,-0.000096,  18.288
   931.0,0.019920,0.010735,0.174783,-0.000057,  18.285
   932.0,0.019875,0.010717,0.174475,-0.000071,  18.289
   933.0,0.019825,0.010682,0.174029,-0.000019,  18.291
   934.0,0.019772,0.010651,0.173566,0.000006,  18.289
   935.0,0.019718,0.010628,0.173136,-0.000022,  18.286
   936.0,0.019664,0.010595,0.172734,0.000006,  18.282
   937.0,0.019614,0.010573,0.172332,-0.000046,  18.286
   938.0,0.019549,0.010539,0.171890,-0.000057,  18.286
   939.0,0.019484,0.010503,0.171361,-0.000057,  18.284
   940.0,0.019422,0.010478,0.170762,-0.000085,  18.284
   941.0,0.019361,0.010443,0.170242,-0.000096,  18.282
   942.0,0.019311,0.010404,0.169627,-0.000057,  18.283
   943.0,0.019261,0.010371,0.169313,-0.000071,  18.277
   944.0,0.019192,0.010335,0.168788,-0.000096,  18.281
   945.0,0.019139,0.010309,0.168208,-0.000071,  18.286
   946.0,0.019078,0.010277,0.167616,-0.000096,  18.280
   947.0,0.019008,0.010250,0.167109,-0.000057,  18.274
   948.0,0.018955,0.010215,0.166583,-0.000046,  18.272
   949.0,0.018890,0.010168,0.166220,-0.000046,  18.267
   950.0,0.018820,0.010141,0.165609,-0.000022,  18.262
   951.0,0.018771,0.010110,0.165052,-0.000046,  18.259
   952.0,0.018709,0.010076,0.164336,-0.000096,  18.260
   953.0,0.018657,0.010037,0.163942,-0.000057,  18.267
   954.0,0.018579,0.009995,0.163362,-0.000096,  18.262
   955.0,0.018526,0.009967,0.162886,-0.000057,  18.262
   956.0,0.018468,0.009938,0.161097,-0.000060,  18.260
   957.0,0.018407,0.009904,0.161420,-0.000046,  18.266
   958.0,0.018334,0.009868,0.161093,-0.000060,  18.264
   959.0,0.018269,0.009830,0.160591,-0.000046,  18.268
   960.0,0.018215,0.009800,0.160006,-0.000046,  18.266
   961.0,0.018166,0.009768,0.159340,-0.000071,  18.268
   962.0,0.018100,0.009745,0.158973,-0.000046,  18.266
   963.0,0.018026,0.009701,0.158558,-0.000046,  18.271
   964.0,0.017963,0.009664,0.158027,-0.000085,  18.273
   965.0,0.017902,0.009631,0.157414,-0.000110,  18.272
   966.0,0.017825,0.009589,0.156840,-0.000057,  18.276
   967.0,0.017772,0.009572,0.156254,-0.000085,  18.277
   968.0,0.017699,0.009529,0.155751,-0.000124,  18.276
   969.0,0.017629,0.009488,0.155097,-0.000071,  18.277
   970.0,0.017572,0.009458,0.154445,-0.000099,  18.277
   971.0,0.017503,0.009425,0.153731,-0.000124,  18.275
   972.0,0.017454,0.009399,0.153408,-0.000085,  18.279
   973.0,0.017378,0.009371,0.152681,-0.000110,  18.279
   974.0,0.017300,0.009328,0.152312,-0.000088,  18.277
   975.0,0.017219,0.009292,0.151766,-0.000060,  18.278
   976.0,0.017148,0.009250,0.151128,-0.000046,  18.279
   977.0,0.017075,0.009196,0.150420,-0.000060,  18.276
   978.0,0.017023,0.009160,0.149775,-0.000060,  18.273
   979.0,0.016959,0.009115,0.149621,-0.000088,  18.273
   980.0,0.016886,0.009065,0.148798,-0.000141,  18.275
   981.0,0.016817,0.009036,0.146705,-0.000138,  18.271
   982.0,0.016764,0.009003,0.146978,-0.000099,  18.266
   983.0,0.016680,0.008962,0.146580,-0.000099,  18.268
   984.0,0.016596,0.008916,0.146103,-0.000099,  18.264
   985.0,0.016539,0.008887,0.145351,-0.000102,  18.258
   986.0,0.016467,0.008854,0.144530,-0.000088,  18.257
   987.0,0.016425,0.008809,0.144210,-0.000074,  18.255
   988.0,0.016337,0.008780,0.141732,-0.000074,  18.256
   989.0,0.016257,0.008727,0.141481,-0.000074,  18.256
   990.0,0.016187,0.008696,0.141706,-0.000074,  18.251
   991.0,0.016127,0.008652,0.141421,-0.000088,  18.252
   992.0,0.016066,0.008622,0.140925,-0.000074,  18.246
   993.0,0.015989,0.008608,0.138667,-0.000088,  18.239
   994.0,0.015921,0.008564,0.138490,-0.000074,  18.239
   995.0,0.015860,0.008525,0.138488,-0.000074,  18.228
   996.0,0.015811,0.008500,0.138472,-0.000074,  18.222
   997.0,0.015758,0.008473,0.138038,-0.000025,  18.213
   998.0,0.015688,0.008443,0.137482,-0.000074,  18.210
   999.0,0.015621,0.008413,0.136821,-0.000060,  18.203
  1000.0,0.015556,0.008367,0.136109,-0.000060,  18.202
  1001.0,0.015488,0.008334,0.135682,-0.000050,  18.191
  1002.0,0.015424,0.008320,0.135212,-0.000074,  18.168
  1003.0,0.015347,0.008278,0.134694,-0.000074,  18.154
  1004.0,0.015262,0.008229,0.134177,-0.000074,  18.144
  1005.0,0.015218,0.008193,0.133484,-0.000074,  18.132
  1006.0,0.015141,0.008144,0.132906,-0.000074,  18.130
  1007.0,0.015081,0.008120,0.132286,-0.000085,  18.120
  1008.0,0.015013,0.008088,0.131371,-0.000085,  18.122
  1009.0,0.014943,0.008056,0.130929,-0.000124,  18.120
  1010.0,0.014883,0.008024,0.130350,-0.000124,  18.125
  1011.0,0.014808,0.007975,0.129795,-0.000124,  18.134
  1012.0,0.014732,0.007951,0.129383,-0.000074,  18.141
  1013.0,0.014649,0.007906,0.128754,-0.000036,  18.149
  1014.0,0.014584,0.007853,0.127838,-0.000074,  18.157
  1015.0,0.014539,0.007825,0.127174,-0.000060,  18.166
  1016.0,0.014466,0.007791,0.126614,-0.000085,  18.171
  1017.0,0.014397,0.007761,0.126101,-0.000085,  18.178
  1018.0,0.014325,0.007733,0.125636,-0.000071,  18.190
  1019.0,0.014257,0.007690,0.125139,-0.000096,  18.198
  1020.0,0.014177,0.007663,0.124502,-0.000057,  18.203
  1021.0,0.014121,0.007619,0.123955,-0.000032,  18.213
  1022.0,0.014053,0.007581,0.123352,-0.000096,  18.214
  1023.0,0.013984,0.007546,0.122732,-0.000071,  18.221
  1024.0,0.013919,0.007515,0.122289,-0.000071,  18.230
  1025.0,0.013866,0.007483,0.121633,-0.000096,  18.237
  1026.0,0.013782,0.007453,0.120987,-0.000043,  18.238
  1027.0,0.013726,0.007417,0.120634,-0.000068,  18.242
  1028.0,0.013646,0.007379,0.120115,-0.000029,  18.247
  1029.0,0.013563,0.007325,0.119393,-0.000057,  18.253
  1030.0,0.013480,0.007276,0.118709,-0.000096,  18.249
  1031.0,0.013404,0.007229,0.118150,-0.000043,  18.247
  1032.0,0.013347,0.007182,0.117408,-0.000057,  18.248
  1033.0,0.013272,0.007136,0.116850,-0.000096,  18.244
  1034.0,0.013184,0.007101,0.116198,-0.000057,  18.232
  1035.0,0.013121,0.007053,0.115400,-0.000124,  18.232
  1036.0,0.013049,0.007017,0.114755,-0.000099,  18.225
  1037.0,0.012961,0.006978,0.114200,-0.000088,  18.208
  1038.0,0.012894,0.006946,0.113525,-0.000152,  18.192
  1039.0,0.012809,0.006907,0.112877,-0.000113,  18.182
  1040.0,0.012741,0.006880,0.112234,-0.000113,  18.170
  1041.0,0.012689,0.006829,0.111584,-0.000152,  18.156
  1042.0,0.012621,0.006782,0.110750,-0.000074,  18.147
  1043.0,0.012542,0.006736,0.110111,-0.000113,  18.144
  1044.0,0.012455,0.006692,0.109423,-0.000127,  18.137
  1045.0,0.012383,0.006659,0.108853,-0.000102,  18.131
  1046.0,0.012323,0.006622,0.108204,-0.000152,  18.132
  1047.0,0.012248,0.006594,0.107510,-0.000113,  18.134
  1048.0,0.012156,0.006544,0.106831,-0.000127,  18.131
  1049.0,0.012086,0.006496,0.106210,-0.000152,  18.128
  1050.0,0.012028,0.006462,0.105187,-0.000127,  18.130
  1051.0,0.011985,0.006422,0.104347,-0.000127,  18.134
  1052.0,0.011908,0.006387,0.103348,-0.000152,  18.135
  1053.0,0.011821,0.006353,0.103209,-0.000116,  18.138
  1054.0,0.011761,0.006311,0.102939,-0.000116,  18.141
  1055.0,0.011686,0.006285,0.102376,-0.000088,  18.146
  1056.0,0.011623,0.006242,0.101859,-0.000088,  18.155
  1057.0,0.011559,0.006207,0.101193,-0.000152,  18.152
  1058.0,0.011482,0.006180,0.100617,-0.000113,  18.159
  1059.0,0.011422,0.006144,0.099699,-0.000113,  18.164
  1060.0,0.011384,0.006107,0.099308,-0.000152,  18.168
  1061.0,0.011319,0.006084,0.098678,-0.000116,  18.176
  1062.0,0.011262,0.006050,0.098130,-0.000102,  18.178
  1063.0,0.011192,0.006018,0.097702,-0.000113,  18.184
  1064.0,0.011140,0.005997,0.096550,-0.000113,  18.187
  1065.0,0.011076,0.005973,0.094725,-0.000152,  18.188
  1066.0,0.011019,0.005937,0.095614,-0.000113,  18.192
  1067.0,0.010954,0.005918,0.095460,-0.000113,  18.196
  1068.0,0.010899,0.005876,0.095010,-0.000138,  18.199
  1069.0,0.010845,0.005857,0.094507,-0.000099,  18.202
  1070.0,0.010797,0.005814,0.094064,-0.000124,  18.203
  1071.0,0.010756,0.005793,0.093526,-0.000057,  18.205
  1072.0,0.010672,0.005764,0.093248,-0.000071,  18.207
  1073.0,0.010613,0.005736,0.092822,-0.000096,  18.205
  1074.0,0.010557,0.005709,0.092303,-0.000071,  18.211
  1075.0,0.010485,0.005663,0.091748,-0.000071,  18.211
  1076.0,0.010440,0.005632,0.091125,-0.000096,  18.213
  1077.0,0.010368,0.005605,0.090630,-0.000057,  18.211
  1078.0,0.010312,0.005565,0.089893,-0.000046,  18.214
  1079.0,0.010256,0.005536,0.089399,-0.000046,  18.219
  1080.0,0.010180,0.005501,0.088847,-0.000060,  18.217
  1081.0,0.010128,0.005470,0.088628,-0.000124,  18.225
  1082.0,0.010064,0.005440,0.088159,-0.000135,  18.220
  1083.0,0.009996,0.005405,0.087686,-0.000071,  18.223
  1084.0,0.009929,0.005348,0.087051,-0.000096,  18.221
  1085.0,0.009864,0.005313,0.086452,-0.000135,  18.216
  1086.0,0.009813,0.005290,0.085926,-0.000124,  18.210
  1087.0,0.009760,0.005258,0.085317,-0.000060,  18.198
  1088.0,0.009681,0.005207,0.084859,-0.000074,  18.185
  1089.0,0.009629,0.005174,0.084313,-0.000074,  18.175
  1090.0,0.009573,0.005151,0.083429,-0.000074,  18.163
  1091.0,0.009528,0.005141,0.083006,-0.000113,  18.158
  1092.0,0.009468,0.005109,0.082550,-0.000124,  18.151
  1093.0,0.009411,0.005082,0.080735,-0.000071,  18.149
  1094.0,0.009378,0.005059,0.080596,-0.000071,  18.146
  1095.0,0.009325,0.005039,0.080760,-0.000096,  18.148
  1096.0,0.009281,0.005008,0.080499,-0.000057,  18.146
  1097.0,0.009218,0.004976,0.080074,-0.000096,  18.147
  1098.0,0.009153,0.004950,0.079513,-0.000121,  18.143
  1099.0,0.009097,0.004935,0.078316,-0.000110,  18.139
  1100.0,0.009041,0.004894,0.077125,-0.000096,  18.133
  1101.0,0.008981,0.004860,0.077694,-0.000121,  18.130
  1102.0,0.008913,0.004821,0.077581,-0.000096,  18.125
  1103.0,0.008849,0.004774,0.077170,-0.000096,  18.123
  1104.0,0.008793,0.004736,0.074896,-0.000135,  18.119
  1105.0,0.008746,0.004711,0.074447,-0.000071,  18.117
  1106.0,0.008688,0.004682,0.074831,-0.000071,  18.117
  1107.0,0.008641,0.004653,0.074811,-0.000074,  18.120
  1108.0,0.008589,0.004638,0.074659,-0.000124,  18.117
  1109.0,0.008524,0.004609,0.074373,-0.000074,  18.121
  1110.0,0.008472,0.004577,0.073905,-0.000060,  18.123
  1111.0,0.008421,0.004542,0.073394,-0.000124,  18.121
  1112.0,0.008372,0.004510,0.072980,-0.000046,  18.120
  1113.0,0.008305,0.004468,0.072440,-0.000060,  18.120
  1114.0,0.008249,0.004429,0.071731,-0.000124,  18.118
  1115.0,0.008184,0.004403,0.071256,-0.000099,  18.115
  1116.0,0.008120,0.004365,0.070697,-0.000138,  18.109
  1117.0,0.008064,0.004336,0.070325,-0.000099,  18.113
  1118.0,0.008003,0.004305,0.069757,-0.000138,  18.110
  1119.0,0.007963,0.004274,0.069209,-0.000124,  18.110
  1120.0,0.007907,0.004264,0.068788,-0.000177,  18.114
  1121.0,0.007862,0.004225,0.068296,-0.000113,  18.113
  1122.0,0.007799,0.004194,0.067894,-0.000152,  18.120
  1123.0,0.007753,0.004166,0.067351,-0.000113,  18.130
  1124.0,0.007709,0.004148,0.066920,-0.000152,  18.132
  1125.0,0.007657,0.004117,0.066386,-0.000113,  18.140
  1126.0,0.007603,0.004104,0.066010,-0.000099,  18.152
  1127.0,0.007545,0.004071,0.065632,-0.000124,  18.154
  1128.0,0.007492,0.004034,0.065162,-0.000099,  18.163
  1129.0,0.007456,0.003999,0.064589,-0.000113,  18.168
  1130.0,0.007395,0.003964,0.064111,-0.000152,  18.171
  1131.0,0.007350,0.003953,0.063413,-0.000127,  18.174
  1132.0,0.007291,0.003921,0.063143,-0.000152,  18.182
  1133.0,0.007239,0.003895,0.062705,-0.000113,  18.187
  1134.0,0.007206,0.003868,0.062291,-0.000099,  18.188
  1135.0,0.007154,0.003844,0.061845,-0.000138,  18.196
  1136.0,0.007112,0.003829,0.061389,-0.000113,  18.203
  1137.0,0.007075,0.003814,0.060777,-0.000138,  18.201
  1138.0,0.007026,0.003791,0.060590,-0.000138,  18.204
  1139.0,0.006990,0.003772,0.060248,-0.000177,  18.205
  1140.0,0.006945,0.003751,0.059751,-0.000138,  18.203
  1141.0,0.006899,0.003730,0.059491,-0.000177,  18.207
  1142.0,0.006852,0.003693,0.059057,-0.000124,  18.212
  1143.0,0.006802,0.003673,0.058846,-0.000124,  18.214
  1144.0,0.006769,0.003663,0.058373,-0.000074,  18.215
  1145.0,0.006712,0.003644,0.057920,-0.000060,  18.219
  1146.0,0.006672,0.003629,0.057436,-0.000124,  18.224
  1147.0,0.006626,0.003597,0.057085,-0.000071,  18.228
  1148.0,0.006582,0.003568,0.056827,-0.000085,  18.230
  1149.0,0.006523,0.003532,0.056498,-0.000124,  18.232
  1150.0,0.006474,0.003500,0.056007,-0.000099,  18.237
  1151.0,0.006419,0.003468,0.055588,-0.000124,  18.244
  1152.0,0.006363,0.003428,0.055290,-0.000099,  18.251
  1153.0,0.006298,0.003407,0.054821,-0.000099,  18.251
  1154.0,0.006262,0.003368,0.054272,-0.000138,  18.252
  1155.0,0.006221,0.003349,0.053925,-0.000099,  18.249
  1156.0,0.006180,0.003327,0.053408,-0.000113,  18.238
  1157.0,0.006136,0.003295,0.052981,-0.000152,  18.229
  1158.0,0.006079,0.003272,0.052534,-0.000127,  18.220
  1159.0,0.006059,0.003260,0.052099,-0.000166,  18.208
  1160.0,0.006017,0.003237,0.051591,-0.000127,  18.195
  1161.0,0.005988,0.003226,0.051375,-0.000127,  18.187
  1162.0,0.005943,0.003211,0.050999,-0.000152,  18.180
  1163.0,0.005898,0.003190,0.050693,-0.000085,  18.167
  1164.0,0.005859,0.003182,0.050418,-0.000099,  18.166
  1165.0,0.005826,0.003158,0.048206,-0.000138,  18.156
  1166.0,0.005776,0.003138,0.048991,-0.000177,  18.149
  1167.0,0.005741,0.003107,0.049134,-0.000138,  18.145
  1168.0,0.005697,0.003084,0.048928,-0.000110,  18.137
  1169.0,0.005633,0.003060,0.048475,-0.000085,  18.135
  1170.0,0.005609,0.003039,0.048101,-0.000110,  18.132
  1171.0,0.005560,0.003013,0.047788,-0.000057,  18.134
  1172.0,0.005520,0.002976,0.047544,-0.000036,  18.140
  1173.0,0.005476,0.002944,0.047113,-0.000074,  18.144
  1174.0,0.005437,0.002928,0.045119,-0.000088,  18.151
  1175.0,0.005397,0.002914,0.045132,-0.000088,  18.152
  1176.0,0.005344,0.002882,0.044204,-0.000074,  18.160
  1177.0,0.005310,0.002848,0.044863,-0.000113,  18.167
  1178.0,0.005269,0.002829,0.044601,-0.000124,  18.175
  1179.0,0.005215,0.002814,0.044593,-0.000191,  18.179
  1180.0,0.005175,0.002792,0.044763,-0.000138,  18.190
  1181.0,0.005135,0.002777,0.044266,-0.000124,  18.193
  1182.0,0.005094,0.002745,0.043798,-0.000177,  18.199
  1183.0,0.005073,0.002726,0.043409,-0.000127,  18.204
  1184.0,0.005039,0.002707,0.042923,-0.000088,  18.212
  1185.0,0.004994,0.002691,0.042711,-0.000116,  18.217
