Run Name,Run 2: R/L
Run Date,01:32:26 PM   02-25-16
Method Name,27% isocratic
Export Format Version, 1.00
Method ID, 2925
Points/Second, 1.00
Number of Records,   1487
Offset from Run Start Time,00:00:00
Run End Time,00:24:47
Time,Second
QuadTec 1, (280.0 nm), AU
QuadTec 2, (260.0 nm), AU
Gradient Pump,<Not Selected>
QuadTec 3, (214.0 nm), AU
QuadTec 4, (405.0 nm), AU
Conductivity,mS/cm
Trace 6,<Not Available>
GP Pressure,<Not Selected>
Volume,<Not Selected>
Fraction,<Not Available>
Time,QuadTec 1,QuadTec 2,QuadTec 3,QuadTec 4,Conductivity
     0.0,0.000000,0.000000,0.043499,0.000000,  85.858
     1.0,0.000000,0.000000,0.000000,0.000000,  85.792
     2.0,0.000000,0.000000,0.000000,0.000000,  85.723
     3.0,0.000000,0.000000,0.000000,0.000000,  85.660
     4.0,0.000007,-0.000017,-0.000652,0.000000,  85.564
     5.0,-0.000022,-0.000009,-0.001393,-0.000011,  85.496
     6.0,-0.000013,-0.000009,-0.002535,0.000000,  85.465
     7.0,-0.000001,-0.000001,-0.003715,-0.000011,  85.458
     8.0,-0.000024,0.000004,-0.004754,0.000003,  85.492
     9.0,-0.000001,0.000021,-0.005399,0.000031,  85.566
    10.0,0.000004,0.000042,-0.006230,0.000045,  85.655
    11.0,0.000030,0.000062,-0.009809,0.000073,  85.798
    12.0,0.000048,0.000092,-0.008326,0.000101,  85.920
    13.0,0.000066,0.000128,-0.008285,0.000129,  86.038
    14.0,0.000066,0.000112,-0.008419,0.000139,  86.167
    15.0,0.000089,0.000124,-0.008846,0.000153,  86.326
    16.0,0.000081,0.000140,-0.009263,0.000142,  86.439
    17.0,0.000099,0.000167,-0.009475,0.000142,  86.523
    18.0,0.000115,0.000196,-0.009620,0.000142,  86.643
    19.0,0.000155,0.000202,-0.009998,0.000195,  86.705
    20.0,0.000139,0.000209,-0.010249,0.000170,  86.743
    21.0,0.000114,0.000182,-0.010413,0.000170,  86.766
    22.0,0.000083,0.000158,-0.010789,0.000181,  86.750
    23.0,0.000084,0.000147,-0.011185,0.000156,  86.724
    24.0,0.000073,0.000144,-0.011630,0.000156,  86.694
    25.0,0.000075,0.000147,-0.011850,0.000156,  86.664
    26.0,0.000078,0.000145,-0.012004,0.000142,  86.652
    27.0,0.000066,0.000133,-0.012419,0.000156,  86.639
    28.0,0.000071,0.000126,-0.012495,0.000170,  86.631
    29.0,0.000066,0.000129,-0.012658,0.000156,  86.636
    30.0,0.000082,0.000144,-0.012860,0.000156,  86.644
    31.0,0.000090,0.000152,-0.013014,0.000142,  86.649
    32.0,0.000078,0.000156,-0.013216,0.000156,  86.670
    33.0,0.000086,0.000168,-0.013389,0.000195,  86.691
    34.0,0.000078,0.000168,-0.013744,0.000170,  86.718
    35.0,0.000075,0.000137,-0.013590,0.000195,  86.734
    36.0,0.000072,0.000129,-0.013724,0.000170,  86.739
    37.0,0.000055,0.000132,-0.014089,0.000156,  86.751
    38.0,0.000048,0.000131,-0.014242,0.000156,  86.753
    39.0,0.000044,0.000138,-0.014194,0.000170,  86.750
    40.0,0.000039,0.000129,-0.014251,0.000156,  86.744
    41.0,0.000051,0.000139,-0.014452,0.000156,  86.741
    42.0,0.000055,0.000156,-0.014529,0.000170,  86.729
    43.0,0.000059,0.000158,-0.014672,0.000142,  86.702
    44.0,0.000090,0.000169,-0.014605,0.000184,  86.686
    45.0,0.000098,0.000191,-0.014461,0.000198,  86.671
    46.0,0.000093,0.000198,-0.014683,0.000184,  86.659
    47.0,0.000105,0.000205,-0.014529,0.000198,  86.655
    48.0,0.000101,0.000182,-0.014826,0.000184,  86.654
    49.0,0.000090,0.000180,-0.014759,0.000209,  86.651
    50.0,0.000083,0.000185,-0.014902,0.000209,  86.665
    51.0,0.000062,0.000191,-0.014863,0.000170,  86.676
    52.0,0.000068,0.000167,-0.015055,0.000170,  86.689
    53.0,0.000056,0.000165,-0.015064,0.000170,  86.701
    54.0,0.000055,0.000165,-0.015198,0.000195,  86.705
    55.0,0.000051,0.000156,-0.015179,0.000142,  86.715
    56.0,0.000059,0.000152,-0.015342,0.000170,  86.724
    57.0,0.000065,0.000184,-0.015161,0.000181,  86.717
    58.0,0.000060,0.000187,-0.015055,0.000181,  86.701
    59.0,0.000072,0.000193,-0.014835,0.000153,  86.675
    60.0,0.000091,0.000230,-0.014462,0.000206,  86.636
    61.0,0.000094,0.000244,-0.014174,0.000142,  86.584
    62.0,0.000105,0.000268,-0.014214,0.000167,  86.470
    63.0,0.000135,0.000300,-0.015365,0.000129,  86.367
    64.0,0.000166,0.000319,-0.013437,0.000156,  86.249
    65.0,0.000168,0.000351,-0.012601,0.000245,  86.052
    66.0,0.000230,0.000437,-0.011956,0.000170,  85.865
    67.0,0.000287,0.000523,-0.011175,0.000170,  85.589
    68.0,0.000340,0.000592,-0.010596,0.000170,  85.260
    69.0,0.000405,0.000690,-0.010017,0.000240,  84.874
    70.0,0.000511,0.000807,-0.009505,0.000254,  84.422
    71.0,0.000649,0.000938,-0.008729,0.000296,  83.883
    72.0,0.000764,0.001041,-0.008127,0.000380,  83.219
    73.0,0.000786,0.001136,-0.007749,0.000355,  82.475
    74.0,0.000885,0.001278,-0.007458,0.000421,  81.615
    75.0,0.001081,0.001429,-0.007000,0.000505,  80.741
    76.0,0.001073,0.001491,-0.006726,0.000635,  79.747
    77.0,0.001093,0.001514,-0.006706,0.000597,  78.668
    78.0,0.001225,0.001620,-0.006871,0.000656,  77.501
    79.0,0.001247,0.001617,-0.007076,0.000645,  76.251
    80.0,0.001236,0.001580,-0.007593,0.000631,  74.958
    81.0,0.001270,0.001587,-0.008136,0.000645,  73.608
    82.0,0.001294,0.001609,-0.008611,0.000687,  72.239
    83.0,0.001307,0.001601,-0.009427,0.000701,  70.857
    84.0,0.001253,0.001590,-0.010046,0.000701,  69.476
    85.0,0.001248,0.001512,-0.014472,0.000687,  68.110
    86.0,0.001185,0.001446,-0.013028,0.000715,  66.744
    87.0,0.001144,0.001473,-0.013160,0.000742,  65.406
    88.0,0.001141,0.001409,-0.013504,0.000715,  64.099
    89.0,0.001078,0.001249,-0.014357,0.000659,  62.806
    90.0,0.001085,0.001239,-0.015026,0.000673,  61.554
    91.0,0.001082,0.001231,-0.015886,0.000659,  60.313
    92.0,0.001056,0.001192,-0.016763,0.000645,  59.127
    93.0,0.001045,0.001144,-0.017733,0.000617,  57.972
    94.0,0.000997,0.001111,-0.018378,0.000631,  56.868
    95.0,0.000961,0.001100,-0.019136,0.000645,  55.790
    96.0,0.000964,0.001062,-0.019865,0.000659,  54.751
    97.0,0.000859,0.000938,-0.020592,0.000617,  53.774
    98.0,0.000869,0.000960,-0.021742,0.000617,  52.819
    99.0,0.000906,0.000992,-0.022175,0.000631,  51.927
   100.0,0.000880,0.000919,-0.022814,0.000694,  51.063
   101.0,0.000885,0.000860,-0.023602,0.000617,  50.212
   102.0,0.000869,0.000861,-0.024071,0.000631,  49.426
   103.0,0.000851,0.000841,-0.024772,0.000631,  48.660
   104.0,0.000791,0.000821,-0.025389,0.000645,  47.928
   105.0,0.000790,0.000773,-0.026301,0.000617,  47.223
   106.0,0.000790,0.000757,-0.026470,0.000592,  46.541
   107.0,0.000774,0.000755,-0.027038,0.000620,  45.889
   108.0,0.000768,0.000766,-0.027493,0.000606,  45.260
   109.0,0.000765,0.000757,-0.028051,0.000606,  44.656
   110.0,0.000778,0.000724,-0.028403,0.000631,  44.085
   111.0,0.000774,0.000710,-0.028913,0.000645,  43.543
   112.0,0.000760,0.000717,-0.029660,0.000617,  43.014
   113.0,0.000732,0.000662,-0.029957,0.000617,  42.524
   114.0,0.000732,0.000650,-0.030410,0.000631,  42.045
   115.0,0.000720,0.000642,-0.030458,0.000617,  41.593
   116.0,0.000724,0.000630,-0.031240,0.000617,  41.150
   117.0,0.000708,0.000606,-0.031746,0.000631,  40.732
   118.0,0.000658,0.000601,-0.032206,0.000631,  40.333
   119.0,0.000658,0.000598,-0.032583,0.000603,  39.951
   120.0,0.000672,0.000610,-0.032950,0.000603,  39.594
   121.0,0.000667,0.000576,-0.033298,0.000642,  39.247
   122.0,0.000686,0.000577,-0.033609,0.000631,  38.911
   123.0,0.000693,0.000586,-0.033866,0.000553,  38.599
   124.0,0.000689,0.000563,-0.034141,0.000606,  38.306
   125.0,0.000677,0.000552,-0.034370,0.000592,  38.028
   126.0,0.000685,0.000553,-0.034698,0.000631,  37.753
   127.0,0.000693,0.000553,-0.034918,0.000567,  37.490
   128.0,0.000677,0.000565,-0.035193,0.000592,  37.244
   129.0,0.000667,0.000556,-0.035628,0.000645,  37.004
   130.0,0.000671,0.000545,-0.035666,0.000645,  36.778
   131.0,0.000654,0.000542,-0.035921,0.000645,  36.562
   132.0,0.000666,0.000545,-0.036031,0.000645,  36.356
   133.0,0.000682,0.000544,-0.036322,0.000631,  36.159
   134.0,0.000669,0.000535,-0.036640,0.000645,  35.964
   135.0,0.000674,0.000520,-0.036695,0.000697,  35.774
   136.0,0.000670,0.000534,-0.037102,0.000659,  35.606
   137.0,0.000661,0.000518,-0.039995,0.000617,  35.433
   138.0,0.000675,0.000509,-0.038295,0.000669,  35.264
   139.0,0.000656,0.000515,-0.037775,0.000645,  35.118
   140.0,0.000660,0.000512,-0.037740,0.000683,  34.969
   141.0,0.000641,0.000501,-0.037967,0.000634,  34.817
   142.0,0.000649,0.000482,-0.038355,0.000620,  34.681
   143.0,0.000637,0.000481,-0.038500,0.000620,  34.549
   144.0,0.000637,0.000491,-0.038736,0.000634,  34.421
   145.0,0.000628,0.000476,-0.038862,0.000620,  34.301
   146.0,0.000643,0.000482,-0.038836,0.000645,  34.185
   147.0,0.000637,0.000483,-0.038792,0.000673,  34.075
   148.0,0.000637,0.000476,-0.038883,0.000722,  33.959
   149.0,0.000627,0.000471,-0.038947,0.000683,  33.840
   150.0,0.000630,0.000475,-0.039127,0.000659,  33.727
   151.0,0.000623,0.000480,-0.039136,0.000659,  33.641
   152.0,0.000644,0.000484,-0.039361,0.000620,  33.552
   153.0,0.000639,0.000489,-0.039371,0.000669,  33.466
   154.0,0.000648,0.000494,-0.039676,0.000620,  33.374
   155.0,0.000660,0.000491,-0.039667,0.000634,  33.297
   156.0,0.000664,0.000478,-0.039668,0.000634,  33.220
   157.0,0.000653,0.000466,-0.039661,0.000620,  33.158
   158.0,0.000639,0.000464,-0.039831,0.000620,  33.088
   159.0,0.000655,0.000480,-0.039885,0.000634,  33.022
   160.0,0.000644,0.000479,-0.039939,0.000634,  32.955
   161.0,0.000647,0.000481,-0.040128,0.000697,  32.914
   162.0,0.000652,0.000487,-0.040253,0.000673,  32.862
   163.0,0.000636,0.000490,-0.040183,0.000634,  32.823
   164.0,0.000627,0.000485,-0.040256,0.000634,  32.774
   165.0,0.000632,0.000483,-0.040426,0.000648,  32.734
   166.0,0.000632,0.000466,-0.040426,0.000648,  32.699
   167.0,0.000631,0.000462,-0.040748,0.000645,  32.664
   168.0,0.000636,0.000457,-0.040597,0.000645,  32.628
   169.0,0.000639,0.000458,-0.040749,0.000645,  32.601
   170.0,0.000643,0.000479,-0.040678,0.000659,  32.569
   171.0,0.000638,0.000478,-0.040455,0.000595,  32.543
   172.0,0.000663,0.000473,-0.040723,0.000701,  32.510
   173.0,0.000643,0.000483,-0.040572,0.000687,  32.477
   174.0,0.000630,0.000466,-0.040688,0.000648,  32.449
   175.0,0.000630,0.000459,-0.040760,0.000648,  32.423
   176.0,0.000618,0.000437,-0.040929,0.000687,  32.390
   177.0,0.000618,0.000442,-0.041029,0.000581,  32.361
   178.0,0.000610,0.000446,-0.040923,0.000595,  32.334
   179.0,0.000638,0.000444,-0.040851,0.000556,  32.311
   180.0,0.000626,0.000439,-0.040887,0.000595,  32.283
   181.0,0.000623,0.000437,-0.040862,0.000606,  32.257
   182.0,0.000613,0.000441,-0.041022,0.000634,  32.228
   183.0,0.000625,0.000453,-0.040996,0.000648,  32.202
   184.0,0.000619,0.000460,-0.041067,0.000595,  32.179
   185.0,0.000626,0.000462,-0.041138,0.000609,  32.158
   186.0,0.000613,0.000452,-0.041094,0.000620,  32.142
   187.0,0.000623,0.000451,-0.041068,0.000556,  32.121
   188.0,0.000630,0.000475,-0.041236,0.000609,  32.107
   189.0,0.000638,0.000465,-0.041423,0.000634,  32.097
   190.0,0.000638,0.000472,-0.041405,0.000623,  32.074
   191.0,0.000650,0.000469,-0.041476,0.000623,  32.062
   192.0,0.000647,0.000474,-0.041174,0.000623,  32.041
   193.0,0.000637,0.000475,-0.041086,0.000609,  32.018
   194.0,0.000637,0.000477,-0.041175,0.000609,  31.999
   195.0,0.000638,0.000464,-0.041300,0.000584,  31.971
   196.0,0.000626,0.000439,-0.041309,0.000609,  31.944
   197.0,0.000607,0.000440,-0.041238,0.000620,  31.923
   198.0,0.000615,0.000452,-0.041585,0.000595,  31.912
   199.0,0.000609,0.000462,-0.041514,0.000595,  31.897
   200.0,0.000626,0.000450,-0.041310,0.000648,  31.888
   201.0,0.000613,0.000446,-0.041595,0.000634,  31.865
   202.0,0.000617,0.000456,-0.041507,0.000648,  31.863
   203.0,0.000637,0.000456,-0.041462,0.000648,  31.852
   204.0,0.000620,0.000453,-0.041398,0.000637,  31.840
   205.0,0.000613,0.000442,-0.041284,0.000609,  31.830
   206.0,0.000618,0.000434,-0.041427,0.000584,  31.819
   207.0,0.000602,0.000435,-0.041418,0.000623,  31.805
   208.0,0.000603,0.000425,-0.041720,0.000634,  31.800
   209.0,0.000598,0.000432,-0.041925,0.000595,  31.789
   210.0,0.000602,0.000444,-0.041819,0.000609,  31.768
   211.0,0.000614,0.000438,-0.041934,0.000609,  31.746
   212.0,0.000613,0.000433,-0.041632,0.000595,  31.737
   213.0,0.000613,0.000434,-0.041464,0.000620,  31.734
   214.0,0.000598,0.000425,-0.041500,0.000634,  31.728
   215.0,0.000602,0.000426,-0.041687,0.000609,  31.714
   216.0,0.000602,0.000422,-0.041545,0.000634,  31.706
   217.0,0.000598,0.000427,-0.041697,0.000570,  31.706
   218.0,0.000595,0.000424,-0.041812,0.000570,  31.708
   219.0,0.000603,0.000430,-0.041786,0.000584,  31.711
   220.0,0.000602,0.000428,-0.041776,0.000556,  31.711
   221.0,0.000602,0.000416,-0.041475,0.000570,  31.711
   222.0,0.000602,0.000425,-0.041421,0.000570,  31.707
   223.0,0.000598,0.000421,-0.041474,0.000620,  31.711
   224.0,0.000598,0.000411,-0.041554,0.000595,  31.706
   225.0,0.000591,0.000427,-0.041751,0.000595,  31.713
   226.0,0.000582,0.000426,-0.041697,0.000581,  31.714
   227.0,0.000595,0.000418,-0.041715,0.000595,  31.716
   228.0,0.000595,0.000425,-0.041929,0.000581,  31.714
   229.0,0.000587,0.000419,-0.043482,0.000581,  31.713
   230.0,0.000598,0.000428,-0.043058,0.000529,  31.715
   231.0,0.000585,0.000413,-0.042251,0.000567,  31.717
   232.0,0.000606,0.000428,-0.041947,0.000556,  31.708
   233.0,0.000606,0.000436,-0.041831,0.000556,  31.704
   234.0,0.000592,0.000421,-0.041911,0.000518,  31.695
   235.0,0.000589,0.000417,-0.041742,0.000518,  31.694
   236.0,0.000584,0.000425,-0.041725,0.000542,  31.693
   237.0,0.000592,0.000420,-0.041715,0.000556,  31.693
   238.0,0.000592,0.000420,-0.041814,0.000556,  31.692
   239.0,0.000580,0.000416,-0.041698,0.000532,  31.683
   240.0,0.000573,0.000404,-0.041761,0.000567,  31.681
   241.0,0.000569,0.000402,-0.041832,0.000529,  31.678
   242.0,0.000562,0.000413,-0.041921,0.000581,  31.666
   243.0,0.000563,0.000403,-0.041913,0.000581,  31.655
   244.0,0.000554,0.000396,-0.041861,0.000567,  31.652
   245.0,0.000571,0.000389,-0.041871,0.000606,  31.661
   246.0,0.000580,0.000389,-0.042059,0.000581,  31.665
   247.0,0.000575,0.000403,-0.041952,0.000683,  31.666
   248.0,0.000575,0.000413,-0.042013,0.000620,  31.665
   249.0,0.000563,0.000403,-0.042057,0.000634,  31.670
   250.0,0.000547,0.000397,-0.042253,0.000595,  31.663
   251.0,0.000563,0.000389,-0.041774,0.000595,  31.653
   252.0,0.000558,0.000396,-0.041996,0.000595,  31.647
   253.0,0.000571,0.000414,-0.042333,0.000595,  31.643
   254.0,0.000582,0.000426,-0.042369,0.000584,  31.638
   255.0,0.000603,0.000430,-0.042226,0.000609,  31.632
   256.0,0.000596,0.000424,-0.041969,0.000581,  31.629
   257.0,0.000615,0.000440,-0.041755,0.000620,  31.622
   258.0,0.000602,0.000438,-0.041852,0.000606,  31.625
   259.0,0.000593,0.000450,-0.043192,0.000542,  31.627
   260.0,0.000596,0.000440,-0.042934,0.000556,  31.629
   261.0,0.000608,0.000440,-0.042215,0.000556,  31.632
   262.0,0.000596,0.000437,-0.041940,0.000556,  31.634
   263.0,0.000585,0.000435,-0.041994,0.000556,  31.625
   264.0,0.000569,0.000421,-0.041879,0.000595,  31.618
   265.0,0.000573,0.000408,-0.041781,0.000556,  31.615
   266.0,0.000573,0.000399,-0.041763,0.000556,  31.616
   267.0,0.000585,0.000400,-0.041844,0.000542,  31.624
   268.0,0.000580,0.000415,-0.041889,0.000553,  31.636
   269.0,0.000551,0.000407,-0.042058,0.000592,  31.642
   270.0,0.000568,0.000412,-0.042005,0.000669,  31.643
   271.0,0.000563,0.000419,-0.041924,0.000542,  31.646
   272.0,0.000586,0.000431,-0.041959,0.000595,  31.646
   273.0,0.000598,0.000443,-0.042126,0.000609,  31.648
   274.0,0.000600,0.000458,-0.041958,0.000595,  31.655
   275.0,0.000615,0.000462,-0.041840,0.000609,  31.656
   276.0,0.000623,0.000468,-0.041786,0.000623,  31.659
   277.0,0.000619,0.000453,-0.041688,0.000711,  31.659
   278.0,0.000615,0.000457,-0.041760,0.000662,  31.658
   279.0,0.000625,0.000453,-0.041796,0.000662,  31.660
   280.0,0.000628,0.000450,-0.041644,0.000648,  31.662
   281.0,0.000615,0.000436,-0.041554,0.000584,  31.661
   282.0,0.000606,0.000450,-0.041767,0.000609,  31.660
   283.0,0.000611,0.000448,-0.041669,0.000634,  31.660
   284.0,0.000603,0.000451,-0.041536,0.000711,  31.660
   285.0,0.000603,0.000462,-0.041749,0.000634,  31.652
   286.0,0.000615,0.000451,-0.041644,0.000648,  31.645
   287.0,0.000612,0.000447,-0.041645,0.000584,  31.641
   288.0,0.000612,0.000453,-0.041644,0.000623,  31.642
   289.0,0.000620,0.000455,-0.041742,0.000673,  31.644
   290.0,0.000620,0.000452,-0.041875,0.000637,  31.651
   291.0,0.000628,0.000455,-0.042026,0.000648,  31.656
   292.0,0.000632,0.000473,-0.041938,0.000584,  31.656
   293.0,0.000620,0.000467,-0.041849,0.000697,  31.663
   294.0,0.000620,0.000460,-0.041715,0.000634,  31.662
   295.0,0.000613,0.000462,-0.041715,0.000584,  31.656
   296.0,0.000617,0.000465,-0.041841,0.000648,  31.655
   297.0,0.000621,0.000458,-0.041681,0.000623,  31.648
   298.0,0.000617,0.000468,-0.041734,0.000623,  31.646
   299.0,0.000617,0.000468,-0.042009,0.000623,  31.646
   300.0,0.000621,0.000466,-0.041912,0.000623,  31.645
   301.0,0.000631,0.000449,-0.041797,0.000648,  31.662
   302.0,0.000654,0.000485,-0.041428,0.000662,  31.657
   303.0,0.000625,0.000462,-0.041158,0.000570,  31.656
   304.0,0.000587,0.000452,-0.041373,0.000567,  31.655
   305.0,0.000585,0.000438,-0.041293,0.000631,  31.649
   306.0,0.000565,0.000440,-0.041417,0.000553,  31.650
   307.0,0.000565,0.000429,-0.041186,0.000553,  31.644
   308.0,0.000578,0.000426,-0.041098,0.000553,  31.641
   309.0,0.000563,0.000434,-0.041275,0.000592,  31.635
   310.0,0.000549,0.000418,-0.041168,0.000553,  31.630
   311.0,0.000540,0.000424,-0.041291,0.000515,  31.622
   312.0,0.000545,0.000417,-0.041185,0.000553,  31.619
   313.0,0.000532,0.000404,-0.041095,0.000567,  31.606
   314.0,0.000525,0.000404,-0.041274,0.000581,  31.595
   315.0,0.000529,0.000395,-0.041140,0.000567,  31.589
   316.0,0.000517,0.000378,-0.041069,0.000501,  31.581
   317.0,0.000529,0.000392,-0.041230,0.000553,  31.575
   318.0,0.000529,0.000403,-0.041284,0.000501,  31.573
   319.0,0.000525,0.000395,-0.041407,0.000487,  31.573
   320.0,0.000518,0.000388,-0.041469,0.000539,  31.563
   321.0,0.000519,0.000397,-0.041283,0.000564,  31.561
   322.0,0.000524,0.000399,-0.041291,0.000589,  31.560
   323.0,0.000524,0.000406,-0.041211,0.000589,  31.552
   324.0,0.000532,0.000396,-0.041158,0.000525,  31.560
   325.0,0.000532,0.000406,-0.041230,0.000617,  31.553
   326.0,0.000524,0.000417,-0.041204,0.000578,  31.555
   327.0,0.000536,0.000408,-0.041274,0.000515,  31.551
   328.0,0.000530,0.000401,-0.041248,0.000553,  31.555
   329.0,0.000535,0.000388,-0.041249,0.000539,  31.553
   330.0,0.000531,0.000397,-0.041416,0.000539,  31.556
   331.0,0.000535,0.000402,-0.041461,0.000553,  31.558
   332.0,0.000531,0.000396,-0.041362,0.000501,  31.558
   333.0,0.000536,0.000406,-0.041355,0.000578,  31.558
   334.0,0.000540,0.000402,-0.041345,0.000539,  31.559
   335.0,0.000536,0.000412,-0.041238,0.000515,  31.554
   336.0,0.000527,0.000390,-0.041230,0.000553,  31.553
   337.0,0.000520,0.000392,-0.041373,0.000525,  31.553
   338.0,0.000516,0.000381,-0.041258,0.000487,  31.550
   339.0,0.000533,0.000385,-0.041418,0.000539,  31.549
   340.0,0.000529,0.000388,-0.041293,0.000539,  31.550
   341.0,0.000532,0.000391,-0.041399,0.000553,  31.543
   342.0,0.000519,0.000403,-0.041631,0.000525,  31.547
   343.0,0.000531,0.000410,-0.041577,0.000487,  31.545
   344.0,0.000540,0.000399,-0.041586,0.000539,  31.547
   345.0,0.000536,0.000410,-0.041398,0.000525,  31.538
   346.0,0.000536,0.000409,-0.041202,0.000564,  31.546
   347.0,0.000536,0.000401,-0.041158,0.000578,  31.549
   348.0,0.000536,0.000391,-0.041097,0.000603,  31.556
   349.0,0.000531,0.000401,-0.041248,0.000525,  31.559
   350.0,0.000526,0.000397,-0.041248,0.000553,  31.566
   351.0,0.000551,0.000409,-0.041061,0.000553,  31.574
   352.0,0.000530,0.000409,-0.041301,0.000553,  31.576
   353.0,0.000540,0.000403,-0.041257,0.000539,  31.583
   354.0,0.000532,0.000405,-0.041293,0.000515,  31.592
   355.0,0.000520,0.000403,-0.041470,0.000553,  31.602
   356.0,0.000529,0.000394,-0.041513,0.000539,  31.603
   357.0,0.000532,0.000409,-0.041355,0.000515,  31.604
   358.0,0.000532,0.000409,-0.041257,0.000501,  31.598
   359.0,0.000000,0.000405,-0.041284,0.000487,  31.603
   360.0,0.000000,0.000000,0.000000,0.000000,  31.606
   361.0,0.000000,0.000000,0.000000,0.000000,  31.604
   362.0,0.000000,0.000000,0.000000,0.000000,  31.601
   363.0,0.000000,0.000000,0.000000,0.000000,  31.602
   364.0,-0.000008,-0.000008,0.000053,-0.000074,  31.603
   365.0,-0.000008,-0.000004,-0.000027,-0.000099,  31.604
   366.0,-0.000017,-0.000017,-0.000045,-0.000060,  31.603
   367.0,-0.000005,-0.000009,-0.000899,-0.000060,  31.599
   368.0,0.000003,-0.000006,-0.000676,-0.000022,  31.597
   369.0,0.000003,0.000004,-0.000258,-0.000022,  31.597
   370.0,-0.000005,-0.000003,-0.000328,-0.000022,  31.590
   371.0,-0.000006,-0.000012,0.000002,-0.000060,  31.588
   372.0,-0.000006,-0.000021,-0.000080,-0.000074,  31.584
   373.0,-0.000010,-0.000019,-0.000009,-0.000099,  31.579
   374.0,0.000004,-0.000012,-0.000017,-0.000099,  31.570
   375.0,-0.000012,0.000004,0.000054,-0.000050,  31.568
   376.0,-0.000012,-0.000012,0.000135,-0.000099,  31.567
   377.0,-0.000012,-0.000014,0.000135,-0.000074,  31.565
   378.0,-0.000019,-0.000030,-0.000017,-0.000074,  31.563
   379.0,-0.000036,-0.000035,-0.000061,-0.000074,  31.564
   380.0,-0.000017,-0.000039,0.000135,-0.000113,  31.568
   381.0,-0.000021,-0.000039,0.000072,-0.000099,  31.574
   382.0,-0.000021,-0.000026,0.000072,-0.000099,  31.575
   383.0,-0.000024,-0.000023,-0.000035,-0.000113,  31.579
   384.0,-0.000021,-0.000026,0.000019,-0.000099,  31.580
   385.0,-0.000008,-0.000018,-0.000052,-0.000060,  31.580
   386.0,-0.000005,-0.000016,0.000143,-0.000060,  31.584
   387.0,-0.000005,-0.000015,0.000020,-0.000060,  31.585
   388.0,-0.000019,-0.000010,-0.000293,-0.000060,  31.586
   389.0,-0.000018,-0.000005,-0.000133,-0.000099,  31.584
   390.0,-0.000027,-0.000024,0.000036,-0.000099,  31.584
   391.0,-0.000015,-0.000014,-0.000027,-0.000099,  31.587
   392.0,-0.000007,-0.000017,-0.000018,-0.000060,  31.589
   393.0,-0.000019,-0.000029,0.000017,-0.000022,  31.590
   394.0,-0.000016,-0.000022,-0.000063,-0.000074,  31.588
   395.0,-0.000012,-0.000014,-0.000117,-0.000074,  31.597
   396.0,-0.000007,-0.000023,0.000000,-0.000025,  31.601
   397.0,-0.000011,-0.000024,0.000008,-0.000074,  31.601
   398.0,-0.000003,-0.000009,-0.000215,-0.000022,  31.607
   399.0,-0.000027,-0.000011,-0.000196,-0.000036,  31.608
   400.0,0.000010,0.000004,-0.000241,-0.000036,  31.608
   401.0,0.000000,0.000012,-0.000052,-0.000022,  31.607
   402.0,0.000030,0.000020,0.000280,-0.000060,  31.605
   403.0,0.000041,0.000030,0.000559,-0.000046,  31.597
   404.0,0.000062,0.000050,0.000982,-0.000060,  31.596
   405.0,0.000081,0.000056,0.001560,-0.000099,  31.598
   406.0,0.000091,0.000071,0.001889,-0.000099,  31.593
   407.0,0.000131,0.000078,0.002955,-0.000060,  31.587
   408.0,0.000168,0.000115,0.003755,0.000003,  31.587
   409.0,0.000212,0.000151,0.004755,-0.000060,  31.579
   410.0,0.000273,0.000182,0.005930,-0.000036,  31.580
   411.0,0.000339,0.000234,0.007437,-0.000046,  31.580
   412.0,0.000444,0.000282,0.009153,-0.000060,  31.579
   413.0,0.000531,0.000356,0.010682,-0.000022,  31.578
   414.0,0.000663,0.000444,0.012957,-0.000022,  31.581
   415.0,0.000794,0.000508,0.015301,-0.000050,  31.574
   416.0,0.000967,0.000615,0.017948,-0.000074,  31.580
   417.0,0.001180,0.000725,0.021292,-0.000060,  31.580
   418.0,0.001353,0.000878,0.024776,-0.000050,  31.575
   419.0,0.001611,0.001048,0.028846,-0.000060,  31.572
   420.0,0.001893,0.001243,0.033314,-0.000050,  31.570
   421.0,0.002207,0.001468,0.038429,-0.000074,  31.568
   422.0,0.002572,0.001725,0.042868,-0.000074,  31.567
   423.0,0.002956,0.001971,0.048710,-0.000127,  31.566
   424.0,0.003366,0.002222,0.055234,-0.000127,  31.563
   425.0,0.003816,0.002533,0.062284,-0.000113,  31.562
   426.0,0.004317,0.002887,0.070045,-0.000099,  31.564
   427.0,0.004761,0.003257,0.078098,-0.000099,  31.560
   428.0,0.005288,0.003673,0.086760,-0.000071,  31.559
   429.0,0.005866,0.004109,0.096130,-0.000099,  31.558
   430.0,0.006498,0.004575,0.105951,-0.000085,  31.556
   431.0,0.007139,0.005074,0.114483,-0.000085,  31.550
   432.0,0.007819,0.005581,0.124133,-0.000085,  31.548
   433.0,0.008509,0.006010,0.135128,-0.000085,  31.543
   434.0,0.009224,0.006582,0.146360,-0.000096,  31.536
   435.0,0.009915,0.007147,0.157844,-0.000085,  31.527
   436.0,0.010610,0.007730,0.169499,-0.000085,  31.502
   437.0,0.011269,0.008362,0.181635,-0.000071,  31.483
   438.0,0.012052,0.009005,0.193955,-0.000085,  31.454
   439.0,0.012816,0.009646,0.204111,-0.000085,  31.431
   440.0,0.013584,0.010300,0.215653,-0.000099,  31.409
   441.0,0.014329,0.010855,0.227906,-0.000099,  31.384
   442.0,0.015080,0.011449,0.239844,-0.000060,  31.358
   443.0,0.015817,0.012095,0.251465,-0.000085,  31.333
   444.0,0.016533,0.012726,0.263154,-0.000046,  31.301
   445.0,0.017087,0.013364,0.274271,-0.000032,  31.277
   446.0,0.017781,0.013998,0.285448,-0.000018,  31.252
   447.0,0.018431,0.014588,0.295972,-0.000005,  31.216
   448.0,0.019039,0.015158,0.305501,-0.000029,  31.172
   449.0,0.019642,0.015705,0.314146,0.000037,  31.127
   450.0,0.020222,0.016138,0.324103,0.000023,  31.085
   451.0,0.020749,0.016652,0.332820,-0.000001,  31.031
   452.0,0.021280,0.017137,0.341367,0.000065,  30.981
   453.0,0.021736,0.017587,0.350041,0.000104,  30.930
   454.0,0.022099,0.017994,0.358078,0.000068,  30.870
   455.0,0.022512,0.018363,0.365399,0.000107,  30.798
   456.0,0.022867,0.018689,0.372506,0.000135,  30.727
   457.0,0.023189,0.018984,0.377636,0.000149,  30.638
   458.0,0.023503,0.019255,0.384034,0.000177,  30.559
   459.0,0.023751,0.019407,0.390057,0.000293,  30.457
   460.0,0.023932,0.019551,0.396330,0.000268,  30.349
   461.0,0.024126,0.019682,0.401736,0.000293,  30.235
   462.0,0.024265,0.019767,0.406789,0.000265,  30.132
   463.0,0.024397,0.019807,0.411157,0.000227,  30.020
   464.0,0.024564,0.019823,0.416160,0.000185,  29.900
   465.0,0.024696,0.019808,0.420937,0.000157,  29.776
   466.0,0.024847,0.019783,0.424626,0.000104,  29.656
   467.0,0.024998,0.019754,0.429574,0.000140,  29.516
   468.0,0.025191,0.019717,0.435227,0.000034,  29.369
   469.0,0.025452,0.019696,0.441332,0.000020,  29.217
   470.0,0.025720,0.019695,0.449001,0.000056,  29.066
   471.0,0.026075,0.019726,0.457572,0.000017,  28.899
   472.0,0.026508,0.019758,0.467356,-0.000022,  28.726
   473.0,0.026998,0.019850,0.478438,-0.000050,  28.553
   474.0,0.027596,0.019989,0.489032,-0.000088,  28.392
   475.0,0.028249,0.020159,0.503358,-0.000050,  28.242
   476.0,0.028989,0.020324,0.519430,0.000003,  28.109
   477.0,0.029786,0.020539,0.536993,-0.000036,  27.997
   478.0,0.030639,0.020829,0.555617,-0.000008,  27.912
   479.0,0.031430,0.021099,0.574737,0.000006,  27.856
   480.0,0.032224,0.021427,0.594360,0.000020,  27.842
   481.0,0.033142,0.021750,0.614546,0.000034,  27.856
   482.0,0.034045,0.022066,0.635587,0.000059,  27.907
   483.0,0.034982,0.022423,0.652080,0.000048,  27.999
   484.0,0.035932,0.022742,0.673702,0.000101,  28.123
   485.0,0.036858,0.023065,0.694463,0.000076,  28.281
   486.0,0.037758,0.023412,0.715167,0.000104,  28.450
   487.0,0.038602,0.023720,0.733850,0.000168,  28.652
   488.0,0.039288,0.024035,0.752894,0.000115,  28.873
   489.0,0.040193,0.024389,0.772453,0.000143,  29.102
   490.0,0.041043,0.024716,0.790664,0.000143,  29.344
   491.0,0.041849,0.025031,0.808838,0.000157,  29.601
   492.0,0.042646,0.025337,0.822408,0.000157,  29.853
   493.0,0.043395,0.025630,0.838528,0.000157,  30.101
   494.0,0.044166,0.025878,0.855540,0.000079,  30.337
   495.0,0.044884,0.026184,0.871689,0.000118,  30.574
   496.0,0.045568,0.026443,0.886972,0.000118,  30.795
   497.0,0.046130,0.026704,0.901221,0.000143,  31.000
   498.0,0.046750,0.026942,0.915286,0.000157,  31.196
   499.0,0.047351,0.027170,0.927628,0.000157,  31.389
   500.0,0.047960,0.027407,0.939418,0.000171,  31.557
   501.0,0.048526,0.027639,0.949078,0.000171,  31.714
   502.0,0.049052,0.027827,0.960426,0.000171,  31.856
   503.0,0.049503,0.027956,0.969590,0.000157,  31.989
   504.0,0.049931,0.028115,0.978752,0.000171,  32.114
   505.0,0.050334,0.028272,0.987216,0.000185,  32.222
   506.0,0.050693,0.028409,0.994791,0.000185,  32.327
   507.0,0.051023,0.028547,1.001985,0.000237,  32.424
   508.0,0.051328,0.028643,1.008363,0.000213,  32.499
   509.0,0.051600,0.028739,1.013737,0.000199,  32.574
   510.0,0.051852,0.028802,1.017855,0.000174,  32.641
   511.0,0.052067,0.028853,1.022380,0.000188,  32.692
   512.0,0.052270,0.028925,1.026408,0.000174,  32.741
   513.0,0.052469,0.028976,1.030802,0.000174,  32.777
   514.0,0.052605,0.029015,1.034063,0.000188,  32.810
   515.0,0.052708,0.029015,1.036779,0.000160,  32.838
   516.0,0.052812,0.029039,1.039109,0.000121,  32.859
   517.0,0.052882,0.029046,1.040688,0.000160,  32.861
   518.0,0.052973,0.029064,1.042122,0.000160,  32.873
   519.0,0.053036,0.029055,1.043106,0.000160,  32.879
   520.0,0.053036,0.029019,1.043921,0.000093,  32.879
   521.0,0.053065,0.028988,1.044519,0.000068,  32.872
   522.0,0.053082,0.028976,1.044937,0.000209,  32.871
   523.0,0.053086,0.028945,1.044927,0.000160,  32.853
   524.0,0.053086,0.028911,1.044139,0.000174,  32.858
   525.0,0.053061,0.028895,1.043921,0.000199,  32.842
   526.0,0.053045,0.028855,1.043144,0.000185,  32.829
   527.0,0.052991,0.028809,1.042141,0.000213,  32.810
   528.0,0.052916,0.028750,1.041376,0.000199,  32.799
   529.0,0.052838,0.028701,1.039795,0.000213,  32.783
   530.0,0.052759,0.028649,1.038032,0.000209,  32.775
   531.0,0.052672,0.028573,1.036649,0.000251,  32.754
   532.0,0.052548,0.028484,1.034648,0.000237,  32.738
   533.0,0.052453,0.028407,1.032314,0.000227,  32.725
   534.0,0.052320,0.028315,1.029616,0.000251,  32.706
   535.0,0.052171,0.028233,1.026772,0.000199,  32.681
   536.0,0.052035,0.028138,1.023728,0.000251,  32.670
   537.0,0.051890,0.028031,1.021651,0.000213,  32.652
   538.0,0.051717,0.027928,1.018071,0.000227,  32.630
   539.0,0.051560,0.027847,1.014380,0.000213,  32.615
   540.0,0.051366,0.027741,1.011153,0.000241,  32.598
   541.0,0.051180,0.027628,1.007436,0.000254,  32.581
   542.0,0.051019,0.027523,1.003788,0.000241,  32.565
   543.0,0.050809,0.027417,0.999659,0.000227,  32.542
   544.0,0.050578,0.027289,0.994847,0.000227,  32.525
   545.0,0.050377,0.027164,0.990960,0.000241,  32.504
   546.0,0.050138,0.027035,0.987098,0.000268,  32.480
   547.0,0.049899,0.026904,0.982059,0.000307,  32.464
   548.0,0.049653,0.026789,0.976945,0.000318,  32.446
   549.0,0.049390,0.026637,0.971516,0.000318,  32.416
   550.0,0.049110,0.026481,0.966607,0.000279,  32.401
   551.0,0.048880,0.026335,0.961460,0.000241,  32.381
   552.0,0.048622,0.026195,0.955904,0.000254,  32.358
   553.0,0.048347,0.026049,0.950550,0.000254,  32.343
   554.0,0.048052,0.025890,0.944664,0.000268,  32.328
   555.0,0.047745,0.025732,0.939954,0.000307,  32.306
   556.0,0.047459,0.025577,0.933573,0.000268,  32.289
   557.0,0.047148,0.025440,0.927875,0.000307,  32.277
   558.0,0.046841,0.025285,0.921367,0.000318,  32.260
   559.0,0.046572,0.025100,0.915131,0.000318,  32.249
   560.0,0.046266,0.024915,0.908909,0.000318,  32.236
   561.0,0.045956,0.024736,0.902418,0.000279,  32.230
   562.0,0.045618,0.024566,0.895975,0.000268,  32.205
   563.0,0.045300,0.024405,0.890754,0.000216,  32.197
   564.0,0.044979,0.024234,0.884195,0.000279,  32.186
   565.0,0.044645,0.024079,0.877508,0.000254,  32.172
   566.0,0.044320,0.023902,0.870197,0.000268,  32.156
   567.0,0.043980,0.023732,0.863535,0.000268,  32.145
   568.0,0.043676,0.023561,0.856309,0.000268,  32.132
   569.0,0.043417,0.023383,0.849727,0.000293,  32.116
   570.0,0.043064,0.023203,0.843223,0.000282,  32.108
   571.0,0.042724,0.023030,0.837355,0.000282,  32.091
   572.0,0.042380,0.022846,0.830956,0.000282,  32.085
   573.0,0.042037,0.022689,0.823928,0.000282,  32.073
   574.0,0.041681,0.022516,0.816605,0.000268,  32.062
   575.0,0.041346,0.022333,0.809048,0.000268,  32.051
   576.0,0.040995,0.022147,0.801005,0.000230,  32.036
   577.0,0.040729,0.021954,0.794901,0.000254,  32.026
   578.0,0.040383,0.021786,0.788373,0.000268,  32.015
   579.0,0.040029,0.021604,0.781423,0.000318,  32.009
   580.0,0.039683,0.021429,0.774825,0.000268,  31.999
   581.0,0.039337,0.021242,0.768477,0.000282,  31.988
   582.0,0.038988,0.021088,0.761154,0.000268,  31.978
   583.0,0.038631,0.020904,0.754109,0.000268,  31.967
   584.0,0.038294,0.020722,0.746122,0.000258,  31.958
   585.0,0.037963,0.020534,0.739268,0.000244,  31.952
   586.0,0.037671,0.020352,0.732167,0.000230,  31.934
   587.0,0.037322,0.020182,0.724757,0.000230,  31.929
   588.0,0.036975,0.019999,0.717397,0.000244,  31.917
   589.0,0.036620,0.019810,0.710976,0.000307,  31.912
   590.0,0.036273,0.019644,0.704242,0.000293,  31.903
   591.0,0.035926,0.019473,0.697065,0.000268,  31.900
   592.0,0.035567,0.019298,0.689609,0.000230,  31.893
   593.0,0.035254,0.019135,0.679713,0.000241,  31.885
   594.0,0.034943,0.018952,0.674136,0.000268,  31.883
   595.0,0.034633,0.018767,0.667257,0.000230,  31.876
   596.0,0.034288,0.018593,0.660091,0.000230,  31.874
   597.0,0.033930,0.018419,0.652603,0.000244,  31.871
   598.0,0.033586,0.018222,0.646117,0.000254,  31.869
   599.0,0.033265,0.018061,0.639514,0.000254,  31.861
   600.0,0.032929,0.017924,0.632283,0.000254,  31.860
   601.0,0.032601,0.017770,0.625380,0.000254,  31.857
   602.0,0.032253,0.017589,0.618108,0.000216,  31.853
   603.0,0.031933,0.017398,0.610406,0.000293,  31.850
   604.0,0.031645,0.017221,0.603547,0.000265,  31.849
   605.0,0.031314,0.017057,0.596213,0.000241,  31.845
   606.0,0.030991,0.016881,0.589025,0.000241,  31.843
   607.0,0.030672,0.016713,0.583589,0.000241,  31.839
   608.0,0.030342,0.016554,0.576343,0.000254,  31.836
   609.0,0.030011,0.016404,0.569092,0.000265,  31.830
   610.0,0.029697,0.016245,0.562044,0.000202,  31.826
   611.0,0.029399,0.016085,0.555092,0.000254,  31.823
   612.0,0.029093,0.015935,0.548230,0.000251,  31.812
   613.0,0.028838,0.015765,0.540871,0.000241,  31.816
   614.0,0.028512,0.015612,0.534359,0.000241,  31.811
   615.0,0.028224,0.015468,0.527582,0.000227,  31.805
   616.0,0.027926,0.015320,0.522377,0.000254,  31.802
   617.0,0.027657,0.015208,0.516000,0.000279,  31.799
   618.0,0.027384,0.015087,0.509376,0.000268,  31.798
   619.0,0.027115,0.014954,0.503080,0.000230,  31.796
   620.0,0.026829,0.014806,0.496677,0.000230,  31.795
   621.0,0.026609,0.014676,0.490210,0.000230,  31.792
   622.0,0.026334,0.014517,0.483875,0.000307,  31.789
   623.0,0.026070,0.014380,0.477881,0.000254,  31.785
   624.0,0.025785,0.014228,0.471803,0.000241,  31.786
   625.0,0.025528,0.014097,0.466957,0.000241,  31.782
   626.0,0.025281,0.013993,0.460492,0.000268,  31.780
   627.0,0.025016,0.013857,0.454681,0.000254,  31.783
   628.0,0.024756,0.013718,0.448690,0.000241,  31.781
   629.0,0.024511,0.013591,0.443033,0.000191,  31.779
   630.0,0.024321,0.013458,0.437519,0.000268,  31.774
   631.0,0.024064,0.013357,0.431788,0.000251,  31.767
   632.0,0.023839,0.013247,0.426266,0.000227,  31.760
   633.0,0.023611,0.013131,0.420709,0.000251,  31.747
   634.0,0.023391,0.013013,0.416555,0.000241,  31.736
   635.0,0.023169,0.012908,0.410926,0.000216,  31.736
   636.0,0.022957,0.012823,0.405918,0.000202,  31.729
   637.0,0.022761,0.012713,0.400515,0.000216,  31.729
   638.0,0.022556,0.012622,0.395339,0.000230,  31.725
   639.0,0.022403,0.012537,0.390164,0.000216,  31.723
   640.0,0.022193,0.012426,0.385378,0.000230,  31.722
   641.0,0.021989,0.012326,0.380475,0.000216,  31.720
   642.0,0.021805,0.012222,0.375940,0.000216,  31.720
   643.0,0.021611,0.012130,0.371672,0.000293,  31.719
   644.0,0.021409,0.012035,0.366953,0.000254,  31.721
   645.0,0.021233,0.011951,0.362334,0.000268,  31.718
   646.0,0.021043,0.011857,0.357778,0.000230,  31.710
   647.0,0.020894,0.011775,0.353103,0.000265,  31.708
   648.0,0.020760,0.011694,0.348528,0.000241,  31.702
   649.0,0.020579,0.011607,0.344060,0.000177,  31.697
   650.0,0.020433,0.011543,0.340006,0.000216,  31.690
   651.0,0.020263,0.011448,0.335940,0.000254,  31.689
   652.0,0.020101,0.011374,0.332597,0.000227,  31.688
   653.0,0.019964,0.011318,0.328454,0.000202,  31.682
   654.0,0.019806,0.011245,0.324550,0.000293,  31.681
   655.0,0.019668,0.011184,0.320501,0.000241,  31.681
   656.0,0.019550,0.011119,0.316714,0.000241,  31.686
   657.0,0.019460,0.011057,0.313235,0.000254,  31.684
   658.0,0.019321,0.010996,0.309155,0.000227,  31.686
   659.0,0.019186,0.010928,0.305202,0.000227,  31.688
   660.0,0.019047,0.010869,0.302060,0.000227,  31.687
   661.0,0.018925,0.010815,0.298877,0.000163,  31.691
   662.0,0.018826,0.010766,0.295441,0.000216,  31.693
   663.0,0.018702,0.010730,0.292122,0.000202,  31.691
   664.0,0.018595,0.010681,0.288818,0.000202,  31.690
   665.0,0.018491,0.010629,0.285524,0.000216,  31.691
   666.0,0.018416,0.010574,0.282430,0.000202,  31.690
   667.0,0.018323,0.010536,0.279134,0.000265,  31.687
   668.0,0.018218,0.010486,0.276132,0.000213,  31.691
   669.0,0.018143,0.010462,0.273343,0.000227,  31.690
   670.0,0.018055,0.010426,0.270913,0.000227,  31.688
   671.0,0.017990,0.010395,0.268100,0.000188,  31.686
   672.0,0.017907,0.010355,0.265428,0.000227,  31.685
   673.0,0.017817,0.010317,0.262448,0.000188,  31.682
   674.0,0.017773,0.010294,0.259797,0.000149,  31.681
   675.0,0.017720,0.010275,0.257198,0.000124,  31.685
   676.0,0.017626,0.010232,0.254377,0.000149,  31.684
   677.0,0.017561,0.010214,0.252233,0.000213,  31.682
   678.0,0.017500,0.010193,0.250104,0.000199,  31.677
   679.0,0.017451,0.010159,0.247786,0.000174,  31.683
   680.0,0.017414,0.010145,0.245336,0.000174,  31.677
   681.0,0.017352,0.010120,0.243097,0.000188,  31.676
   682.0,0.017303,0.010099,0.241122,0.000185,  31.672
   683.0,0.017285,0.010098,0.238931,0.000199,  31.672
   684.0,0.017226,0.010082,0.236823,0.000199,  31.667
   685.0,0.017179,0.010059,0.234673,0.000174,  31.667
   686.0,0.017141,0.010065,0.232654,0.000188,  31.660
   687.0,0.017123,0.010059,0.231036,0.000160,  31.660
   688.0,0.017096,0.010059,0.229194,0.000174,  31.656
   689.0,0.017069,0.010045,0.227499,0.000213,  31.655
   690.0,0.017046,0.010043,0.225452,0.000160,  31.651
   691.0,0.017035,0.010049,0.223713,0.000199,  31.643
   692.0,0.017037,0.010056,0.218720,0.000107,  31.644
   693.0,0.017028,0.010062,0.219135,0.000174,  31.640
   694.0,0.017024,0.010066,0.218456,0.000188,  31.638
   695.0,0.017020,0.010061,0.217297,0.000160,  31.634
   696.0,0.016994,0.010062,0.215705,0.000174,  31.636
   697.0,0.016986,0.010075,0.214300,0.000188,  31.627
   698.0,0.016990,0.010091,0.212827,0.000188,  31.621
   699.0,0.017009,0.010112,0.211752,0.000202,  31.623
   700.0,0.017021,0.010115,0.210493,0.000241,  31.621
   701.0,0.017021,0.010129,0.209443,0.000227,  31.614
   702.0,0.017013,0.010150,0.207966,0.000202,  31.620
   703.0,0.017036,0.010168,0.206913,0.000188,  31.617
   704.0,0.017051,0.010176,0.205987,0.000163,  31.613
   705.0,0.017070,0.010188,0.205091,0.000149,  31.607
   706.0,0.017068,0.010204,0.203976,0.000199,  31.607
   707.0,0.017104,0.010235,0.202921,0.000213,  31.602
   708.0,0.017087,0.010251,0.201831,0.000199,  31.600
   709.0,0.017111,0.010262,0.200772,0.000213,  31.602
   710.0,0.017138,0.010282,0.200459,0.000213,  31.601
   711.0,0.017185,0.010307,0.199279,0.000199,  31.597
   712.0,0.017204,0.010313,0.198368,0.000171,  31.594
   713.0,0.017215,0.010344,0.197639,0.000146,  31.594
   714.0,0.017238,0.010354,0.195055,0.000160,  31.593
   715.0,0.017288,0.010383,0.195459,0.000174,  31.589
   716.0,0.017340,0.010421,0.195092,0.000160,  31.589
   717.0,0.017390,0.010471,0.194331,0.000160,  31.593
   718.0,0.017416,0.010498,0.193712,0.000185,  31.590
   719.0,0.017479,0.010544,0.193318,0.000185,  31.591
   720.0,0.017513,0.010567,0.192840,0.000157,  31.595
   721.0,0.017566,0.010597,0.192354,0.000199,  31.594
   722.0,0.017610,0.010647,0.192018,0.000174,  31.594
   723.0,0.017668,0.010693,0.191597,0.000188,  31.602
   724.0,0.017718,0.010704,0.191187,0.000241,  31.594
   725.0,0.017772,0.010743,0.190582,0.000223,  31.600
   726.0,0.017825,0.010775,0.190033,0.000185,  31.597
   727.0,0.017875,0.010831,0.189653,0.000160,  31.601
   728.0,0.017944,0.010873,0.189467,0.000146,  31.597
   729.0,0.017985,0.010919,0.189216,0.000174,  31.604
   730.0,0.018051,0.010961,0.188596,0.000160,  31.600
   731.0,0.018132,0.011022,0.188716,0.000174,  31.604
   732.0,0.018174,0.011071,0.188364,0.000185,  31.607
   733.0,0.018243,0.011104,0.188308,0.000160,  31.601
   734.0,0.018307,0.011151,0.188104,0.000251,  31.600
   735.0,0.018387,0.011194,0.188048,0.000149,  31.605
   736.0,0.018444,0.011250,0.187938,0.000174,  31.607
   737.0,0.018502,0.011297,0.187698,0.000202,  31.605
   738.0,0.018584,0.011332,0.187826,0.000174,  31.604
   739.0,0.018663,0.011371,0.187595,0.000149,  31.601
   740.0,0.018735,0.011417,0.187466,0.000163,  31.603
   741.0,0.018812,0.011468,0.187678,0.000174,  31.601
   742.0,0.018868,0.011512,0.187770,0.000174,  31.604
   743.0,0.018956,0.011565,0.187816,0.000227,  31.603
   744.0,0.019014,0.011623,0.187512,0.000188,  31.607
   745.0,0.019084,0.011670,0.187558,0.000227,  31.609
   746.0,0.019161,0.011733,0.187614,0.000135,  31.606
   747.0,0.019241,0.011778,0.187845,0.000213,  31.604
   748.0,0.019322,0.011829,0.188094,0.000185,  31.605
   749.0,0.019394,0.011870,0.188076,0.000185,  31.602
   750.0,0.019471,0.011912,0.188159,0.000185,  31.604
   751.0,0.019555,0.011956,0.187892,0.000146,  31.601
   752.0,0.019644,0.012017,0.188253,0.000160,  31.595
   753.0,0.019700,0.012060,0.188428,0.000199,  31.599
   754.0,0.019777,0.012130,0.188696,0.000171,  31.593
   755.0,0.019873,0.012188,0.189067,0.000146,  31.595
   756.0,0.019946,0.012234,0.188947,0.000160,  31.591
   757.0,0.020035,0.012298,0.189456,0.000160,  31.588
   758.0,0.020127,0.012358,0.189836,0.000174,  31.594
   759.0,0.020238,0.012424,0.189912,0.000188,  31.593
   760.0,0.020339,0.012469,0.190302,0.000185,  31.592
   761.0,0.020399,0.012521,0.190526,0.000185,  31.588
   762.0,0.020472,0.012573,0.190721,0.000185,  31.589
   763.0,0.020580,0.012652,0.191038,0.000199,  31.587
   764.0,0.020684,0.012737,0.191169,0.000185,  31.588
   765.0,0.020809,0.012803,0.191710,0.000160,  31.590
   766.0,0.020894,0.012856,0.191971,0.000174,  31.597
   767.0,0.020978,0.012920,0.192196,0.000227,  31.593
   768.0,0.021050,0.012963,0.192607,0.000160,  31.590
   769.0,0.021116,0.013014,0.192888,0.000174,  31.593
   770.0,0.021213,0.013069,0.193449,0.000188,  31.592
   771.0,0.021309,0.013138,0.193927,0.000174,  31.587
   772.0,0.021418,0.013193,0.194359,0.000188,  31.583
   773.0,0.021522,0.013259,0.194490,0.000185,  31.582
   774.0,0.021603,0.013313,0.194810,0.000107,  31.582
   775.0,0.021700,0.013371,0.195120,0.000146,  31.581
   776.0,0.021795,0.013450,0.195817,0.000160,  31.573
   777.0,0.021892,0.013509,0.196212,0.000223,  31.574
   778.0,0.021950,0.013557,0.196392,0.000171,  31.574
   779.0,0.022045,0.013620,0.196939,0.000146,  31.576
   780.0,0.022130,0.013673,0.196939,0.000188,  31.579
   781.0,0.022230,0.013732,0.197856,0.000174,  31.584
   782.0,0.022328,0.013795,0.198055,0.000174,  31.580
   783.0,0.022427,0.013853,0.198823,0.000160,  31.585
   784.0,0.022552,0.013907,0.199145,0.000160,  31.591
   785.0,0.022629,0.013958,0.199801,0.000199,  31.602
   786.0,0.022694,0.014009,0.200000,0.000171,  31.604
   787.0,0.022798,0.014089,0.200715,0.000209,  31.608
   788.0,0.022899,0.014156,0.201296,0.000185,  31.620
   789.0,0.022988,0.014220,0.201688,0.000160,  31.630
   790.0,0.023077,0.014270,0.202089,0.000223,  31.638
   791.0,0.023185,0.014329,0.202663,0.000121,  31.644
   792.0,0.023250,0.014372,0.203065,0.000160,  31.648
   793.0,0.023338,0.014412,0.203419,0.000223,  31.653
   794.0,0.023415,0.014486,0.204072,0.000185,  31.656
   795.0,0.023509,0.014547,0.204601,0.000160,  31.656
   796.0,0.023601,0.014607,0.205227,0.000199,  31.657
   797.0,0.023706,0.014671,0.205736,0.000160,  31.661
   798.0,0.023804,0.014736,0.206073,0.000199,  31.660
   799.0,0.023901,0.014788,0.206449,0.000171,  31.659
   800.0,0.024002,0.014837,0.206951,0.000181,  31.663
   801.0,0.024083,0.014909,0.207600,0.000199,  31.660
   802.0,0.024176,0.014975,0.208064,0.000185,  31.656
   803.0,0.024273,0.015043,0.208802,0.000199,  31.658
   804.0,0.024327,0.015093,0.209015,0.000135,  31.656
   805.0,0.024424,0.015149,0.209667,0.000174,  31.652
   806.0,0.024518,0.015218,0.210506,0.000213,  31.653
   807.0,0.024581,0.015260,0.210993,0.000199,  31.650
   808.0,0.024695,0.015306,0.211511,0.000146,  31.647
   809.0,0.024769,0.015336,0.211922,0.000223,  31.646
   810.0,0.024839,0.015362,0.212185,0.000185,  31.647
   811.0,0.024924,0.015411,0.212744,0.000209,  31.648
   812.0,0.024989,0.015464,0.212937,0.000171,  31.649
   813.0,0.025079,0.015529,0.213724,0.000171,  31.647
   814.0,0.025157,0.015591,0.213978,0.000185,  31.645
   815.0,0.025258,0.015657,0.214212,0.000185,  31.643
   816.0,0.025365,0.015705,0.214645,0.000199,  31.644
   817.0,0.025450,0.015758,0.215335,0.000213,  31.647
   818.0,0.025535,0.015812,0.216097,0.000199,  31.645
   819.0,0.025616,0.015877,0.216769,0.000223,  31.645
   820.0,0.025702,0.015929,0.217183,0.000199,  31.645
   821.0,0.025773,0.015981,0.217497,0.000199,  31.644
   822.0,0.025830,0.016037,0.218054,0.000160,  31.645
   823.0,0.025916,0.016086,0.218499,0.000237,  31.646
   824.0,0.026002,0.016139,0.219046,0.000209,  31.644
   825.0,0.026068,0.016184,0.219404,0.000185,  31.640
   826.0,0.026134,0.016217,0.216580,0.000185,  31.637
   827.0,0.026216,0.016266,0.219053,0.000223,  31.634
   828.0,0.026283,0.016313,0.220215,0.000199,  31.627
   829.0,0.026364,0.016355,0.221047,0.000199,  31.628
   830.0,0.026420,0.016404,0.221862,0.000146,  31.622
   831.0,0.026489,0.016443,0.222342,0.000132,  31.621
   832.0,0.026559,0.016475,0.222397,0.000195,  31.620
   833.0,0.026630,0.016527,0.222728,0.000132,  31.622
   834.0,0.026700,0.016566,0.222664,0.000132,  31.618
   835.0,0.026782,0.016607,0.223217,0.000160,  31.621
   836.0,0.026860,0.016658,0.223902,0.000174,  31.621
   837.0,0.026930,0.016711,0.224447,0.000160,  31.617
   838.0,0.026984,0.016759,0.224951,0.000199,  31.615
   839.0,0.027063,0.016800,0.225416,0.000135,  31.619
   840.0,0.027088,0.016835,0.225798,0.000160,  31.613
   841.0,0.027176,0.016876,0.226264,0.000160,  31.616
   842.0,0.027238,0.016924,0.226514,0.000188,  31.620
   843.0,0.027284,0.016955,0.226654,0.000174,  31.619
   844.0,0.027359,0.016976,0.227070,0.000174,  31.616
   845.0,0.027421,0.017018,0.227455,0.000160,  31.610
   846.0,0.027468,0.017053,0.227934,0.000171,  31.613
   847.0,0.027514,0.017083,0.228169,0.000185,  31.618
   848.0,0.027565,0.017117,0.228595,0.000171,  31.615
   849.0,0.027633,0.017148,0.228879,0.000181,  31.613
   850.0,0.027667,0.017178,0.229121,0.000143,  31.612
   851.0,0.027741,0.017226,0.229508,0.000171,  31.612
   852.0,0.027796,0.017259,0.229772,0.000107,  31.614
   853.0,0.027850,0.017288,0.230120,0.000209,  31.612
   854.0,0.027905,0.017328,0.230475,0.000157,  31.614
   855.0,0.027947,0.017346,0.230781,0.000107,  31.612
   856.0,0.028009,0.017374,0.231097,0.000146,  31.616
   857.0,0.028052,0.017411,0.231446,0.000132,  31.623
   858.0,0.028091,0.017436,0.231744,0.000146,  31.619
   859.0,0.028146,0.017461,0.232041,0.000132,  31.623
   860.0,0.028210,0.017482,0.232183,0.000146,  31.622
   861.0,0.028264,0.017532,0.232659,0.000185,  31.623
   862.0,0.028319,0.017555,0.232985,0.000171,  31.625
   863.0,0.028362,0.017592,0.233357,0.000146,  31.622
   864.0,0.028421,0.017627,0.233540,0.000146,  31.622
   865.0,0.028463,0.017657,0.234015,0.000146,  31.620
   866.0,0.028514,0.017701,0.234492,0.000068,  31.621
   867.0,0.028556,0.017732,0.234842,0.000107,  31.624
   868.0,0.028615,0.017777,0.234982,0.000121,  31.616
   869.0,0.028691,0.017812,0.235406,0.000107,  31.612
   870.0,0.028730,0.017839,0.235561,0.000132,  31.606
   871.0,0.028773,0.017875,0.235861,0.000171,  31.603
   872.0,0.028815,0.017898,0.236391,0.000132,  31.606
   873.0,0.028854,0.017921,0.236689,0.000171,  31.606
   874.0,0.028905,0.017948,0.236876,0.000107,  31.603
   875.0,0.028953,0.017991,0.237184,0.000146,  31.605
   876.0,0.028997,0.018004,0.237464,0.000121,  31.603
   877.0,0.029043,0.018045,0.237756,0.000121,  31.605
   878.0,0.029090,0.018081,0.238077,0.000121,  31.601
   879.0,0.029133,0.018102,0.238062,0.000096,  31.600
   880.0,0.029180,0.018124,0.238215,0.000149,  31.598
   881.0,0.029216,0.018146,0.238635,0.000135,  31.602
   882.0,0.029242,0.018168,0.238906,0.000110,  31.602
   883.0,0.029285,0.018202,0.239166,0.000163,  31.604
   884.0,0.029313,0.018215,0.239647,0.000160,  31.609
   885.0,0.029343,0.018257,0.239834,0.000174,  31.609
   886.0,0.029371,0.018279,0.239938,0.000135,  31.615
   887.0,0.029436,0.018306,0.240307,0.000096,  31.614
   888.0,0.029471,0.018322,0.240173,0.000149,  31.613
   889.0,0.029490,0.018326,0.240392,0.000135,  31.616
   890.0,0.029525,0.018359,0.240611,0.000096,  31.616
   891.0,0.029573,0.018372,0.240852,0.000135,  31.622
   892.0,0.029608,0.018398,0.241241,0.000174,  31.623
   893.0,0.029647,0.018434,0.241580,0.000188,  31.626
   894.0,0.029687,0.018456,0.241888,0.000237,  31.636
   895.0,0.029719,0.018490,0.241904,0.000199,  31.638
   896.0,0.029734,0.018505,0.242070,0.000185,  31.643
   897.0,0.029746,0.018521,0.242294,0.000174,  31.647
   898.0,0.029773,0.018527,0.242407,0.000110,  31.645
   899.0,0.029801,0.018539,0.242404,0.000202,  31.649
   900.0,0.029825,0.018556,0.242347,0.000188,  31.651
   901.0,0.029848,0.018585,0.242523,0.000202,  31.653
   902.0,0.029864,0.018597,0.242876,0.000202,  31.656
   903.0,0.029876,0.018596,0.242961,0.000188,  31.656
   904.0,0.029899,0.018596,0.243024,0.000188,  31.652
   905.0,0.029899,0.018605,0.243119,0.000174,  31.655
   906.0,0.029911,0.018614,0.242964,0.000188,  31.652
   907.0,0.029931,0.018623,0.243169,0.000227,  31.654
   908.0,0.029939,0.018613,0.243049,0.000174,  31.655
   909.0,0.029951,0.018636,0.243027,0.000202,  31.656
   910.0,0.029962,0.018648,0.243178,0.000202,  31.654
   911.0,0.029974,0.018643,0.243447,0.000149,  31.658
   912.0,0.029973,0.018657,0.243522,0.000149,  31.658
   913.0,0.029993,0.018665,0.243424,0.000174,  31.666
   914.0,0.029989,0.018671,0.243380,0.000202,  31.671
   915.0,0.030001,0.018666,0.243317,0.000163,  31.673
   916.0,0.030025,0.018679,0.243563,0.000174,  31.675
   917.0,0.030037,0.018689,0.243488,0.000188,  31.673
   918.0,0.030041,0.018707,0.243497,0.000163,  31.673
   919.0,0.030041,0.018717,0.243368,0.000149,  31.675
   920.0,0.030037,0.018719,0.243506,0.000124,  31.668
   921.0,0.030045,0.018713,0.243453,0.000163,  31.669
   922.0,0.030042,0.018707,0.243453,0.000213,  31.660
   923.0,0.030033,0.018702,0.243506,0.000199,  31.656
   924.0,0.030021,0.018692,0.243153,0.000160,  31.656
   925.0,0.030017,0.018688,0.243059,0.000251,  31.651
   926.0,0.029997,0.018674,0.243052,0.000146,  31.652
   927.0,0.029994,0.018661,0.243144,0.000185,  31.650
   928.0,0.029985,0.018668,0.242911,0.000160,  31.648
   929.0,0.029989,0.018667,0.242826,0.000135,  31.643
   930.0,0.029974,0.018662,0.242857,0.000135,  31.643
   931.0,0.029965,0.018666,0.242807,0.000163,  31.644
   932.0,0.029962,0.018650,0.242237,0.000149,  31.637
   933.0,0.029943,0.018647,0.242136,0.000149,  31.641
   934.0,0.029931,0.018632,0.242206,0.000163,  31.637
   935.0,0.029915,0.018626,0.241995,0.000149,  31.644
   936.0,0.029903,0.018611,0.241775,0.000124,  31.646
   937.0,0.029884,0.018597,0.241693,0.000188,  31.649
   938.0,0.029851,0.018589,0.241546,0.000135,  31.650
   939.0,0.029827,0.018563,0.241285,0.000149,  31.652
   940.0,0.029819,0.018558,0.241373,0.000160,  31.656
   941.0,0.029803,0.018540,0.241090,0.000237,  31.665
   942.0,0.029771,0.018524,0.241018,0.000213,  31.668
   943.0,0.029739,0.018514,0.240777,0.000160,  31.665
   944.0,0.029720,0.018501,0.240363,0.000096,  31.671
   945.0,0.029692,0.018470,0.240113,0.000149,  31.675
   946.0,0.029689,0.018467,0.239732,0.000135,  31.684
   947.0,0.029674,0.018454,0.239716,0.000135,  31.681
   948.0,0.029646,0.018427,0.239400,0.000185,  31.684
   949.0,0.029634,0.018427,0.239203,0.000160,  31.688
   950.0,0.029606,0.018418,0.236009,0.000163,  31.691
   951.0,0.029575,0.018399,0.237665,0.000149,  31.693
   952.0,0.029560,0.018392,0.238165,0.000149,  31.695
   953.0,0.029524,0.018380,0.238423,0.000135,  31.694
   954.0,0.029504,0.018376,0.238504,0.000135,  31.697
   955.0,0.029481,0.018358,0.238158,0.000096,  31.692
   956.0,0.029442,0.018330,0.237940,0.000160,  31.688
   957.0,0.029407,0.018288,0.237746,0.000149,  31.691
   958.0,0.029375,0.018267,0.237274,0.000163,  31.691
   959.0,0.029323,0.018250,0.237050,0.000110,  31.691
   960.0,0.029297,0.018214,0.236380,0.000096,  31.689
   961.0,0.029253,0.018201,0.235860,0.000121,  31.698
   962.0,0.029215,0.018157,0.235664,0.000107,  31.696
   963.0,0.029162,0.018136,0.235400,0.000118,  31.695
   964.0,0.029126,0.018109,0.235198,0.000093,  31.696
   965.0,0.029091,0.018089,0.234932,0.000068,  31.699
   966.0,0.029060,0.018073,0.234811,0.000093,  31.699
   967.0,0.029009,0.018034,0.234142,0.000118,  31.704
   968.0,0.028954,0.018010,0.233882,0.000168,  31.707
   969.0,0.028894,0.017970,0.233450,0.000104,  31.709
   970.0,0.028871,0.017939,0.233123,0.000079,  31.713
   971.0,0.028823,0.017915,0.232889,0.000054,  31.718
   972.0,0.028792,0.017887,0.232448,0.000054,  31.726
   973.0,0.028754,0.017875,0.231904,0.000093,  31.721
   974.0,0.028711,0.017852,0.231689,0.000093,  31.729
   975.0,0.028657,0.017819,0.230066,0.000143,  31.727
   976.0,0.028622,0.017798,0.230487,0.000143,  31.731
   977.0,0.028566,0.017763,0.230225,0.000104,  31.729
   978.0,0.028503,0.017729,0.229837,0.000132,  31.729
   979.0,0.028497,0.017718,0.229470,0.000107,  31.727
   980.0,0.028434,0.017680,0.229137,0.000093,  31.728
   981.0,0.028392,0.017658,0.228792,0.000107,  31.725
   982.0,0.028348,0.017632,0.228487,0.000121,  31.726
   983.0,0.028300,0.017593,0.228091,0.000132,  31.722
   984.0,0.028258,0.017574,0.227663,0.000107,  31.721
   985.0,0.028199,0.017552,0.227321,0.000107,  31.723
   986.0,0.028136,0.017526,0.226719,0.000121,  31.712
   987.0,0.028089,0.017491,0.226211,0.000096,  31.705
   988.0,0.028046,0.017463,0.226135,0.000082,  31.704
   989.0,0.027995,0.017427,0.225690,0.000082,  31.703
   990.0,0.027932,0.017395,0.225308,0.000068,  31.695
   991.0,0.027873,0.017349,0.224815,0.000068,  31.690
   992.0,0.027811,0.017297,0.224392,0.000068,  31.680
   993.0,0.027728,0.017260,0.223726,0.000093,  31.681
   994.0,0.027682,0.017229,0.223276,0.000079,  31.679
   995.0,0.027632,0.017197,0.222804,0.000118,  31.670
   996.0,0.027581,0.017155,0.222098,0.000104,  31.660
   997.0,0.027526,0.017116,0.221446,0.000157,  31.664
   998.0,0.027459,0.017090,0.221202,0.000093,  31.662
   999.0,0.027396,0.017040,0.220663,0.000079,  31.657
  1000.0,0.027335,0.017004,0.220102,0.000093,  31.657
  1001.0,0.027268,0.016957,0.219796,0.000054,  31.657
  1002.0,0.027197,0.016926,0.219329,0.000079,  31.660
  1003.0,0.027147,0.016898,0.218822,0.000090,  31.657
  1004.0,0.027064,0.016848,0.218195,0.000093,  31.660
  1005.0,0.027006,0.016804,0.217711,0.000068,  31.662
  1006.0,0.026967,0.016780,0.217214,0.000068,  31.661
  1007.0,0.026908,0.016753,0.216789,0.000132,  31.663
  1008.0,0.026859,0.016713,0.216276,0.000107,  31.669
  1009.0,0.026780,0.016675,0.215940,0.000068,  31.672
  1010.0,0.026694,0.016621,0.215130,0.000068,  31.673
  1011.0,0.026648,0.016585,0.214687,0.000068,  31.675
  1012.0,0.026590,0.016545,0.214285,0.000107,  31.676
  1013.0,0.026523,0.016515,0.213724,0.000146,  31.674
  1014.0,0.026469,0.016501,0.213284,0.000121,  31.679
  1015.0,0.026406,0.016437,0.212290,0.000107,  31.684
  1016.0,0.026333,0.016383,0.211714,0.000121,  31.683
  1017.0,0.026259,0.016334,0.211333,0.000082,  31.683
  1018.0,0.026188,0.016297,0.210816,0.000107,  31.687
  1019.0,0.026130,0.016261,0.210328,0.000096,  31.686
  1020.0,0.026068,0.016221,0.209950,0.000082,  31.690
  1021.0,0.025969,0.016187,0.209054,0.000107,  31.690
  1022.0,0.025912,0.016137,0.208638,0.000082,  31.687
  1023.0,0.025833,0.016099,0.208096,0.000082,  31.682
  1024.0,0.025796,0.016053,0.207485,0.000082,  31.686
  1025.0,0.025709,0.016008,0.206516,0.000096,  31.690
  1026.0,0.025643,0.015950,0.205511,0.000096,  31.688
  1027.0,0.025562,0.015901,0.205330,0.000068,  31.692
  1028.0,0.025468,0.015843,0.204985,0.000079,  31.692
  1029.0,0.025362,0.015787,0.204515,0.000054,  31.688
  1030.0,0.025300,0.015744,0.202190,0.000068,  31.690
  1031.0,0.025247,0.015710,0.202690,0.000082,  31.690
  1032.0,0.025160,0.015662,0.202442,0.000082,  31.688
  1033.0,0.025090,0.015628,0.202089,0.000082,  31.688
  1034.0,0.025012,0.015579,0.201267,0.000132,  31.680
  1035.0,0.024967,0.015533,0.200638,0.000160,  31.675
  1036.0,0.024897,0.015503,0.200248,0.000121,  31.671
  1037.0,0.024811,0.015448,0.199753,0.000082,  31.666
  1038.0,0.024742,0.015411,0.199345,0.000096,  31.667
  1039.0,0.024660,0.015364,0.198795,0.000082,  31.668
  1040.0,0.024575,0.015315,0.198093,0.000082,  31.663
  1041.0,0.024498,0.015260,0.197402,0.000096,  31.666
  1042.0,0.024408,0.015203,0.196316,0.000082,  31.667
  1043.0,0.024330,0.015134,0.195948,0.000107,  31.672
  1044.0,0.024232,0.015075,0.195214,0.000121,  31.669
  1045.0,0.024143,0.015011,0.194518,0.000093,  31.674
  1046.0,0.024067,0.014962,0.193908,0.000068,  31.677
  1047.0,0.023981,0.014917,0.193289,0.000068,  31.678
  1048.0,0.023903,0.014870,0.192643,0.000093,  31.680
  1049.0,0.023817,0.014834,0.192026,0.000093,  31.682
  1050.0,0.023744,0.014778,0.191364,0.000171,  31.688
  1051.0,0.023674,0.014725,0.190758,0.000118,  31.693
  1052.0,0.023577,0.014665,0.190004,0.000093,  31.698
  1053.0,0.023468,0.014590,0.189196,0.000107,  31.702
  1054.0,0.023387,0.014545,0.188631,0.000068,  31.703
  1055.0,0.023293,0.014488,0.187909,0.000065,  31.707
  1056.0,0.023221,0.014431,0.187160,0.000079,  31.716
  1057.0,0.023140,0.014391,0.186459,0.000068,  31.716
  1058.0,0.023043,0.014332,0.185612,0.000068,  31.713
  1059.0,0.022962,0.014265,0.185013,0.000068,  31.716
  1060.0,0.022892,0.014211,0.184351,0.000068,  31.709
  1061.0,0.022803,0.014161,0.183692,0.000054,  31.721
  1062.0,0.022730,0.014120,0.182905,0.000054,  31.711
  1063.0,0.022632,0.014066,0.182366,0.000054,  31.710
  1064.0,0.022536,0.013994,0.181726,0.000054,  31.707
  1065.0,0.022447,0.013954,0.179238,-0.000009,  31.706
  1066.0,0.022370,0.013898,0.179909,0.000030,  31.702
  1067.0,0.022297,0.013855,0.179534,0.000016,  31.696
  1068.0,0.022216,0.013814,0.178990,0.000016,  31.690
  1069.0,0.022139,0.013745,0.178211,0.000065,  31.686
  1070.0,0.022038,0.013699,0.177586,0.000041,  31.687
  1071.0,0.021954,0.013641,0.176578,0.000065,  31.683
  1072.0,0.021865,0.013585,0.175022,0.000041,  31.678
  1073.0,0.021785,0.013531,0.175086,0.000068,  31.679
  1074.0,0.021695,0.013491,0.174797,0.000104,  31.673
  1075.0,0.021603,0.013438,0.174257,0.000065,  31.666
  1076.0,0.021523,0.013383,0.173582,0.000027,  31.665
  1077.0,0.021434,0.013332,0.172877,0.000093,  31.657
  1078.0,0.021385,0.013289,0.172199,0.000068,  31.654
  1079.0,0.021304,0.013246,0.171524,0.000068,  31.655
  1080.0,0.021207,0.013180,0.169214,0.000054,  31.646
  1081.0,0.021111,0.013126,0.169550,0.000054,  31.634
  1082.0,0.021011,0.013060,0.169057,0.000041,  31.631
  1083.0,0.020926,0.013023,0.168645,0.000065,  31.626
  1084.0,0.020862,0.012967,0.168035,0.000065,  31.621
  1085.0,0.020769,0.012907,0.167432,0.000065,  31.616
  1086.0,0.020691,0.012845,0.166666,0.000065,  31.604
  1087.0,0.020582,0.012796,0.165908,0.000027,  31.595
  1088.0,0.020490,0.012719,0.165247,0.000027,  31.576
  1089.0,0.020411,0.012665,0.164512,0.000027,  31.563
  1090.0,0.020338,0.012624,0.163907,0.000051,  31.549
  1091.0,0.020236,0.012573,0.163201,0.000051,  31.540
  1092.0,0.020159,0.012533,0.162543,0.000041,  31.527
  1093.0,0.020075,0.012469,0.161865,0.000051,  31.522
  1094.0,0.019995,0.012423,0.161058,0.000041,  31.518
  1095.0,0.019921,0.012386,0.160558,0.000013,  31.518
  1096.0,0.019833,0.012334,0.159611,0.000065,  31.513
  1097.0,0.019757,0.012263,0.159172,0.000051,  31.512
  1098.0,0.019668,0.012216,0.158645,0.000093,  31.512
  1099.0,0.019584,0.012178,0.158089,0.000065,  31.514
  1100.0,0.019500,0.012132,0.157442,0.000054,  31.512
  1101.0,0.019416,0.012081,0.156734,0.000079,  31.512
  1102.0,0.019335,0.012040,0.156072,0.000068,  31.511
  1103.0,0.019271,0.011987,0.155370,0.000068,  31.502
  1104.0,0.019190,0.011931,0.154850,0.000054,  31.505
  1105.0,0.019111,0.011869,0.153914,0.000079,  31.500
  1106.0,0.019014,0.011812,0.153305,0.000079,  31.505
  1107.0,0.018926,0.011760,0.152699,0.000079,  31.506
  1108.0,0.018858,0.011713,0.151961,0.000079,  31.507
  1109.0,0.018769,0.011672,0.151473,0.000118,  31.511
  1110.0,0.018680,0.011624,0.150992,0.000093,  31.513
  1111.0,0.018596,0.011574,0.150291,0.000118,  31.509
  1112.0,0.018496,0.011501,0.149270,0.000093,  31.515
  1113.0,0.018424,0.011442,0.148753,0.000054,  31.519
  1114.0,0.018344,0.011392,0.148123,0.000068,  31.525
  1115.0,0.018272,0.011344,0.147576,0.000054,  31.527
  1116.0,0.018204,0.011290,0.147061,0.000065,  31.526
  1117.0,0.018096,0.011237,0.146206,0.000118,  31.534
  1118.0,0.018043,0.011192,0.145702,0.000079,  31.527
  1119.0,0.017933,0.011145,0.144852,0.000090,  31.529
  1120.0,0.017841,0.011089,0.144027,0.000093,  31.519
  1121.0,0.017761,0.011031,0.143372,0.000079,  31.510
  1122.0,0.017680,0.010966,0.142758,0.000041,  31.502
  1123.0,0.017572,0.010901,0.141790,0.000079,  31.493
  1124.0,0.017480,0.010854,0.141173,0.000093,  31.483
  1125.0,0.017396,0.010802,0.140591,0.000041,  31.478
  1126.0,0.017320,0.010767,0.140043,0.000093,  31.464
  1127.0,0.017252,0.010720,0.139150,0.000054,  31.464
  1128.0,0.017163,0.010666,0.138647,0.000079,  31.463
  1129.0,0.017076,0.010622,0.137979,0.000065,  31.467
  1130.0,0.016990,0.010569,0.137062,0.000027,  31.471
  1131.0,0.016922,0.010510,0.136565,0.000051,  31.471
  1132.0,0.016845,0.010464,0.136268,0.000090,  31.478
  1133.0,0.016765,0.010406,0.135548,0.000143,  31.486
  1134.0,0.016671,0.010354,0.134672,0.000129,  31.482
  1135.0,0.016601,0.010295,0.134181,0.000027,  31.497
  1136.0,0.016513,0.010233,0.133337,0.000065,  31.499
  1137.0,0.016434,0.010190,0.132598,0.000041,  31.507
  1138.0,0.016342,0.010159,0.132081,0.000027,  31.509
  1139.0,0.016249,0.010108,0.131432,0.000051,  31.515
  1140.0,0.016196,0.010052,0.130896,0.000115,  31.519
  1141.0,0.016100,0.010002,0.130202,0.000027,  31.524
  1142.0,0.016012,0.009942,0.129512,0.000065,  31.529
  1143.0,0.015956,0.009894,0.128891,0.000062,  31.530
  1144.0,0.015868,0.009841,0.128080,0.000051,  31.533
  1145.0,0.015797,0.009789,0.127248,0.000051,  31.533
  1146.0,0.015725,0.009758,0.126782,0.000027,  31.533
  1147.0,0.015621,0.009709,0.126306,0.000065,  31.539
  1148.0,0.015541,0.009657,0.125758,0.000051,  31.542
  1149.0,0.015470,0.009593,0.124910,0.000027,  31.551
  1150.0,0.015369,0.009542,0.124393,0.000027,  31.546
  1151.0,0.015297,0.009484,0.123847,0.000023,  31.550
  1152.0,0.015209,0.009438,0.123109,0.000076,  31.550
  1153.0,0.015121,0.009384,0.122478,0.000027,  31.555
  1154.0,0.015046,0.009344,0.121939,0.000013,  31.553
  1155.0,0.014969,0.009285,0.121220,0.000051,  31.551
  1156.0,0.014890,0.009241,0.120735,0.000013,  31.551
  1157.0,0.014822,0.009199,0.120026,0.000027,  31.543
  1158.0,0.014764,0.009166,0.119533,0.000051,  31.540
  1159.0,0.014693,0.009109,0.116062,0.000037,  31.535
  1160.0,0.014631,0.009075,0.117168,0.000027,  31.538
  1161.0,0.014534,0.009044,0.117102,0.000013,  31.538
  1162.0,0.014475,0.008986,0.116800,-0.000012,  31.533
  1163.0,0.014402,0.008949,0.116447,-0.000012,  31.529
  1164.0,0.014310,0.008897,0.115929,0.000027,  31.530
  1165.0,0.014228,0.008848,0.115379,0.000027,  31.531
  1166.0,0.014148,0.008792,0.114637,0.000065,  31.526
  1167.0,0.014095,0.008750,0.113902,0.000051,  31.528
  1168.0,0.014019,0.008701,0.113499,0.000027,  31.528
  1169.0,0.013939,0.008663,0.112878,0.000027,  31.520
  1170.0,0.013887,0.008622,0.112043,0.000041,  31.515
  1171.0,0.013815,0.008578,0.111912,0.000027,  31.515
  1172.0,0.013723,0.008537,0.109511,0.000037,  31.512
  1173.0,0.013652,0.008496,0.109278,0.000076,  31.502
  1174.0,0.013579,0.008441,0.109651,0.000065,  31.499
  1175.0,0.013495,0.008397,0.109395,0.000027,  31.498
  1176.0,0.013427,0.008365,0.108987,0.000027,  31.493
  1177.0,0.013351,0.008318,0.108339,0.000104,  31.496
  1178.0,0.013281,0.008270,0.107633,0.000065,  31.493
  1179.0,0.013210,0.008218,0.107033,0.000027,  31.498
  1180.0,0.013141,0.008173,0.106692,0.000027,  31.495
  1181.0,0.013066,0.008130,0.106117,0.000027,  31.492
  1182.0,0.012994,0.008086,0.105483,0.000065,  31.495
  1183.0,0.012906,0.008034,0.105082,0.000037,  31.498
  1184.0,0.012831,0.007976,0.104299,0.000076,  31.498
  1185.0,0.012762,0.007932,0.103895,0.000090,  31.498
  1186.0,0.012710,0.007897,0.103202,0.000051,  31.499
  1187.0,0.012622,0.007853,0.102635,0.000027,  31.507
  1188.0,0.012565,0.007807,0.102310,0.000027,  31.518
  1189.0,0.012491,0.007767,0.101642,0.000027,  31.523
  1190.0,0.012431,0.007734,0.101047,0.000027,  31.525
  1191.0,0.012385,0.007690,0.100799,0.000051,  31.530
  1192.0,0.012291,0.007655,0.100309,0.000027,  31.538
  1193.0,0.012226,0.007580,0.099778,0.000051,  31.536
  1194.0,0.012147,0.007516,0.099076,0.000013,  31.539
  1195.0,0.012064,0.007477,0.098488,0.000013,  31.543
  1196.0,0.011992,0.007443,0.097755,0.000013,  31.549
  1197.0,0.011916,0.007395,0.097219,0.000027,  31.545
  1198.0,0.011861,0.007354,0.096705,0.000065,  31.544
  1199.0,0.011771,0.007317,0.096237,0.000027,  31.542
  1200.0,0.011705,0.007276,0.095724,-0.000051,  31.539
  1201.0,0.011638,0.007233,0.094941,-0.000012,  31.543
  1202.0,0.011565,0.007195,0.094115,0.000051,  31.542
  1203.0,0.011504,0.007154,0.093813,0.000037,  31.542
  1204.0,0.011469,0.007115,0.093411,0.000140,  31.547
  1205.0,0.011400,0.007073,0.093044,0.000101,  31.548
  1206.0,0.011336,0.007041,0.092553,0.000013,  31.553
  1207.0,0.011281,0.007009,0.092086,0.000051,  31.554
  1208.0,0.011210,0.006979,0.091498,0.000027,  31.569
  1209.0,0.011155,0.006936,0.090799,0.000065,  31.570
  1210.0,0.011103,0.006903,0.090166,0.000013,  31.581
  1211.0,0.011037,0.006860,0.090059,0.000013,  31.578
  1212.0,0.010980,0.006825,0.089559,0.000090,  31.586
  1213.0,0.010909,0.006786,0.088784,0.000037,  31.583
  1214.0,0.010838,0.006734,0.088538,0.000065,  31.589
  1215.0,0.010789,0.006698,0.087993,0.000051,  31.596
  1216.0,0.010734,0.006673,0.087590,0.000013,  31.594
  1217.0,0.010669,0.006630,0.087128,0.000041,  31.591
  1218.0,0.010589,0.006580,0.086738,0.000051,  31.596
  1219.0,0.010516,0.006534,0.086217,0.000027,  31.594
  1220.0,0.010469,0.006489,0.085349,0.000027,  31.593
  1221.0,0.010413,0.006449,0.084982,0.000013,  31.593
  1222.0,0.010341,0.006417,0.084492,0.000027,  31.582
  1223.0,0.010276,0.006387,0.084107,-0.000012,  31.583
  1224.0,0.010237,0.006356,0.083434,-0.000051,  31.584
  1225.0,0.010141,0.006317,0.082877,0.000013,  31.578
  1226.0,0.010077,0.006259,0.082630,0.000037,  31.571
  1227.0,0.010021,0.006216,0.082117,-0.000001,  31.572
  1228.0,0.009964,0.006184,0.081861,0.000013,  31.563
  1229.0,0.009904,0.006146,0.081386,0.000009,  31.561
  1230.0,0.009837,0.006093,0.080812,-0.000015,  31.560
  1231.0,0.009766,0.006040,0.080159,0.000023,  31.555
  1232.0,0.009698,0.006003,0.079680,0.000023,  31.556
  1233.0,0.009649,0.005964,0.079229,0.000037,  31.550
  1234.0,0.009593,0.005944,0.078588,-0.000001,  31.540
  1235.0,0.009550,0.005917,0.078153,-0.000001,  31.541
  1236.0,0.009501,0.005883,0.077627,0.000051,  31.535
  1237.0,0.009449,0.005856,0.077081,-0.000001,  31.541
  1238.0,0.009396,0.005813,0.076800,-0.000001,  31.538
  1239.0,0.009348,0.005789,0.076208,0.000037,  31.534
  1240.0,0.009320,0.005766,0.076008,0.000013,  31.539
  1241.0,0.009255,0.005736,0.075763,0.000090,  31.543
  1242.0,0.009194,0.005715,0.075124,0.000076,  31.538
  1243.0,0.009130,0.005681,0.074763,0.000013,  31.543
  1244.0,0.009078,0.005634,0.074266,0.000027,  31.547
  1245.0,0.009033,0.005596,0.074039,0.000062,  31.545
  1246.0,0.008981,0.005557,0.073512,0.000051,  31.551
  1247.0,0.008916,0.005534,0.073019,0.000065,  31.553
  1248.0,0.008872,0.005506,0.072660,0.000051,  31.556
  1249.0,0.008812,0.005464,0.072362,0.000090,  31.561
  1250.0,0.008740,0.005426,0.071828,0.000062,  31.561
  1251.0,0.008714,0.005388,0.071585,0.000048,  31.559
  1252.0,0.008653,0.005370,0.070962,0.000051,  31.564
  1253.0,0.008579,0.005324,0.070666,-0.000001,  31.566
  1254.0,0.008527,0.005279,0.070169,-0.000015,  31.568
  1255.0,0.008474,0.005248,0.069387,-0.000001,  31.569
  1256.0,0.008427,0.005218,0.069105,-0.000001,  31.574
  1257.0,0.008378,0.005180,0.068768,0.000037,  31.575
  1258.0,0.008326,0.005149,0.068229,-0.000001,  31.570
  1259.0,0.008277,0.005129,0.067819,-0.000001,  31.569
  1260.0,0.008229,0.005100,0.067441,0.000013,  31.561
  1261.0,0.008173,0.005083,0.067279,-0.000001,  31.558
  1262.0,0.008120,0.005029,0.066814,-0.000001,  31.555
  1263.0,0.008086,0.005007,0.066469,0.000037,  31.542
  1264.0,0.008049,0.004986,0.066028,0.000037,  31.533
  1265.0,0.008008,0.004952,0.065723,0.000013,  31.531
  1266.0,0.007970,0.004941,0.065347,0.000013,  31.526
  1267.0,0.007927,0.004912,0.065000,0.000027,  31.526
  1268.0,0.007883,0.004884,0.064599,0.000027,  31.524
  1269.0,0.007830,0.004868,0.064341,0.000013,  31.527
  1270.0,0.007779,0.004831,0.063921,0.000027,  31.526
  1271.0,0.007738,0.004809,0.063544,0.000065,  31.528
  1272.0,0.007695,0.004780,0.063287,0.000037,  31.529
  1273.0,0.007631,0.004735,0.062916,-0.000001,  31.538
  1274.0,0.007554,0.004702,0.062532,-0.000001,  31.538
  1275.0,0.007522,0.004661,0.062082,0.000037,  31.546
  1276.0,0.007482,0.004647,0.061610,0.000027,  31.549
  1277.0,0.007441,0.004632,0.061574,0.000013,  31.559
  1278.0,0.007400,0.004608,0.061180,0.000027,  31.560
  1279.0,0.007362,0.004579,0.060816,0.000027,  31.563
  1280.0,0.007311,0.004552,0.060615,-0.000001,  31.571
  1281.0,0.007253,0.004502,0.060116,-0.000001,  31.573
  1282.0,0.007200,0.004472,0.059564,0.000013,  31.573
  1283.0,0.007152,0.004426,0.059003,-0.000040,  31.575
  1284.0,0.007092,0.004389,0.058896,0.000013,  31.565
  1285.0,0.007040,0.004347,0.058239,-0.000015,  31.562
  1286.0,0.007000,0.004334,0.057531,-0.000001,  31.561
  1287.0,0.006937,0.004293,0.057291,-0.000026,  31.562
  1288.0,0.006913,0.004250,0.057143,-0.000040,  31.559
  1289.0,0.006852,0.004224,0.056900,-0.000079,  31.556
  1290.0,0.006807,0.004195,0.054885,-0.000026,  31.556
  1291.0,0.006763,0.004164,0.055630,-0.000015,  31.556
  1292.0,0.006718,0.004139,0.055616,-0.000040,  31.553
  1293.0,0.006673,0.004112,0.055424,-0.000040,  31.550
  1294.0,0.006636,0.004092,0.055243,-0.000015,  31.555
  1295.0,0.006603,0.004074,0.054685,-0.000015,  31.553
  1296.0,0.006566,0.004041,0.054413,-0.000068,  31.558
  1297.0,0.006511,0.004010,0.054106,-0.000068,  31.562
  1298.0,0.006481,0.003991,0.053718,-0.000015,  31.558
  1299.0,0.006451,0.003982,0.053558,-0.000005,  31.561
  1300.0,0.006414,0.003967,0.053025,-0.000029,  31.564
  1301.0,0.006363,0.003945,0.052929,-0.000029,  31.562
  1302.0,0.006332,0.003911,0.052550,-0.000029,  31.560
  1303.0,0.006295,0.003887,0.052308,-0.000001,  31.561
  1304.0,0.006254,0.003870,0.052002,-0.000015,  31.561
  1305.0,0.006213,0.003857,0.051679,-0.000015,  31.555
  1306.0,0.006172,0.003834,0.051538,-0.000001,  31.561
  1307.0,0.006138,0.003792,0.050852,-0.000082,  31.562
  1308.0,0.006100,0.003773,0.050621,-0.000093,  31.558
  1309.0,0.006067,0.003742,0.050553,-0.000054,  31.560
  1310.0,0.006022,0.003715,0.050197,-0.000029,  31.556
  1311.0,0.005993,0.003681,0.049804,-0.000040,  31.555
  1312.0,0.005947,0.003657,0.047074,-0.000029,  31.551
  1313.0,0.005906,0.003637,0.048389,-0.000029,  31.551
  1314.0,0.005856,0.003614,0.048742,-0.000029,  31.544
  1315.0,0.005807,0.003586,0.048625,-0.000043,  31.543
  1316.0,0.005771,0.003560,0.048445,-0.000093,  31.540
  1317.0,0.005735,0.003532,0.048083,-0.000054,  31.550
  1318.0,0.005698,0.003506,0.047700,-0.000054,  31.555
  1319.0,0.005664,0.003483,0.047399,-0.000118,  31.550
  1320.0,0.005643,0.003464,0.047067,-0.000093,  31.556
  1321.0,0.005601,0.003450,0.046898,-0.000079,  31.557
  1322.0,0.005559,0.003421,0.046495,-0.000043,  31.563
  1323.0,0.005534,0.003407,0.046336,-0.000018,  31.566
  1324.0,0.005508,0.003371,0.045974,-0.000057,  31.569
  1325.0,0.005470,0.003358,0.045683,-0.000029,  31.571
  1326.0,0.005430,0.003334,0.045404,-0.000068,  31.571
  1327.0,0.005377,0.003303,0.045155,-0.000054,  31.570
  1328.0,0.005353,0.003282,0.044692,-0.000054,  31.572
  1329.0,0.005312,0.003271,0.044624,-0.000054,  31.575
  1330.0,0.005274,0.003241,0.044395,-0.000015,  31.573
  1331.0,0.005237,0.003208,0.043966,-0.000068,  31.573
  1332.0,0.005200,0.003192,0.043767,-0.000093,  31.573
  1333.0,0.005174,0.003183,0.043407,-0.000015,  31.575
  1334.0,0.005149,0.003148,0.043129,-0.000029,  31.573
  1335.0,0.005118,0.003138,0.042940,-0.000043,  31.562
  1336.0,0.005096,0.003129,0.042692,-0.000054,  31.557
  1337.0,0.005074,0.003114,0.042533,-0.000015,  31.554
  1338.0,0.005061,0.003112,0.042354,-0.000026,  31.553
  1339.0,0.005031,0.003095,0.042095,-0.000026,  31.551
  1340.0,0.004982,0.003079,0.041877,-0.000051,  31.549
  1341.0,0.004955,0.003062,0.041437,-0.000090,  31.538
  1342.0,0.004925,0.003040,0.041409,-0.000040,  31.534
  1343.0,0.004876,0.003022,0.039735,-0.000065,  31.533
  1344.0,0.004843,0.002987,0.040576,-0.000015,  31.530
  1345.0,0.004810,0.002967,0.040718,-0.000015,  31.527
  1346.0,0.004777,0.002945,0.040701,-0.000040,  31.528
  1347.0,0.004768,0.002931,0.040234,-0.000026,  31.526
  1348.0,0.004728,0.002912,0.039977,-0.000065,  31.523
  1349.0,0.004686,0.002892,0.039641,-0.000026,  31.521
  1350.0,0.004649,0.002866,0.039396,-0.000054,  31.518
  1351.0,0.004603,0.002840,0.039179,-0.000054,  31.515
  1352.0,0.004589,0.002823,0.038904,0.000013,  31.515
  1353.0,0.004555,0.002812,0.038608,-0.000040,  31.513
  1354.0,0.004520,0.002800,0.038500,-0.000026,  31.515
  1355.0,0.004495,0.002775,0.038363,-0.000040,  31.519
  1356.0,0.004463,0.002761,0.037850,-0.000079,  31.517
  1357.0,0.004420,0.002733,0.037723,-0.000104,  31.520
  1358.0,0.004387,0.002699,0.037419,-0.000079,  31.523
  1359.0,0.004361,0.002677,0.036867,-0.000156,  31.529
  1360.0,0.004335,0.002655,0.036781,-0.000132,  31.537
  1361.0,0.004297,0.002627,0.036575,-0.000093,  31.542
  1362.0,0.004279,0.002635,0.036250,-0.000132,  31.556
  1363.0,0.004262,0.002606,0.036232,-0.000121,  31.559
  1364.0,0.004224,0.002572,0.036086,-0.000093,  31.560
  1365.0,0.004205,0.002574,0.035999,-0.000040,  31.564
  1366.0,0.004190,0.002582,0.035536,-0.000029,  31.562
  1367.0,0.004172,0.002573,0.035243,-0.000079,  31.559
  1368.0,0.004147,0.002576,0.035037,-0.000026,  31.553
  1369.0,0.004120,0.002540,0.035078,-0.000040,  31.544
  1370.0,0.004094,0.002517,0.035040,-0.000054,  31.531
  1371.0,0.004079,0.002495,0.034894,-0.000029,  31.517
  1372.0,0.004057,0.002492,0.034728,-0.000079,  31.510
  1373.0,0.004035,0.002484,0.034552,-0.000079,  31.507
  1374.0,0.004005,0.002473,0.034347,-0.000068,  31.503
  1375.0,0.003976,0.002447,0.034084,-0.000065,  31.499
  1376.0,0.003936,0.002428,0.034007,-0.000079,  31.490
  1377.0,0.003919,0.002418,0.033783,-0.000079,  31.490
  1378.0,0.003891,0.002394,0.033824,-0.000079,  31.487
  1379.0,0.003866,0.002371,0.033491,-0.000079,  31.489
  1380.0,0.003840,0.002349,0.033199,-0.000068,  31.495
  1381.0,0.003805,0.002325,0.032927,-0.000132,  31.494
  1382.0,0.003781,0.002308,0.032675,-0.000107,  31.506
  1383.0,0.003751,0.002292,0.032344,-0.000107,  31.515
  1384.0,0.003720,0.002279,0.032044,-0.000096,  31.517
  1385.0,0.003698,0.002265,0.031703,-0.000107,  31.521
  1386.0,0.003689,0.002252,0.031686,-0.000107,  31.526
  1387.0,0.003659,0.002238,0.031482,-0.000082,  31.521
  1388.0,0.003637,0.002214,0.031190,-0.000107,  31.526
  1389.0,0.003623,0.002210,0.031114,-0.000132,  31.509
  1390.0,0.003604,0.002185,0.031046,-0.000071,  31.502
  1391.0,0.003587,0.002178,0.030678,-0.000107,  31.487
  1392.0,0.003559,0.002168,0.030485,-0.000079,  31.482
  1393.0,0.003553,0.002165,0.030341,-0.000093,  31.474
  1394.0,0.003514,0.002138,0.030283,-0.000121,  31.476
  1395.0,0.003491,0.002126,0.030109,-0.000173,  31.466
  1396.0,0.003477,0.002104,0.029916,-0.000121,  31.461
  1397.0,0.003447,0.002102,0.029636,-0.000132,  31.456
  1398.0,0.003416,0.002093,0.029530,-0.000107,  31.457
  1399.0,0.003394,0.002080,0.029375,-0.000107,  31.458
  1400.0,0.003380,0.002072,0.029212,-0.000107,  31.463
  1401.0,0.003365,0.002069,0.029029,-0.000057,  31.467
  1402.0,0.003343,0.002054,0.028933,-0.000043,  31.469
  1403.0,0.003337,0.002031,0.028818,-0.000057,  31.476
  1404.0,0.003311,0.002018,0.028722,-0.000057,  31.481
  1405.0,0.003301,0.001999,0.028414,-0.000071,  31.485
  1406.0,0.003287,0.001989,0.028125,-0.000082,  31.489
  1407.0,0.003257,0.001984,0.028000,-0.000107,  31.492
  1408.0,0.003251,0.001980,0.028338,-0.000054,  31.493
  1409.0,0.003223,0.001972,0.027847,-0.000054,  31.496
  1410.0,0.003205,0.001972,0.027722,-0.000068,  31.503
  1411.0,0.003190,0.001961,0.027665,-0.000082,  31.516
  1412.0,0.003168,0.001948,0.027579,-0.000043,  31.519
  1413.0,0.003146,0.001940,0.027271,-0.000043,  31.523
  1414.0,0.003141,0.001923,0.027012,-0.000068,  31.523
  1415.0,0.003114,0.001898,0.027119,-0.000093,  31.527
  1416.0,0.003094,0.001892,0.026975,-0.000043,  31.533
  1417.0,0.003080,0.001868,0.026716,-0.000043,  31.537
  1418.0,0.003054,0.001874,0.026582,-0.000029,  31.540
  1419.0,0.003048,0.001878,0.026198,-0.000015,  31.541
  1420.0,0.003030,0.001862,0.026179,-0.000068,  31.545
  1421.0,0.003006,0.001846,0.026103,-0.000107,  31.545
  1422.0,0.002967,0.001830,0.025749,-0.000057,  31.545
  1423.0,0.002950,0.001832,0.025835,-0.000029,  31.543
  1424.0,0.002940,0.001818,0.025415,-0.000015,  31.541
  1425.0,0.002933,0.001808,0.025463,-0.000018,  31.540
  1426.0,0.002910,0.001797,0.025367,-0.000057,  31.542
  1427.0,0.002896,0.001779,0.025301,-0.000018,  31.533
  1428.0,0.002860,0.001763,0.025177,-0.000032,  31.542
  1429.0,0.002854,0.001749,0.024824,-0.000043,  31.535
  1430.0,0.002832,0.001744,0.024814,-0.000043,  31.541
  1431.0,0.002824,0.001730,0.024795,-0.000029,  31.541
  1432.0,0.002810,0.001732,0.024643,-0.000054,  31.542
  1433.0,0.002791,0.001720,0.024662,-0.000043,  31.546
  1434.0,0.002779,0.001709,0.024253,-0.000015,  31.552
  1435.0,0.002747,0.001680,0.024052,-0.000015,  31.550
  1436.0,0.002714,0.001669,0.023957,-0.000068,  31.554
  1437.0,0.002690,0.001655,0.023576,-0.000107,  31.562
  1438.0,0.002672,0.001642,0.023491,-0.000054,  31.568
  1439.0,0.002669,0.001631,0.023482,-0.000082,  31.569
  1440.0,0.002658,0.001620,0.023596,-0.000057,  31.575
  1441.0,0.002640,0.001603,0.023320,-0.000032,  31.582
  1442.0,0.002618,0.001592,0.023206,-0.000057,  31.587
  1443.0,0.002603,0.001589,0.023178,-0.000057,  31.592
  1444.0,0.002608,0.001583,0.022903,-0.000043,  31.594
  1445.0,0.002594,0.001588,0.022627,-0.000068,  31.596
  1446.0,0.002575,0.001582,0.022665,-0.000015,  31.599
  1447.0,0.002549,0.001538,0.022542,-0.000068,  31.602
  1448.0,0.002534,0.001542,0.022324,-0.000107,  31.607
  1449.0,0.002522,0.001535,0.022324,-0.000043,  31.603
  1450.0,0.002512,0.001540,0.021983,-0.000068,  31.604
  1451.0,0.002485,0.001524,0.022040,-0.000082,  31.603
  1452.0,0.002463,0.001515,0.021822,-0.000096,  31.598
  1453.0,0.002445,0.001484,0.021528,-0.000135,  31.592
  1454.0,0.002427,0.001472,0.021585,-0.000110,  31.587
  1455.0,0.002416,0.001465,0.021425,-0.000099,  31.582
  1456.0,0.002409,0.001472,0.021084,-0.000057,  31.576
  1457.0,0.002393,0.001451,0.021141,-0.000057,  31.574
  1458.0,0.002371,0.001431,0.021131,-0.000018,  31.569
  1459.0,0.002350,0.001425,0.020801,-0.000032,  31.562
  1460.0,0.002331,0.001409,0.020706,-0.000057,  31.560
  1461.0,0.002301,0.001396,0.020508,-0.000043,  31.563
  1462.0,0.002302,0.001387,0.020263,-0.000043,  31.565
  1463.0,0.002283,0.001370,0.020121,-0.000043,  31.554
  1464.0,0.002248,0.001365,0.019989,-0.000029,  31.546
  1465.0,0.002255,0.001354,0.019669,-0.000043,  31.552
  1466.0,0.002244,0.001353,0.019923,-0.000071,  31.549
  1467.0,0.002232,0.001352,0.019678,-0.000060,  31.549
  1468.0,0.002224,0.001337,0.019537,-0.000071,  31.550
  1469.0,0.002206,0.001337,0.019358,-0.000135,  31.536
  1470.0,0.002170,0.001321,0.019414,-0.000096,  31.547
  1471.0,0.002169,0.001313,0.019179,-0.000096,  31.540
  1472.0,0.002141,0.001294,0.018953,-0.000135,  31.539
  1473.0,0.002130,0.001283,0.018953,-0.000057,  31.536
  1474.0,0.002111,0.001275,0.018963,-0.000060,  31.537
  1475.0,0.002096,0.001264,0.018737,-0.000046,  31.530
  1476.0,0.002097,0.001253,0.018718,-0.000085,  31.532
  1477.0,0.002090,0.001260,0.018465,-0.000057,  31.525
  1478.0,0.002088,0.001251,0.018136,-0.000071,  31.518
  1479.0,0.002072,0.001241,0.018305,-0.000057,  31.520
  1480.0,0.002056,0.001233,0.018342,-0.000057,  31.515
  1481.0,0.002060,0.001238,0.018239,-0.000082,  31.507
  1482.0,0.002030,0.001222,0.018286,-0.000043,  31.504
  1483.0,0.002007,0.001223,0.018023,-0.000032,  31.479
  1484.0,0.002028,0.001234,0.017986,-0.000043,  31.468
  1485.0,0.002024,0.001233,0.018079,-0.000029,  31.457
  1486.0,0.002035,0.001234,0.018164,-0.000005,  31.441
