Run Name,Run 3: R/L
Run Date,02:08:54 PM   02-25-16
Method Name,30% Isocratic
Export Format Version, 1.00
Method ID, 2921
Points/Second, 1.00
Number of Records,   1068
Offset from Run Start Time,00:00:00
Run End Time,00:17:47
Time,Second
QuadTec 1, (280.0 nm), AU
QuadTec 2, (260.0 nm), AU
Gradient Pump,<Not Selected>
QuadTec 3, (214.0 nm), AU
QuadTec 4, (405.0 nm), AU
Conductivity,mS/cm
Trace 6,<Not Available>
GP Pressure,<Not Selected>
Volume,<Not Selected>
Fraction,<Not Available>
Time,QuadTec 1,QuadTec 2,QuadTec 3,QuadTec 4,Conductivity
     0.0,0.002028,0.000000,0.000000,0.000000,  31.514
     1.0,0.000000,0.000000,0.000000,0.000000,  31.470
     2.0,0.000000,0.000000,0.000000,0.000000,  31.417
     3.0,0.000000,0.000000,0.000000,0.000000,  31.361
     4.0,0.000000,0.000000,-0.000189,0.000039,  31.300
     5.0,-0.000101,-0.000055,-0.000604,0.000000,  31.265
     6.0,-0.000171,-0.000111,-0.001498,0.000000,  31.235
     7.0,-0.000241,-0.000162,-0.002175,0.000014,  31.219
     8.0,-0.000285,-0.000195,-0.002935,0.000025,  31.233
     9.0,-0.000315,-0.000213,-0.003946,0.000039,  31.258
    10.0,-0.000331,-0.000221,-0.004236,0.000014,  31.288
    11.0,-0.000357,-0.000217,-0.004452,0.000000,  31.337
    12.0,-0.000376,-0.000212,-0.004695,-0.000011,  31.378
    13.0,-0.000389,-0.000212,-0.005255,0.000042,  31.422
    14.0,-0.000409,-0.000210,-0.005479,0.000067,  31.474
    15.0,-0.000408,-0.000212,-0.005712,0.000081,  31.515
    16.0,-0.000438,-0.000196,-0.006056,0.000095,  31.551
    17.0,-0.000412,-0.000194,-0.005982,0.000070,  31.583
    18.0,-0.000405,-0.000186,-0.006112,0.000112,  31.589
    19.0,-0.000427,-0.000168,-0.007909,0.000150,  31.599
    20.0,-0.000449,-0.000191,-0.007197,0.000126,  31.617
    21.0,-0.000454,-0.000208,-0.006967,0.000126,  31.628
    22.0,-0.000481,-0.000215,-0.007236,0.000175,  31.627
    23.0,-0.000498,-0.000234,-0.009201,0.000136,  31.629
    24.0,-0.000517,-0.000257,-0.008622,0.000136,  31.627
    25.0,-0.000543,-0.000273,-0.007830,0.000136,  31.620
    26.0,-0.000550,-0.000284,-0.007673,0.000122,  31.618
    27.0,-0.000568,-0.000279,-0.007904,0.000150,  31.605
    28.0,-0.000592,-0.000300,-0.007869,0.000164,  31.595
    29.0,-0.000610,-0.000306,-0.008192,0.000150,  31.586
    30.0,-0.000625,-0.000314,-0.008183,0.000126,  31.580
    31.0,-0.000620,-0.000314,-0.008313,0.000136,  31.578
    32.0,-0.000631,-0.000301,-0.008424,0.000126,  31.568
    33.0,-0.000646,-0.000313,-0.008461,0.000178,  31.564
    34.0,-0.000653,-0.000314,-0.008582,0.000164,  31.564
    35.0,-0.000660,-0.000328,-0.008536,0.000087,  31.549
    36.0,-0.000691,-0.000352,-0.008804,0.000150,  31.534
    37.0,-0.000697,-0.000357,-0.008860,0.000126,  31.523
    38.0,-0.000721,-0.000357,-0.008924,0.000150,  31.519
    39.0,-0.000724,-0.000353,-0.009210,0.000136,  31.508
    40.0,-0.000727,-0.000355,-0.009064,0.000126,  31.510
    41.0,-0.000739,-0.000355,-0.009350,0.000140,  31.513
    42.0,-0.000764,-0.000372,-0.009672,0.000126,  31.523
    43.0,-0.000780,-0.000386,-0.009617,0.000178,  31.538
    44.0,-0.000788,-0.000394,-0.009884,0.000136,  31.542
    45.0,-0.000810,-0.000406,-0.009912,0.000164,  31.557
    46.0,-0.000832,-0.000420,-0.010162,0.000126,  31.572
    47.0,-0.000850,-0.000425,-0.010181,0.000112,  31.580
    48.0,-0.000861,-0.000434,-0.010457,0.000126,  31.595
    49.0,-0.000860,-0.000451,-0.010485,0.000150,  31.600
    50.0,-0.000882,-0.000461,-0.010909,0.000087,  31.597
    51.0,-0.000891,-0.000464,-0.011065,0.000161,  31.602
    52.0,-0.000897,-0.000472,-0.011203,0.000109,  31.601
    53.0,-0.000904,-0.000472,-0.011433,0.000098,  31.606
    54.0,-0.000896,-0.000477,-0.011809,0.000112,  31.609
    55.0,-0.000892,-0.000470,-0.011755,0.000136,  31.616
    56.0,-0.000888,-0.000472,-0.011866,0.000164,  31.629
    57.0,-0.000882,-0.000473,-0.012160,0.000164,  31.644
    58.0,-0.000875,-0.000459,-0.012390,0.000164,  31.661
    59.0,-0.000856,-0.000437,-0.012673,0.000192,  31.686
    60.0,-0.000830,-0.000439,-0.012802,0.000178,  31.724
    61.0,-0.000793,-0.000433,-0.013168,0.000157,  31.773
    62.0,-0.000761,-0.000400,-0.013104,0.000234,  31.844
    63.0,-0.000742,-0.000385,-0.013158,0.000234,  31.926
    64.0,-0.000721,-0.000389,-0.012820,0.000220,  32.028
    65.0,-0.000670,-0.000368,-0.012517,0.000206,  32.153
    66.0,-0.000621,-0.000347,-0.012021,0.000192,  32.298
    67.0,-0.000578,-0.000332,-0.011010,0.000206,  32.470
    68.0,-0.000522,-0.000307,-0.009932,0.000178,  32.662
    69.0,-0.000474,-0.000253,-0.008629,0.000192,  32.879
    70.0,-0.000408,-0.000207,-0.007090,0.000178,  33.117
    71.0,-0.000351,-0.000181,-0.005731,0.000150,  33.372
    72.0,-0.000320,-0.000151,-0.004462,0.000178,  33.627
    73.0,-0.000275,-0.000137,-0.003554,0.000189,  33.881
    74.0,-0.000246,-0.000076,-0.002335,0.000164,  34.137
    75.0,-0.000232,-0.000063,-0.001272,0.000164,  34.371
    76.0,-0.000211,-0.000051,0.000029,0.000136,  34.577
    77.0,-0.000221,-0.000030,0.000520,0.000189,  34.772
    78.0,-0.000205,-0.000021,0.000766,0.000189,  34.935
    79.0,-0.000216,-0.000019,0.001125,0.000164,  35.076
    80.0,-0.000247,-0.000022,0.001229,0.000178,  35.190
    81.0,-0.000256,-0.000022,0.001248,0.000164,  35.284
    82.0,-0.000285,-0.000029,0.001078,0.000164,  35.346
    83.0,-0.000303,-0.000050,0.001040,0.000178,  35.383
    84.0,-0.000337,-0.000076,0.000624,0.000164,  35.411
    85.0,-0.000373,-0.000071,0.000180,0.000178,  35.416
    86.0,-0.000394,-0.000093,-0.000047,0.000150,  35.411
    87.0,-0.000436,-0.000122,-0.000491,0.000164,  35.394
    88.0,-0.000457,-0.000128,-0.000886,0.000150,  35.368
    89.0,-0.000486,-0.000150,-0.001282,0.000228,  35.341
    90.0,-0.000505,-0.000167,-0.001706,0.000242,  35.304
    91.0,-0.000534,-0.000172,-0.002485,0.000203,  35.265
    92.0,-0.000555,-0.000193,-0.002729,0.000164,  35.224
    93.0,-0.000582,-0.000212,-0.003479,0.000164,  35.183
    94.0,-0.000608,-0.000234,-0.003582,0.000178,  35.143
    95.0,-0.000630,-0.000235,-0.004162,0.000192,  35.097
    96.0,-0.000659,-0.000260,-0.004172,0.000192,  35.064
    97.0,-0.000681,-0.000265,-0.004434,0.000192,  35.028
    98.0,-0.000703,-0.000286,-0.004947,0.000192,  35.000
    99.0,-0.000722,-0.000298,-0.005293,0.000217,  34.966
   100.0,-0.000744,-0.000300,-0.005479,0.000217,  34.936
   101.0,-0.000762,-0.000311,-0.005731,0.000192,  34.910
   102.0,-0.000777,-0.000323,-0.006242,0.000178,  34.878
   103.0,-0.000794,-0.000335,-0.006743,0.000192,  34.849
   104.0,-0.000800,-0.000357,-0.006865,0.000192,  34.827
   105.0,-0.000830,-0.000358,-0.007134,0.000192,  34.803
   106.0,-0.000834,-0.000379,-0.007080,0.000192,  34.777
   107.0,-0.000865,-0.000389,-0.007284,0.000189,  34.754
   108.0,-0.000895,-0.000415,-0.007572,0.000122,  34.734
   109.0,-0.000913,-0.000437,-0.007683,0.000150,  34.706
   110.0,-0.000939,-0.000435,-0.008054,0.000214,  34.682
   111.0,-0.000953,-0.000446,-0.008313,0.000136,  34.648
   112.0,-0.000972,-0.000468,-0.008682,0.000225,  34.622
   113.0,-0.000966,-0.000458,-0.010668,0.000189,  34.593
   114.0,-0.000994,-0.000469,-0.009393,0.000164,  34.576
   115.0,-0.001005,-0.000475,-0.008998,0.000164,  34.558
   116.0,-0.000999,-0.000464,-0.009366,0.000192,  34.536
   117.0,-0.001015,-0.000474,-0.009413,0.000192,  34.515
   118.0,-0.001009,-0.000467,-0.009422,0.000178,  34.501
   119.0,-0.001009,-0.000462,-0.009855,0.000192,  34.487
   120.0,-0.001017,-0.000464,-0.011623,0.000189,  34.472
   121.0,-0.001027,-0.000474,-0.010002,0.000136,  34.455
   122.0,-0.001039,-0.000484,-0.009718,0.000150,  34.445
   123.0,-0.001063,-0.000483,-0.009663,0.000164,  34.434
   124.0,-0.001061,-0.000504,-0.009645,0.000178,  34.420
   125.0,-0.001088,-0.000520,-0.009655,0.000164,  34.406
   126.0,-0.001075,-0.000530,-0.010803,0.000164,  34.399
   127.0,-0.001105,-0.000531,-0.011526,0.000178,  34.394
   128.0,-0.001130,-0.000530,-0.010547,0.000178,  34.385
   129.0,-0.001122,-0.000527,-0.010382,0.000164,  34.377
   130.0,-0.001133,-0.000538,-0.010391,0.000164,  34.373
   131.0,-0.001136,-0.000534,-0.010309,0.000200,  34.365
   132.0,-0.001144,-0.000542,-0.010547,0.000136,  34.351
   133.0,-0.001159,-0.000550,-0.010382,0.000189,  34.342
   134.0,-0.001158,-0.000569,-0.010282,0.000164,  34.336
   135.0,-0.001167,-0.000561,-0.010254,0.000164,  34.329
   136.0,-0.001173,-0.000573,-0.010355,0.000189,  34.322
   137.0,-0.001168,-0.000563,-0.010429,0.000164,  34.311
   138.0,-0.001180,-0.000574,-0.010466,0.000164,  34.306
   139.0,-0.001172,-0.000590,-0.010439,0.000150,  34.300
   140.0,-0.001187,-0.000578,-0.010485,0.000192,  34.285
   141.0,-0.001187,-0.000587,-0.010834,0.000178,  34.276
   142.0,-0.001194,-0.000587,-0.010788,0.000192,  34.266
   143.0,-0.001198,-0.000583,-0.010577,0.000192,  34.261
   144.0,-0.001197,-0.000595,-0.010733,0.000178,  34.258
   145.0,-0.001213,-0.000597,-0.010650,0.000192,  34.248
   146.0,-0.001225,-0.000602,-0.010761,0.000178,  34.245
   147.0,-0.001224,-0.000602,-0.010605,0.000178,  34.237
   148.0,-0.001236,-0.000603,-0.010650,0.000192,  34.232
   149.0,-0.001236,-0.000590,-0.010614,0.000178,  34.229
   150.0,-0.001231,-0.000591,-0.010541,0.000178,  34.230
   151.0,-0.001231,-0.000603,-0.010421,0.000192,  34.232
   152.0,-0.001230,-0.000598,-0.010733,0.000178,  34.232
   153.0,-0.001239,-0.000587,-0.010659,0.000192,  34.238
   154.0,-0.001251,-0.000593,-0.010769,0.000178,  34.239
   155.0,-0.001246,-0.000595,-0.010632,0.000192,  34.252
   156.0,-0.001255,-0.000604,-0.010449,0.000192,  34.259
   157.0,-0.001265,-0.000610,-0.010687,0.000203,  34.256
   158.0,-0.001276,-0.000617,-0.010715,0.000164,  34.259
   159.0,-0.001291,-0.000641,-0.010853,0.000203,  34.259
   160.0,-0.001301,-0.000645,-0.010964,0.000164,  34.255
   161.0,-0.001321,-0.000651,-0.011165,0.000164,  34.254
   162.0,-0.001321,-0.000654,-0.011193,0.000228,  34.251
   163.0,-0.001320,-0.000661,-0.011239,0.000189,  34.254
   164.0,-0.001332,-0.000649,-0.011615,0.000164,  34.251
   165.0,-0.001320,-0.000659,-0.011542,0.000228,  34.258
   166.0,-0.001328,-0.000644,-0.011404,0.000203,  34.254
   167.0,-0.001309,-0.000639,-0.011423,0.000203,  34.266
   168.0,-0.001296,-0.000630,-0.011341,0.000231,  34.268
   169.0,-0.001300,-0.000623,-0.011578,0.000192,  34.270
   170.0,-0.001316,-0.000617,-0.011303,0.000228,  34.277
   171.0,-0.001296,-0.000611,-0.011450,0.000242,  34.279
   172.0,-0.001280,-0.000622,-0.011303,0.000192,  34.277
   173.0,-0.001292,-0.000622,-0.011358,0.000178,  34.276
   174.0,-0.001307,-0.000637,-0.011596,0.000192,  34.275
   175.0,-0.001327,-0.000635,-0.011514,0.000217,  34.268
   176.0,-0.001330,-0.000645,-0.011824,0.000203,  34.253
   177.0,-0.001341,-0.000670,-0.011980,0.000192,  34.247
   178.0,-0.001339,-0.000679,-0.011862,0.000217,  34.232
   179.0,-0.001360,-0.000682,-0.011808,0.000217,  34.219
   180.0,-0.001355,-0.000679,-0.011789,0.000217,  34.210
   181.0,-0.001354,-0.000683,-0.011836,0.000178,  34.207
   182.0,-0.001365,-0.000676,-0.012028,0.000192,  34.202
   183.0,-0.001372,-0.000684,-0.012165,0.000203,  34.204
   184.0,-0.001372,-0.000688,-0.011691,0.000217,  34.209
   185.0,-0.001381,-0.000696,-0.012020,0.000203,  34.214
   186.0,-0.001380,-0.000694,-0.012057,0.000242,  34.218
   187.0,-0.001381,-0.000696,-0.012186,0.000164,  34.223
   188.0,-0.001389,-0.000689,-0.012368,0.000203,  34.225
   189.0,-0.001377,-0.000687,-0.012587,0.000178,  34.229
   190.0,-0.001389,-0.000694,-0.012642,0.000192,  34.233
   191.0,-0.001389,-0.000693,-0.012577,0.000192,  34.230
   192.0,-0.001383,-0.000673,-0.012596,0.000192,  34.227
   193.0,-0.001387,-0.000693,-0.012459,0.000192,  34.225
   194.0,-0.001392,-0.000698,-0.012469,0.000217,  34.212
   195.0,-0.001396,-0.000687,-0.012469,0.000192,  34.209
   196.0,-0.001400,-0.000689,-0.012406,0.000217,  34.207
   197.0,-0.001385,-0.000673,-0.012396,0.000231,  34.206
   198.0,-0.001381,-0.000677,-0.012295,0.000192,  34.204
   199.0,-0.001404,-0.000681,-0.012414,0.000231,  34.201
   200.0,-0.001392,-0.000678,-0.012433,0.000231,  34.199
   201.0,-0.001389,-0.000682,-0.012552,0.000231,  34.204
   202.0,-0.001398,-0.000683,-0.012415,0.000206,  34.205
   203.0,-0.001397,-0.000681,-0.012597,0.000206,  34.203
   204.0,-0.001402,-0.000685,-0.012515,0.000206,  34.201
   205.0,-0.001409,-0.000695,-0.012515,0.000203,  34.196
   206.0,-0.001403,-0.000696,-0.012515,0.000192,  34.197
   207.0,-0.001403,-0.000692,-0.012434,0.000192,  34.201
   208.0,-0.001420,-0.000686,-0.012607,0.000178,  34.201
   209.0,-0.001424,-0.000689,-0.012524,0.000231,  34.203
   210.0,-0.001419,-0.000694,-0.012598,0.000231,  34.199
   211.0,-0.001449,-0.000725,-0.012544,0.000192,  34.200
   212.0,-0.001460,-0.000731,-0.012517,0.000242,  34.200
   213.0,-0.001456,-0.000739,-0.012764,0.000242,  34.201
   214.0,-0.001454,-0.000748,-0.012865,0.000178,  34.208
   215.0,-0.001450,-0.000740,-0.012984,0.000164,  34.208
   216.0,-0.001468,-0.000749,-0.013166,0.000178,  34.221
   217.0,-0.001473,-0.000760,-0.013295,0.000164,  34.224
   218.0,-0.001464,-0.000747,-0.013532,0.000126,  34.223
   219.0,-0.001469,-0.000761,-0.013568,0.000154,  34.216
   220.0,-0.001481,-0.000757,-0.013523,0.000164,  34.222
   221.0,-0.001478,-0.000754,-0.013596,0.000203,  34.212
   222.0,-0.001490,-0.000752,-0.013414,0.000228,  34.197
   223.0,-0.001478,-0.000740,-0.013451,0.000203,  34.198
   224.0,-0.001473,-0.000726,-0.013351,0.000140,  34.196
   225.0,-0.001473,-0.000725,-0.013323,0.000178,  34.198
   226.0,-0.001445,-0.000718,-0.013341,0.000178,  34.194
   227.0,-0.001453,-0.000709,-0.013614,0.000178,  34.195
   228.0,-0.001452,-0.000721,-0.013359,0.000217,  34.194
   229.0,-0.001451,-0.000708,-0.013696,0.000192,  34.196
   230.0,-0.001434,-0.000704,-0.013805,0.000217,  34.185
   231.0,-0.001449,-0.000716,-0.013823,0.000192,  34.183
   232.0,-0.001470,-0.000739,-0.013724,0.000192,  34.186
   233.0,-0.001455,-0.000729,-0.013533,0.000217,  34.182
   234.0,-0.001455,-0.000720,-0.013724,0.000192,  34.177
   235.0,-0.001458,-0.000719,-0.013624,0.000220,  34.177
   236.0,-0.001469,-0.000726,-0.013642,0.000220,  34.176
   237.0,-0.001485,-0.000733,-0.013734,0.000178,  34.180
   238.0,-0.001500,-0.000741,-0.013753,0.000242,  34.177
   239.0,-0.001495,-0.000738,-0.013708,0.000192,  34.180
   240.0,-0.001495,-0.000751,-0.014216,0.000178,  34.188
   241.0,-0.001491,-0.000734,-0.013962,0.000217,  34.187
   242.0,-0.001480,-0.000728,-0.013953,0.000217,  34.190
   243.0,-0.001480,-0.000726,-0.014126,0.000256,  34.193
   244.0,-0.001480,-0.000729,-0.013872,0.000256,  34.197
   245.0,-0.001485,-0.000739,-0.013926,0.000203,  34.203
   246.0,-0.001494,-0.000729,-0.014062,0.000217,  34.203
   247.0,-0.001477,-0.000721,-0.014008,0.000217,  34.200
   248.0,-0.001466,-0.000716,-0.013926,0.000192,  34.199
   249.0,-0.001465,-0.000714,-0.013835,0.000242,  34.191
   250.0,-0.001485,-0.000719,-0.014006,0.000242,  34.187
   251.0,-0.001477,-0.000730,-0.013989,0.000256,  34.177
   252.0,-0.001491,-0.000729,-0.013981,0.000242,  34.165
   253.0,-0.001507,-0.000735,-0.014063,0.000228,  34.162
   254.0,-0.001517,-0.000746,-0.014127,0.000242,  34.153
   255.0,-0.001528,-0.000759,-0.014663,0.000164,  34.157
   256.0,-0.001516,-0.000761,-0.014546,0.000203,  34.152
   257.0,-0.001537,-0.000768,-0.014673,0.000189,  34.150
   258.0,-0.001529,-0.000765,-0.014782,0.000164,  34.152
   259.0,-0.001538,-0.000754,-0.014709,0.000228,  34.146
   260.0,-0.001529,-0.000744,-0.014556,0.000256,  34.145
   261.0,-0.001518,-0.000743,-0.014501,0.000192,  34.154
   262.0,-0.001502,-0.000742,-0.014383,0.000256,  34.156
   263.0,-0.001507,-0.000719,-0.014365,0.000231,  34.162
   264.0,-0.001495,-0.000722,-0.015596,0.000242,  34.163
   265.0,-0.001502,-0.000726,-0.015171,0.000192,  34.166
   266.0,-0.001515,-0.000741,-0.014637,0.000192,  34.162
   267.0,-0.001510,-0.000739,-0.014437,0.000203,  34.167
   268.0,-0.001513,-0.000729,-0.014547,0.000164,  34.162
   269.0,-0.001522,-0.000732,-0.014573,0.000178,  34.158
   270.0,-0.001528,-0.000742,-0.014610,0.000164,  34.162
   271.0,-0.001540,-0.000736,-0.014610,0.000217,  34.162
   272.0,-0.001528,-0.000749,-0.014620,0.000242,  34.169
   273.0,-0.001532,-0.000748,-0.014793,0.000242,  34.168
   274.0,-0.001540,-0.000763,-0.014829,0.000217,  34.174
   275.0,-0.001532,-0.000752,-0.014802,0.000242,  34.178
   276.0,-0.001524,-0.000744,-0.014694,0.000256,  34.182
   277.0,-0.001524,-0.000733,-0.014739,0.000281,  34.177
   278.0,-0.001520,-0.000740,-0.014902,0.000270,  34.184
   279.0,-0.001524,-0.000747,-0.014821,0.000192,  34.186
   280.0,-0.001548,-0.000752,-0.015056,0.000217,  34.184
   281.0,-0.001539,-0.000754,-0.015066,0.000192,  34.184
   282.0,-0.001548,-0.000768,-0.015048,0.000192,  34.180
   283.0,-0.001559,-0.000770,-0.015121,0.000228,  34.175
   284.0,-0.001551,-0.000761,-0.015067,0.000175,  34.174
   285.0,-0.001552,-0.000758,-0.015094,0.000203,  34.174
   286.0,-0.001533,-0.000756,-0.015058,0.000203,  34.172
   287.0,-0.001529,-0.000747,-0.014957,0.000217,  34.175
   288.0,-0.001534,-0.000746,-0.014947,0.000256,  34.175
   289.0,-0.001518,-0.000734,-0.014838,0.000256,  34.180
   290.0,-0.001516,-0.000726,-0.014702,0.000231,  34.187
   291.0,-0.001515,-0.000729,-0.014638,0.000231,  34.193
   292.0,-0.001522,-0.000729,-0.014675,0.000217,  34.205
   293.0,-0.001546,-0.000741,-0.014794,0.000242,  34.216
   294.0,-0.001541,-0.000739,-0.014775,0.000217,  34.225
   295.0,-0.001553,-0.000731,-0.015155,0.000178,  34.238
   296.0,-0.001548,-0.000746,-0.015155,0.000217,  34.241
   297.0,-0.001567,-0.000757,-0.014975,0.000192,  34.251
   298.0,-0.001557,-0.000763,-0.015030,0.000217,  34.259
   299.0,-0.001550,-0.000750,-0.015184,0.000178,  34.267
   300.0,-0.001570,-0.000771,-0.015283,0.000217,  34.268
   301.0,-0.001581,-0.000757,-0.015174,0.000242,  34.272
   302.0,-0.001577,-0.000725,-0.014448,0.000164,  34.272
   303.0,-0.001604,-0.000776,-0.014602,0.000175,  34.269
   304.0,-0.001617,-0.000789,-0.014656,0.000186,  34.264
   305.0,-0.001636,-0.000795,-0.014811,0.000133,  34.258
   306.0,-0.001636,-0.000793,-0.014965,0.000197,  34.245
   307.0,-0.001611,-0.000793,-0.015128,0.000186,  34.235
   308.0,-0.001604,-0.000793,-0.014965,0.000133,  34.219
   309.0,-0.001604,-0.000790,-0.014729,0.000186,  34.204
   310.0,-0.001600,-0.000779,-0.014656,0.000186,  34.192
   311.0,-0.001609,-0.000786,-0.014556,0.000122,  34.169
   312.0,-0.001620,-0.000795,-0.014592,0.000161,  34.152
   313.0,-0.001623,-0.000795,-0.014765,0.000147,  34.137
   314.0,-0.001611,-0.000807,-0.014675,0.000172,  34.127
   315.0,-0.001626,-0.000799,-0.014747,0.000186,  34.104
   316.0,-0.001626,-0.000812,-0.014928,0.000133,  34.085
   317.0,-0.001621,-0.000805,-0.014873,0.000197,  34.066
   318.0,-0.001637,-0.000825,-0.014819,0.000172,  34.042
   319.0,-0.001633,-0.000830,-0.014955,0.000147,  34.026
   320.0,-0.001636,-0.000827,-0.015146,0.000109,  33.995
   321.0,-0.001661,-0.000824,-0.014893,0.000119,  33.978
   322.0,-0.001646,-0.000807,-0.015020,0.000186,  33.955
   323.0,-0.001638,-0.000810,-0.014811,0.000186,  33.944
   324.0,-0.001626,-0.000803,-0.014901,0.000147,  33.924
   325.0,-0.001619,-0.000796,-0.014874,0.000214,  33.912
   326.0,-0.001615,-0.000779,-0.014684,0.000175,  33.912
   327.0,-0.001604,-0.000790,-0.014701,0.000175,  33.903
   328.0,-0.001593,-0.000760,-0.014592,0.000164,  33.914
   329.0,-0.001593,-0.000756,-0.014691,0.000189,  33.923
   330.0,-0.001585,-0.000758,-0.014673,0.000214,  33.930
   331.0,-0.001604,-0.000765,-0.014691,0.000214,  33.943
   332.0,-0.001603,-0.000777,-0.014746,0.000200,  33.951
   333.0,-0.001607,-0.000775,-0.014882,0.000214,  33.959
   334.0,-0.001622,-0.000790,-0.017948,0.000122,  33.972
   335.0,-0.001614,-0.000790,-0.015933,0.000186,  33.979
   336.0,-0.001625,-0.000801,-0.015327,0.000186,  33.985
   337.0,-0.001633,-0.000809,-0.015371,0.000161,  33.989
   338.0,-0.001637,-0.000804,-0.015236,0.000147,  33.996
   339.0,-0.001633,-0.000805,-0.015091,0.000109,  34.006
   340.0,-0.001644,-0.000815,-0.014992,0.000161,  34.009
   341.0,-0.001653,-0.000824,-0.018031,0.000161,  34.021
   342.0,-0.001661,-0.000841,-0.016106,0.000133,  34.025
   343.0,-0.001648,-0.000840,-0.015690,0.000133,  34.043
   344.0,-0.001653,-0.000835,-0.015644,0.000133,  34.063
   345.0,-0.001648,-0.000843,-0.015284,0.000144,  34.067
   346.0,-0.001648,-0.000820,-0.015284,0.000211,  34.075
   347.0,-0.001641,-0.000805,-0.015356,0.000158,  34.076
   348.0,-0.001641,-0.000798,-0.015111,0.000186,  34.076
   349.0,-0.001626,-0.000788,-0.015056,0.000186,  34.083
   350.0,-0.001615,-0.000786,-0.015010,0.000158,  34.094
   351.0,-0.001611,-0.000782,-0.015334,0.000186,  34.093
   352.0,-0.001620,-0.000782,-0.015153,0.000214,  34.098
   353.0,-0.001597,-0.000771,-0.015135,0.000164,  34.101
   354.0,-0.001594,-0.000767,-0.014827,0.000175,  34.104
   355.0,-0.001605,-0.000770,-0.014691,0.000203,  34.108
   356.0,-0.001602,-0.000774,-0.014981,0.000175,  34.110
   357.0,-0.001614,-0.000785,-0.015451,0.000164,  34.110
   358.0,-0.001622,-0.000788,-0.015343,0.000161,  34.112
   359.0,-0.001625,-0.000797,-0.014947,0.000200,  34.118
   360.0,-0.001630,-0.000798,-0.014920,0.000200,  34.119
   361.0,-0.001630,-0.000793,-0.014975,0.000186,  34.130
   362.0,-0.001632,-0.000807,-0.015310,0.000186,  34.127
   363.0,-0.001643,-0.000803,-0.015229,0.000147,  34.132
   364.0,-0.001642,-0.000814,-0.015445,0.000147,  34.143
   365.0,-0.001646,-0.000802,-0.015446,0.000169,  34.146
   366.0,-0.001642,-0.000816,-0.015446,0.000186,  34.154
   367.0,-0.001642,-0.000828,-0.015248,0.000172,  34.157
   368.0,-0.001651,-0.000815,-0.015185,0.000133,  34.152
   369.0,-0.001643,-0.000816,-0.015375,0.000197,  34.157
   370.0,-0.001652,-0.000823,-0.015375,0.000208,  34.162
   371.0,-0.001652,-0.000815,-0.015402,0.000186,  34.168
   372.0,-0.001666,-0.000818,-0.015348,0.000186,  34.166
   373.0,-0.001671,-0.000823,-0.015421,0.000186,  34.166
   374.0,-0.001663,-0.000814,-0.015403,0.000186,  34.161
   375.0,-0.001652,-0.000804,-0.015412,0.000172,  34.164
   376.0,-0.001652,-0.000814,-0.015357,0.000158,  34.159
   377.0,-0.001636,-0.000797,-0.015492,0.000225,  34.157
   378.0,-0.001627,-0.000780,-0.015492,0.000186,  34.145
   379.0,-0.001624,-0.000780,-0.015257,0.000186,  34.138
   380.0,-0.001616,-0.000774,-0.015185,0.000211,  34.133
   381.0,-0.001624,-0.000774,-0.015293,0.000225,  34.125
   382.0,-0.001627,-0.000783,-0.015275,0.000225,  34.117
   383.0,-0.001635,-0.000787,-0.015564,0.000186,  34.109
   384.0,-0.001638,-0.000791,-0.015565,0.000158,  34.108
   385.0,-0.001646,-0.000800,-0.015538,0.000197,  34.109
   386.0,-0.001646,-0.000805,-0.015421,0.000197,  34.106
   387.0,-0.001649,-0.000814,-0.015548,0.000211,  34.101
   388.0,-0.001649,-0.000818,-0.015340,0.000172,  34.096
   389.0,-0.001646,-0.000816,-0.015458,0.000158,  34.092
   390.0,-0.001642,-0.000814,-0.015449,0.000211,  34.089
   391.0,-0.001642,-0.000812,-0.015304,0.000183,  34.085
   392.0,-0.001638,-0.000793,-0.015522,0.000158,  34.089
   393.0,-0.001626,-0.000790,-0.015377,0.000211,  34.089
   394.0,-0.001634,-0.000813,-0.015549,0.000211,  34.088
   395.0,-0.001626,-0.000798,-0.016532,0.000211,  34.088
   396.0,-0.001630,-0.000802,-0.016261,0.000211,  34.090
   397.0,-0.001623,-0.000783,-0.015828,0.000172,  34.089
   398.0,-0.001623,-0.000783,-0.015566,0.000211,  34.090
   399.0,-0.001621,-0.000772,-0.015619,0.000186,  34.089
   400.0,-0.001630,-0.000775,-0.015275,0.000172,  34.092
   401.0,-0.001614,-0.000775,-0.015211,0.000186,  34.093
   402.0,-0.001606,-0.000768,-0.015191,0.000172,  34.097
   403.0,-0.001599,-0.000752,-0.014963,0.000186,  34.095
   404.0,-0.001577,-0.000740,-0.014444,0.000200,  34.104
   405.0,-0.001557,-0.000728,-0.013940,0.000161,  34.106
   406.0,-0.001531,-0.000694,-0.013200,0.000253,  34.121
   407.0,-0.001505,-0.000674,-0.012274,0.000214,  34.124
   408.0,-0.001457,-0.000646,-0.011465,0.000239,  34.127
   409.0,-0.001406,-0.000613,-0.010554,0.000225,  34.135
   410.0,-0.001340,-0.000566,-0.009161,0.000186,  34.139
   411.0,-0.001245,-0.000529,-0.007384,0.000235,  34.142
   412.0,-0.001149,-0.000462,-0.005571,0.000200,  34.145
   413.0,-0.001042,-0.000389,-0.003665,0.000214,  34.146
   414.0,-0.000916,-0.000305,-0.000980,0.000253,  34.153
   415.0,-0.000756,-0.000189,0.001892,0.000228,  34.153
   416.0,-0.000560,-0.000073,0.004364,0.000239,  34.151
   417.0,-0.000327,0.000073,0.008031,0.000214,  34.150
   418.0,-0.000073,0.000214,0.012235,0.000274,  34.147
   419.0,0.000213,0.000406,0.016919,0.000263,  34.144
   420.0,0.000479,0.000610,0.021790,0.000225,  34.135
   421.0,0.000822,0.000851,0.027767,0.000235,  34.137
   422.0,0.001213,0.001116,0.033746,0.000235,  34.133
   423.0,0.001644,0.001422,0.040024,0.000186,  34.138
   424.0,0.002125,0.001731,0.047590,0.000263,  34.135
   425.0,0.002656,0.002040,0.054587,0.000239,  34.133
   426.0,0.003215,0.002433,0.064601,0.000186,  34.133
   427.0,0.003698,0.002872,0.074611,0.000253,  34.126
   428.0,0.004342,0.003326,0.085086,0.000291,  34.128
   429.0,0.005000,0.003814,0.094491,0.000291,  34.126
   430.0,0.005732,0.004344,0.105686,0.000281,  34.125
   431.0,0.006464,0.004804,0.117417,0.000256,  34.125
   432.0,0.007215,0.005329,0.130292,0.000281,  34.122
   433.0,0.008037,0.005936,0.143234,0.000281,  34.114
   434.0,0.008667,0.006544,0.156529,0.000256,  34.107
   435.0,0.009518,0.007169,0.170297,0.000291,  34.101
   436.0,0.010381,0.007836,0.181639,0.000267,  34.084
   437.0,0.011248,0.008518,0.196330,0.000319,  34.071
   438.0,0.012134,0.009083,0.210849,0.000319,  34.058
   439.0,0.013025,0.009784,0.225361,0.000256,  34.041
   440.0,0.013879,0.010511,0.240291,0.000333,  34.026
   441.0,0.014598,0.011222,0.254757,0.000322,  34.005
   442.0,0.015502,0.011954,0.269551,0.000361,  33.986
   443.0,0.016369,0.012696,0.283184,0.000361,  33.965
   444.0,0.017247,0.013402,0.295571,0.000361,  33.928
   445.0,0.018071,0.014058,0.309599,0.000375,  33.905
   446.0,0.018881,0.014673,0.322977,0.000361,  33.874
   447.0,0.019652,0.015335,0.336315,0.000336,  33.836
   448.0,0.020289,0.016003,0.349525,0.000431,  33.806
   449.0,0.021014,0.016627,0.362183,0.000406,  33.764
   450.0,0.021730,0.017238,0.372804,0.000445,  33.728
   451.0,0.022413,0.017804,0.383662,0.000459,  33.684
   452.0,0.023053,0.018258,0.395221,0.000448,  33.637
   453.0,0.023635,0.018781,0.406202,0.000487,  33.583
   454.0,0.024219,0.019279,0.416539,0.000515,  33.526
   455.0,0.024646,0.019744,0.426999,0.000490,  33.463
   456.0,0.025171,0.020149,0.436642,0.000543,  33.400
   457.0,0.025628,0.020508,0.444441,0.000553,  33.324
   458.0,0.026049,0.020813,0.453956,0.000529,  33.234
   459.0,0.026480,0.021074,0.463118,0.000543,  33.156
   460.0,0.026860,0.021321,0.472240,0.000490,  33.059
   461.0,0.027244,0.021559,0.481199,0.000543,  32.958
   462.0,0.027562,0.021791,0.490315,0.000465,  32.856
   463.0,0.027965,0.021961,0.500134,0.000490,  32.740
   464.0,0.028371,0.022128,0.505693,0.000501,  32.618
   465.0,0.028839,0.022287,0.518746,0.000434,  32.483
   466.0,0.029331,0.022409,0.530604,0.000378,  32.337
   467.0,0.029915,0.022593,0.544531,0.000350,  32.186
   468.0,0.030530,0.022804,0.558627,0.000270,  32.018
   469.0,0.031222,0.023066,0.575989,0.000281,  31.834
   470.0,0.032106,0.023357,0.594500,0.000253,  31.650
   471.0,0.033196,0.023752,0.612848,0.000249,  31.453
   472.0,0.034377,0.024187,0.637578,0.000225,  31.250
   473.0,0.035782,0.024642,0.665929,0.000194,  31.050
   474.0,0.037340,0.025291,0.696937,0.000222,  30.864
   475.0,0.038795,0.025986,0.731832,0.000172,  30.683
   476.0,0.040490,0.026781,0.769324,0.000211,  30.512
   477.0,0.042488,0.027668,0.806990,0.000186,  30.375
   478.0,0.044556,0.028594,0.843036,0.000225,  30.268
   479.0,0.046716,0.029507,0.886545,0.000291,  30.195
   480.0,0.048953,0.030402,0.931444,0.000347,  30.160
   481.0,0.051209,0.031447,0.976263,0.000312,  30.173
   482.0,0.052945,0.032452,1.019851,0.000389,  30.219
   483.0,0.055130,0.033463,1.063197,0.000406,  30.313
   484.0,0.057247,0.034420,1.099656,0.000406,  30.444
   485.0,0.059311,0.035336,1.136081,0.000395,  30.615
   486.0,0.061397,0.036115,1.176025,0.000371,  30.806
   487.0,0.063327,0.037031,1.213024,0.000423,  31.036
   488.0,0.064911,0.037892,1.248270,0.000462,  31.276
   489.0,0.066496,0.038655,1.279868,0.000423,  31.536
   490.0,0.068134,0.039410,1.310425,0.000501,  31.799
   491.0,0.069684,0.040115,1.332589,0.000476,  32.071
   492.0,0.071165,0.040765,1.359413,0.000543,  32.337
   493.0,0.072547,0.041276,1.384716,0.000518,  32.607
   494.0,0.073828,0.041867,1.406852,0.000532,  32.857
   495.0,0.075012,0.042384,1.427512,0.000546,  33.104
   496.0,0.075866,0.042875,1.447064,0.000521,  33.335
   497.0,0.076819,0.043291,1.463173,0.000585,  33.558
   498.0,0.077717,0.043684,1.474843,0.000627,  33.755
   499.0,0.078493,0.043974,1.488024,0.000651,  33.948
   500.0,0.079165,0.044228,1.499776,0.000665,  34.113
   501.0,0.079753,0.044467,1.508247,0.000640,  34.271
   502.0,0.080217,0.044655,1.516217,0.000602,  34.408
   503.0,0.080528,0.044782,1.521811,0.000640,  34.531
   504.0,0.080825,0.044871,1.526245,0.000693,  34.648
   505.0,0.081059,0.044932,1.528817,0.000693,  34.753
   506.0,0.081189,0.044948,1.530725,0.000668,  34.845
   507.0,0.081237,0.044929,1.530734,0.000707,  34.922
   508.0,0.081233,0.044871,1.530725,0.000696,  34.992
   509.0,0.081153,0.044776,1.527562,0.000696,  35.047
   510.0,0.081015,0.044642,1.524998,0.000724,  35.100
   511.0,0.080798,0.044492,1.521193,0.000707,  35.153
   512.0,0.080519,0.044298,1.516866,0.000696,  35.182
   513.0,0.080200,0.044072,1.511270,0.000721,  35.218
   514.0,0.079819,0.043881,1.504565,0.000682,  35.239
   515.0,0.079394,0.043611,1.496784,0.000644,  35.258
   516.0,0.078948,0.043344,1.488568,0.000696,  35.282
   517.0,0.078555,0.043059,1.479373,0.000696,  35.293
   518.0,0.078047,0.042739,1.469860,0.000682,  35.296
   519.0,0.077492,0.042431,1.462653,0.000696,  35.305
   520.0,0.076921,0.042114,1.451826,0.000672,  35.301
   521.0,0.076337,0.041865,1.441309,0.000696,  35.302
   522.0,0.075713,0.041517,1.430007,0.000696,  35.298
   523.0,0.075118,0.041160,1.417947,0.000774,  35.290
   524.0,0.074545,0.040809,1.405786,0.000735,  35.293
   525.0,0.073854,0.040418,1.392948,0.000710,  35.285
   526.0,0.073169,0.040040,1.381449,0.000710,  35.275
   527.0,0.072511,0.039681,1.368922,0.000724,  35.267
   528.0,0.071777,0.039356,1.355907,0.000763,  35.249
   529.0,0.071052,0.038957,1.342385,0.000774,  35.238
   530.0,0.070406,0.038555,1.328493,0.000774,  35.222
   531.0,0.069705,0.038137,1.313087,0.000749,  35.213
   532.0,0.068945,0.037743,1.298940,0.000682,  35.184
   533.0,0.068207,0.037341,1.287447,0.000749,  35.173
   534.0,0.067458,0.036925,1.272365,0.000735,  35.151
   535.0,0.066693,0.036606,1.257752,0.000682,  35.137
   536.0,0.065947,0.036216,1.242632,0.000721,  35.106
   537.0,0.065193,0.035803,1.227131,0.000707,  35.093
   538.0,0.064577,0.035395,1.211467,0.000696,  35.081
   539.0,0.063813,0.035006,1.195801,0.000721,  35.056
   540.0,0.063042,0.034610,1.181504,0.000682,  35.042
   541.0,0.062289,0.034224,1.168485,0.000644,  35.025
   542.0,0.061541,0.033914,1.152181,0.000693,  35.010
   543.0,0.060812,0.033525,1.137162,0.000696,  34.986
   544.0,0.060114,0.033122,1.121137,0.000696,  34.964
   545.0,0.059463,0.032735,1.105699,0.000682,  34.953
   546.0,0.058733,0.032357,1.090094,0.000644,  34.926
   547.0,0.058017,0.031980,1.077561,0.000682,  34.902
   548.0,0.057298,0.031684,1.062049,0.000696,  34.893
   549.0,0.056584,0.031323,1.046203,0.000658,  34.870
   550.0,0.055888,0.030956,1.030574,0.000735,  34.854
   551.0,0.055281,0.030603,1.015797,0.000658,  34.837
   552.0,0.054650,0.030255,1.000595,0.000658,  34.822
   553.0,0.053957,0.029901,0.986685,0.000654,  34.799
   554.0,0.053266,0.029544,0.973349,0.000682,  34.793
   555.0,0.052609,0.029233,0.958653,0.000707,  34.768
   556.0,0.051944,0.028929,0.944075,0.000682,  34.748
   557.0,0.051288,0.028596,0.928853,0.000658,  34.734
   558.0,0.050787,0.028278,0.914660,0.000707,  34.722
   559.0,0.050167,0.027962,0.900165,0.000707,  34.706
   560.0,0.049568,0.027653,0.887621,0.000693,  34.695
   561.0,0.048962,0.027354,0.874034,0.000668,  34.681
   562.0,0.048381,0.027104,0.860376,0.000658,  34.667
   563.0,0.047814,0.026828,0.846639,0.000682,  34.662
   564.0,0.047263,0.026550,0.833085,0.000696,  34.658
   565.0,0.046820,0.026282,0.819789,0.000658,  34.652
   566.0,0.046254,0.026010,0.806860,0.000682,  34.647
   567.0,0.045721,0.025739,0.796097,0.000707,  34.633
   568.0,0.045206,0.025467,0.783191,0.000693,  34.626
   569.0,0.044700,0.025280,0.770824,0.000668,  34.620
   570.0,0.044207,0.025034,0.758062,0.000679,  34.607
   571.0,0.043738,0.024788,0.745469,0.000718,  34.606
   572.0,0.043335,0.024546,0.733389,0.000679,  34.597
   573.0,0.042880,0.024324,0.721255,0.000693,  34.595
   574.0,0.042429,0.024113,0.712007,0.000640,  34.591
   575.0,0.041986,0.023897,0.700293,0.000640,  34.584
   576.0,0.041548,0.023724,0.688803,0.000651,  34.572
   577.0,0.041135,0.023521,0.677586,0.000665,  34.564
   578.0,0.040758,0.023327,0.666404,0.000665,  34.554
   579.0,0.040440,0.023146,0.655844,0.000640,  34.554
   580.0,0.040068,0.022978,0.645460,0.000616,  34.547
   581.0,0.039717,0.022804,0.637105,0.000640,  34.543
   582.0,0.039358,0.022649,0.627107,0.000627,  34.543
   583.0,0.039007,0.022497,0.617204,0.000648,  34.538
   584.0,0.038673,0.022343,0.607492,0.000662,  34.536
   585.0,0.038395,0.022198,0.597769,0.000627,  34.537
   586.0,0.038113,0.022063,0.588661,0.000637,  34.528
   587.0,0.037824,0.021921,0.580564,0.000648,  34.524
   588.0,0.037563,0.021802,0.572331,0.000662,  34.517
   589.0,0.037294,0.021705,0.563687,0.000662,  34.507
   590.0,0.037038,0.021600,0.555688,0.000676,  34.500
   591.0,0.036789,0.021487,0.547688,0.000676,  34.498
   592.0,0.036625,0.021412,0.539749,0.000662,  34.487
   593.0,0.036425,0.021330,0.532108,0.000637,  34.483
   594.0,0.036215,0.021251,0.525576,0.000637,  34.480
   595.0,0.036019,0.021175,0.518952,0.000676,  34.469
   596.0,0.035851,0.021119,0.512233,0.000651,  34.463
   597.0,0.035700,0.021066,0.505286,0.000613,  34.452
   598.0,0.035548,0.021010,0.498331,0.000599,  34.439
   599.0,0.035444,0.020965,0.492007,0.000588,  34.424
   600.0,0.035321,0.020905,0.485929,0.000627,  34.417
   601.0,0.035193,0.020864,0.479457,0.000637,  34.408
   602.0,0.035081,0.020834,0.474750,0.000637,  34.398
   603.0,0.034961,0.020802,0.469563,0.000648,  34.386
   604.0,0.034877,0.020781,0.463825,0.000637,  34.364
   605.0,0.034781,0.020752,0.458522,0.000609,  34.359
   606.0,0.034725,0.020737,0.453577,0.000571,  34.341
   607.0,0.034665,0.020732,0.448670,0.000595,  34.337
   608.0,0.034617,0.020722,0.444845,0.000571,  34.334
   609.0,0.034557,0.020719,0.439875,0.000557,  34.325
   610.0,0.034526,0.020713,0.435621,0.000595,  34.329
   611.0,0.034527,0.020753,0.431399,0.000571,  34.326
   612.0,0.034503,0.020746,0.427456,0.000623,  34.311
   613.0,0.034495,0.020771,0.423625,0.000595,  34.306
   614.0,0.034503,0.020807,0.419788,0.000571,  34.306
   615.0,0.034499,0.020833,0.416791,0.000609,  34.304
   616.0,0.034511,0.020864,0.413209,0.000571,  34.301
   617.0,0.034551,0.020908,0.409870,0.000634,  34.302
   618.0,0.034583,0.020958,0.406409,0.000648,  34.295
   619.0,0.034599,0.021001,0.403514,0.000599,  34.296
   620.0,0.034619,0.021033,0.400828,0.000599,  34.292
   621.0,0.034658,0.021080,0.397732,0.000651,  34.293
   622.0,0.034702,0.021135,0.395334,0.000676,  34.289
   623.0,0.034782,0.021196,0.392949,0.000599,  34.291
   624.0,0.034846,0.021253,0.390632,0.000560,  34.291
   625.0,0.034921,0.021334,0.388576,0.000599,  34.292
   626.0,0.034977,0.021393,0.386127,0.000648,  34.296
   627.0,0.035049,0.021454,0.383974,0.000599,  34.299
   628.0,0.035126,0.021513,0.381688,0.000637,  34.294
   629.0,0.035204,0.021598,0.380100,0.000637,  34.300
   630.0,0.035296,0.021676,0.378167,0.000623,  34.298
   631.0,0.035433,0.021752,0.376795,0.000623,  34.296
   632.0,0.035524,0.021833,0.375199,0.000585,  34.304
   633.0,0.035636,0.021919,0.373459,0.000546,  34.302
   634.0,0.035705,0.021983,0.371786,0.000599,  34.305
   635.0,0.035804,0.022076,0.370465,0.000599,  34.309
   636.0,0.035932,0.022162,0.369448,0.000623,  34.309
   637.0,0.036060,0.022235,0.368307,0.000571,  34.313
   638.0,0.036180,0.022326,0.367336,0.000648,  34.315
   639.0,0.036308,0.022403,0.366178,0.000623,  34.317
   640.0,0.036413,0.022513,0.365087,0.000599,  34.315
   641.0,0.036533,0.022604,0.363901,0.000623,  34.319
   642.0,0.036689,0.022707,0.363269,0.000599,  34.318
   643.0,0.036842,0.022813,0.362722,0.000560,  34.322
   644.0,0.036962,0.022888,0.362085,0.000599,  34.325
   645.0,0.037098,0.022973,0.361501,0.000560,  34.325
   646.0,0.037251,0.023068,0.360420,0.000599,  34.320
   647.0,0.037347,0.023167,0.360027,0.000648,  34.316
   648.0,0.037476,0.023253,0.359394,0.000571,  34.311
   649.0,0.037599,0.023342,0.359116,0.000581,  34.308
   650.0,0.037748,0.023448,0.358863,0.000543,  34.312
   651.0,0.037897,0.023533,0.358499,0.000609,  34.304
   652.0,0.038041,0.023627,0.357651,0.000581,  34.299
   653.0,0.038158,0.023715,0.357370,0.000543,  34.299
   654.0,0.038286,0.023816,0.357256,0.000571,  34.295
   655.0,0.038448,0.023916,0.357246,0.000553,  34.296
   656.0,0.038563,0.024007,0.357031,0.000578,  34.293
   657.0,0.038709,0.024099,0.356817,0.000578,  34.291
   658.0,0.038866,0.024180,0.356807,0.000567,  34.290
   659.0,0.039002,0.024267,0.356559,0.000557,  34.282
   660.0,0.039155,0.024387,0.356746,0.000543,  34.274
   661.0,0.039288,0.024482,0.356746,0.000543,  34.269
   662.0,0.039442,0.024579,0.356874,0.000567,  34.260
   663.0,0.039571,0.024669,0.356654,0.000543,  34.249
   664.0,0.039720,0.024772,0.357018,0.000595,  34.241
   665.0,0.039873,0.024842,0.357104,0.000567,  34.227
   666.0,0.040023,0.024943,0.356491,0.000529,  34.214
   667.0,0.040160,0.025055,0.357098,0.000490,  34.211
   668.0,0.040298,0.025143,0.357280,0.000529,  34.206
   669.0,0.040431,0.025256,0.356902,0.000504,  34.196
   670.0,0.040568,0.025344,0.354441,0.000529,  34.185
   671.0,0.040706,0.025423,0.356939,0.000529,  34.175
   672.0,0.040864,0.025504,0.357335,0.000479,  34.172
   673.0,0.041005,0.025587,0.357612,0.000543,  34.168
   674.0,0.041127,0.025682,0.358426,0.000529,  34.165
   675.0,0.041244,0.025765,0.358762,0.000515,  34.165
   676.0,0.041386,0.025861,0.357730,0.000515,  34.158
   677.0,0.041507,0.025940,0.357519,0.000539,  34.155
   678.0,0.041617,0.026015,0.358923,0.000515,  34.147
   679.0,0.041775,0.026103,0.359634,0.000476,  34.143
   680.0,0.041896,0.026189,0.360177,0.000539,  34.141
   681.0,0.042006,0.026270,0.360644,0.000539,  34.136
   682.0,0.042115,0.026349,0.361160,0.000553,  34.125
   683.0,0.042253,0.026442,0.361343,0.000539,  34.120
   684.0,0.042371,0.026507,0.361220,0.000529,  34.112
   685.0,0.042489,0.026580,0.361413,0.000567,  34.116
   686.0,0.042615,0.026655,0.361949,0.000578,  34.118
   687.0,0.042728,0.026745,0.362262,0.000592,  34.114
   688.0,0.042818,0.026815,0.362883,0.000553,  34.116
   689.0,0.042936,0.026891,0.363299,0.000529,  34.118
   690.0,0.043033,0.026948,0.363287,0.000553,  34.121
   691.0,0.043151,0.027019,0.363841,0.000592,  34.123
   692.0,0.043253,0.027082,0.364352,0.000592,  34.125
   693.0,0.043350,0.027143,0.364306,0.000564,  34.133
   694.0,0.043435,0.027196,0.364387,0.000564,  34.138
   695.0,0.043538,0.027265,0.364693,0.000539,  34.145
   696.0,0.043627,0.027316,0.365136,0.000539,  34.161
   697.0,0.043705,0.027381,0.365268,0.000515,  34.157
   698.0,0.043794,0.027448,0.365643,0.000476,  34.162
   699.0,0.043888,0.027505,0.366112,0.000526,  34.166
   700.0,0.043965,0.027548,0.365884,0.000515,  34.172
   701.0,0.044055,0.027582,0.365912,0.000504,  34.175
   702.0,0.044124,0.027652,0.366564,0.000543,  34.174
   703.0,0.044193,0.027699,0.366931,0.000539,  34.183
   704.0,0.044279,0.027751,0.366880,0.000567,  34.184
   705.0,0.044340,0.027796,0.367100,0.000529,  34.187
   706.0,0.044401,0.027836,0.367138,0.000501,  34.189
   707.0,0.044467,0.027873,0.367486,0.000515,  34.192
   708.0,0.044532,0.027906,0.367351,0.000515,  34.196
   709.0,0.044581,0.027941,0.367681,0.000437,  34.199
   710.0,0.044655,0.028009,0.367917,0.000451,  34.203
   711.0,0.044696,0.028033,0.367961,0.000476,  34.205
   712.0,0.044732,0.028054,0.368172,0.000529,  34.213
   713.0,0.044760,0.028077,0.368389,0.000504,  34.215
   714.0,0.044813,0.028108,0.368625,0.000479,  34.214
   715.0,0.044858,0.028144,0.368547,0.000553,  34.219
   716.0,0.044895,0.028181,0.368175,0.000515,  34.214
   717.0,0.044923,0.028204,0.368165,0.000515,  34.214
   718.0,0.044948,0.028217,0.368071,0.000529,  34.210
   719.0,0.044965,0.028222,0.368068,0.000476,  34.208
   720.0,0.044981,0.028234,0.368301,0.000515,  34.208
   721.0,0.044993,0.028234,0.368178,0.000515,  34.208
   722.0,0.045013,0.028249,0.368090,0.000515,  34.205
   723.0,0.045038,0.028262,0.367879,0.000539,  34.193
   724.0,0.045042,0.028262,0.367574,0.000501,  34.189
   725.0,0.045029,0.028249,0.367449,0.000539,  34.189
   726.0,0.045042,0.028265,0.367317,0.000515,  34.178
   727.0,0.045037,0.028277,0.366846,0.000437,  34.174
   728.0,0.045029,0.028271,0.366307,0.000462,  34.168
   729.0,0.045050,0.028286,0.366422,0.000462,  34.169
   730.0,0.045055,0.028276,0.366134,0.000515,  34.167
   731.0,0.045051,0.028276,0.366112,0.000501,  34.166
   732.0,0.045030,0.028268,0.365702,0.000423,  34.160
   733.0,0.045009,0.028260,0.365611,0.000462,  34.159
   734.0,0.044985,0.028254,0.365364,0.000462,  34.156
   735.0,0.044965,0.028245,0.364758,0.000476,  34.150
   736.0,0.044940,0.028224,0.364371,0.000476,  34.145
   737.0,0.044911,0.028206,0.363987,0.000504,  34.142
   738.0,0.044866,0.028188,0.363312,0.000490,  34.124
   739.0,0.044846,0.028169,0.363091,0.000490,  34.117
   740.0,0.044797,0.028147,0.362782,0.000451,  34.111
   741.0,0.044752,0.028129,0.362022,0.000490,  34.108
   742.0,0.044703,0.028096,0.361400,0.000529,  34.108
   743.0,0.044646,0.028057,0.360817,0.000490,  34.109
   744.0,0.044572,0.028004,0.360264,0.000490,  34.109
   745.0,0.044523,0.027980,0.357690,0.000451,  34.113
   746.0,0.044449,0.027927,0.358502,0.000501,  34.115
   747.0,0.044368,0.027893,0.358134,0.000437,  34.118
   748.0,0.044303,0.027840,0.357930,0.000423,  34.118
   749.0,0.044221,0.027791,0.356903,0.000487,  34.119
   750.0,0.044160,0.027742,0.356389,0.000473,  34.119
   751.0,0.044078,0.027691,0.355551,0.000487,  34.114
   752.0,0.044018,0.027648,0.354885,0.000437,  34.117
   753.0,0.043948,0.027612,0.354302,0.000409,  34.112
   754.0,0.043854,0.027565,0.353482,0.000448,  34.112
   755.0,0.043777,0.027516,0.352792,0.000434,  34.106
   756.0,0.043688,0.027449,0.351876,0.000512,  34.104
   757.0,0.043615,0.027401,0.351047,0.000473,  34.100
   758.0,0.043533,0.027351,0.350276,0.000448,  34.093
   759.0,0.043435,0.027292,0.349623,0.000473,  34.083
   760.0,0.043354,0.027250,0.348723,0.000448,  34.080
   761.0,0.043240,0.027185,0.347569,0.000409,  34.060
   762.0,0.043113,0.027112,0.346832,0.000498,  34.053
   763.0,0.043024,0.027039,0.345900,0.000473,  34.039
   764.0,0.042938,0.026990,0.345073,0.000473,  34.032
   765.0,0.042857,0.026950,0.344738,0.000487,  34.025
   766.0,0.042764,0.026899,0.343530,0.000448,  34.008
   767.0,0.042654,0.026849,0.342294,0.000487,  34.001
   768.0,0.042528,0.026763,0.341683,0.000501,  33.996
   769.0,0.042389,0.026689,0.340645,0.000420,  33.994
   770.0,0.042309,0.026611,0.339593,0.000473,  33.989
   771.0,0.042170,0.026534,0.338582,0.000473,  33.987
   772.0,0.042057,0.026462,0.337563,0.000473,  33.991
   773.0,0.041944,0.026385,0.336715,0.000487,  33.999
   774.0,0.041826,0.026316,0.335827,0.000409,  34.008
   775.0,0.041672,0.026228,0.334276,0.000448,  34.010
   776.0,0.041530,0.026149,0.333405,0.000459,  34.011
   777.0,0.041416,0.026063,0.332289,0.000473,  34.014
   778.0,0.041291,0.025984,0.330857,0.000448,  34.017
   779.0,0.041157,0.025908,0.330133,0.000395,  34.026
   780.0,0.040999,0.025810,0.329087,0.000434,  34.032
   781.0,0.040849,0.025728,0.327911,0.000395,  34.045
   782.0,0.040703,0.025637,0.326099,0.000395,  34.061
   783.0,0.040562,0.025547,0.325095,0.000434,  34.065
   784.0,0.040453,0.025461,0.324012,0.000395,  34.071
   785.0,0.040295,0.025369,0.322850,0.000459,  34.076
   786.0,0.040159,0.025284,0.321799,0.000459,  34.084
   787.0,0.040005,0.025186,0.320633,0.000406,  34.086
   788.0,0.039843,0.025110,0.319064,0.000420,  34.085
   789.0,0.039702,0.025021,0.317302,0.000434,  34.086
   790.0,0.039540,0.024927,0.316592,0.000395,  34.094
   791.0,0.039407,0.024824,0.315196,0.000367,  34.095
   792.0,0.039234,0.024723,0.314058,0.000343,  34.092
   793.0,0.039068,0.024618,0.313048,0.000420,  34.093
   794.0,0.038916,0.024517,0.311846,0.000445,  34.089
   795.0,0.038754,0.024438,0.310174,0.000406,  34.083
   796.0,0.038606,0.024341,0.309117,0.000431,  34.075
   797.0,0.038465,0.024226,0.307687,0.000420,  34.068
   798.0,0.038267,0.024123,0.306367,0.000431,  34.065
   799.0,0.038087,0.023999,0.304859,0.000431,  34.051
   800.0,0.037902,0.023878,0.303614,0.000406,  34.044
   801.0,0.037737,0.023782,0.301993,0.000417,  34.031
   802.0,0.037573,0.023695,0.300634,0.000392,  34.017
   803.0,0.037400,0.023591,0.299410,0.000329,  34.009
   804.0,0.037264,0.023497,0.297946,0.000392,  34.001
   805.0,0.037067,0.023370,0.296290,0.000392,  33.988
   806.0,0.036874,0.023245,0.295013,0.000392,  33.977
   807.0,0.036715,0.023145,0.293638,0.000367,  33.959
   808.0,0.036534,0.023060,0.292249,0.000367,  33.947
   809.0,0.036361,0.022948,0.290698,0.000367,  33.941
   810.0,0.036202,0.022845,0.289373,0.000367,  33.948
   811.0,0.036021,0.022717,0.287859,0.000392,  33.944
   812.0,0.035821,0.022602,0.286441,0.000431,  33.940
   813.0,0.035625,0.022482,0.285085,0.000431,  33.944
   814.0,0.035454,0.022359,0.283614,0.000406,  33.944
   815.0,0.035286,0.022279,0.282399,0.000392,  33.945
   816.0,0.035090,0.022166,0.280937,0.000420,  33.945
   817.0,0.034927,0.022059,0.279158,0.000445,  33.953
   818.0,0.034759,0.021944,0.277786,0.000445,  33.955
   819.0,0.034556,0.021806,0.275915,0.000470,  33.956
   820.0,0.034357,0.021691,0.274845,0.000417,  33.958
   821.0,0.034162,0.021562,0.273318,0.000470,  33.959
   822.0,0.033966,0.021472,0.271929,0.000428,  33.967
   823.0,0.033783,0.021349,0.270334,0.000442,  33.971
   824.0,0.033576,0.021217,0.268134,0.000392,  33.977
   825.0,0.033405,0.021102,0.266715,0.000403,  33.980
   826.0,0.033198,0.020976,0.264627,0.000442,  33.984
   827.0,0.032995,0.020851,0.261219,0.000428,  33.986
   828.0,0.032817,0.020746,0.261791,0.000389,  33.983
   829.0,0.032614,0.020650,0.260510,0.000389,  33.986
   830.0,0.032416,0.020519,0.259125,0.000414,  33.982
   831.0,0.032242,0.020392,0.257606,0.000417,  33.979
   832.0,0.032067,0.020273,0.255918,0.000378,  33.975
   833.0,0.031886,0.020149,0.254322,0.000378,  33.976
   834.0,0.031679,0.020027,0.253226,0.000392,  33.970
   835.0,0.031464,0.019895,0.251621,0.000442,  33.969
   836.0,0.031243,0.019780,0.249997,0.000389,  33.952
   837.0,0.031040,0.019647,0.248417,0.000400,  33.946
   838.0,0.030878,0.019528,0.246772,0.000375,  33.935
   839.0,0.030689,0.019408,0.245143,0.000403,  33.931
   840.0,0.030479,0.019281,0.243869,0.000403,  33.920
   841.0,0.030286,0.019167,0.242491,0.000378,  33.918
   842.0,0.030072,0.019038,0.240408,0.000326,  33.909
   843.0,0.029851,0.018931,0.238924,0.000364,  33.897
   844.0,0.029659,0.018799,0.237365,0.000340,  33.894
   845.0,0.029497,0.018698,0.236021,0.000403,  33.882
   846.0,0.029336,0.018580,0.234349,0.000442,  33.883
   847.0,0.029151,0.018448,0.232363,0.000428,  33.884
   848.0,0.028923,0.018310,0.231108,0.000389,  33.883
   849.0,0.028699,0.018182,0.229521,0.000389,  33.885
   850.0,0.028482,0.018074,0.227972,0.000350,  33.880
   851.0,0.028289,0.017947,0.226574,0.000428,  33.876
   852.0,0.028128,0.017815,0.225009,0.000428,  33.880
   853.0,0.027923,0.017682,0.223513,0.000442,  33.883
   854.0,0.027730,0.017574,0.220931,0.000375,  33.892
   855.0,0.027522,0.017443,0.218769,0.000350,  33.898
   856.0,0.027310,0.017328,0.218147,0.000364,  33.907
   857.0,0.027111,0.017214,0.217106,0.000326,  33.912
   858.0,0.026907,0.017085,0.215206,0.000322,  33.915
   859.0,0.026774,0.016969,0.213965,0.000400,  33.916
   860.0,0.026570,0.016862,0.212463,0.000375,  33.925
   861.0,0.026378,0.016741,0.211352,0.000400,  33.928
   862.0,0.026192,0.016607,0.209612,0.000389,  33.934
   863.0,0.025988,0.016502,0.208045,0.000386,  33.938
   864.0,0.025780,0.016392,0.206505,0.000372,  33.950
   865.0,0.025610,0.016272,0.204792,0.000403,  33.962
   866.0,0.025465,0.016160,0.203352,0.000414,  33.964
   867.0,0.025254,0.016022,0.201801,0.000414,  33.969
   868.0,0.025043,0.015884,0.200410,0.000386,  33.980
   869.0,0.024836,0.015766,0.198886,0.000361,  33.987
   870.0,0.024645,0.015671,0.197205,0.000361,  33.998
   871.0,0.024453,0.015563,0.195711,0.000336,  34.006
   872.0,0.024262,0.015444,0.194294,0.000336,  34.008
   873.0,0.024115,0.015320,0.192584,0.000312,  34.014
   874.0,0.023904,0.015191,0.191245,0.000375,  34.011
   875.0,0.023714,0.015081,0.190123,0.000375,  34.019
   876.0,0.023531,0.014964,0.188683,0.000375,  34.022
   877.0,0.023325,0.014860,0.186957,0.000361,  34.028
   878.0,0.023127,0.014738,0.185168,0.000361,  34.036
   879.0,0.022937,0.014609,0.183688,0.000322,  34.045
   880.0,0.022790,0.014484,0.182307,0.000375,  34.056
   881.0,0.022604,0.014371,0.181152,0.000389,  34.061
   882.0,0.022393,0.014254,0.179664,0.000375,  34.073
   883.0,0.022215,0.014140,0.178448,0.000312,  34.076
   884.0,0.022032,0.014058,0.177121,0.000347,  34.082
   885.0,0.021850,0.013946,0.175422,0.000400,  34.087
   886.0,0.021692,0.013821,0.173935,0.000361,  34.095
   887.0,0.021521,0.013692,0.172519,0.000361,  34.099
   888.0,0.021353,0.013597,0.171080,0.000375,  34.102
   889.0,0.021174,0.013488,0.169832,0.000414,  34.108
   890.0,0.020995,0.013407,0.168494,0.000375,  34.105
   891.0,0.020811,0.013293,0.166830,0.000361,  34.105
   892.0,0.020618,0.013161,0.165180,0.000350,  34.108
   893.0,0.020451,0.013028,0.163902,0.000400,  34.102
   894.0,0.020253,0.012915,0.162627,0.000400,  34.105
   895.0,0.020083,0.012818,0.161448,0.000386,  34.097
   896.0,0.019910,0.012716,0.159920,0.000361,  34.100
   897.0,0.019736,0.012624,0.158567,0.000386,  34.095
   898.0,0.019551,0.012511,0.156797,0.000400,  34.094
   899.0,0.019376,0.012386,0.155560,0.000361,  34.082
   900.0,0.019229,0.012277,0.154504,0.000386,  34.076
   901.0,0.019069,0.012166,0.152998,0.000386,  34.070
   902.0,0.018903,0.012077,0.151953,0.000336,  34.069
   903.0,0.018741,0.011988,0.150590,0.000375,  34.058
   904.0,0.018560,0.011904,0.149240,0.000375,  34.052
   905.0,0.018379,0.011796,0.148035,0.000375,  34.056
   906.0,0.018237,0.011677,0.146576,0.000414,  34.048
   907.0,0.018065,0.011561,0.145149,0.000414,  34.055
   908.0,0.017883,0.011442,0.143730,0.000439,  34.051
   909.0,0.017734,0.011349,0.142723,0.000361,  34.046
   910.0,0.017565,0.011266,0.141645,0.000361,  34.039
   911.0,0.017381,0.011158,0.139851,0.000361,  34.036
   912.0,0.017225,0.011055,0.138440,0.000361,  34.036
   913.0,0.017091,0.010935,0.137534,0.000347,  34.030
   914.0,0.016918,0.010842,0.136180,0.000386,  34.031
   915.0,0.016764,0.010749,0.134808,0.000386,  34.033
   916.0,0.016607,0.010648,0.133906,0.000386,  34.036
   917.0,0.016451,0.010550,0.132690,0.000425,  34.032
   918.0,0.016275,0.010462,0.131552,0.000386,  34.025
   919.0,0.016122,0.010361,0.130053,0.000372,  34.021
   920.0,0.015984,0.010270,0.128708,0.000361,  34.022
   921.0,0.015827,0.010172,0.127308,0.000361,  34.026
   922.0,0.015692,0.010082,0.126180,0.000375,  34.024
   923.0,0.015547,0.009978,0.125383,0.000361,  34.022
   924.0,0.015382,0.009884,0.124200,0.000347,  34.014
   925.0,0.015241,0.009814,0.122955,0.000347,  34.007
   926.0,0.015079,0.009727,0.121820,0.000400,  34.009
   927.0,0.014966,0.009621,0.120734,0.000361,  34.009
   928.0,0.014813,0.009532,0.119322,0.000347,  34.005
   929.0,0.014664,0.009448,0.116523,0.000361,  34.005
   930.0,0.014520,0.009348,0.116025,0.000333,  34.009
   931.0,0.014378,0.009269,0.115727,0.000308,  34.004
   932.0,0.014238,0.009189,0.114635,0.000333,  33.998
   933.0,0.014106,0.009100,0.113811,0.000347,  33.998
   934.0,0.013987,0.009012,0.112901,0.000308,  33.999
   935.0,0.013831,0.008908,0.111763,0.000333,  33.998
   936.0,0.013687,0.008813,0.110866,0.000358,  33.998
   937.0,0.013530,0.008718,0.109722,0.000383,  33.999
   938.0,0.013418,0.008658,0.108381,0.000347,  33.992
   939.0,0.013289,0.008577,0.107748,0.000308,  33.979
   940.0,0.013156,0.008494,0.106482,0.000347,  33.982
   941.0,0.013037,0.008415,0.105292,0.000347,  33.985
   942.0,0.012884,0.008323,0.104312,0.000347,  33.983
   943.0,0.012748,0.008240,0.103487,0.000333,  33.986
   944.0,0.012619,0.008155,0.102218,0.000397,  33.987
   945.0,0.012482,0.008103,0.101001,0.000305,  33.992
   946.0,0.012365,0.008024,0.100140,0.000319,  33.995
   947.0,0.012244,0.007931,0.098929,0.000270,  33.994
   948.0,0.012147,0.007854,0.098101,0.000294,  34.004
   949.0,0.012002,0.007778,0.097259,0.000305,  34.009
   950.0,0.011853,0.007689,0.096297,0.000344,  34.009
   951.0,0.011733,0.007626,0.095412,0.000358,  34.007
   952.0,0.011623,0.007558,0.094411,0.000369,  34.015
   953.0,0.011514,0.007491,0.093184,0.000358,  34.005
   954.0,0.011400,0.007398,0.092277,0.000319,  34.001
   955.0,0.011267,0.007316,0.091066,0.000267,  34.005
   956.0,0.011135,0.007224,0.089548,0.000263,  33.992
   957.0,0.011014,0.007149,0.088267,0.000341,  33.989
   958.0,0.010897,0.007080,0.088180,0.000355,  33.984
   959.0,0.010792,0.007017,0.087105,0.000305,  33.981
   960.0,0.010662,0.006941,0.086280,0.000281,  33.978
   961.0,0.010565,0.006872,0.085766,0.000330,  33.972
   962.0,0.010450,0.006809,0.084920,0.000330,  33.972
   963.0,0.010337,0.006735,0.082173,0.000330,  33.967
   964.0,0.010230,0.006665,0.081855,0.000319,  33.971
   965.0,0.010124,0.006601,0.081831,0.000281,  33.972
   966.0,0.010003,0.006538,0.080786,0.000267,  33.977
   967.0,0.009886,0.006467,0.080328,0.000242,  33.986
   968.0,0.009787,0.006397,0.079349,0.000256,  33.988
   969.0,0.009683,0.006324,0.078766,0.000267,  33.996
   970.0,0.009565,0.006257,0.078071,0.000358,  33.999
   971.0,0.009459,0.006192,0.077110,0.000319,  33.996
   972.0,0.009362,0.006140,0.076563,0.000242,  34.003
   973.0,0.009237,0.006063,0.075180,0.000256,  34.007
   974.0,0.009133,0.005992,0.074428,0.000294,  34.005
   975.0,0.009054,0.005930,0.073697,0.000294,  34.011
   976.0,0.008940,0.005869,0.072716,0.000319,  34.027
   977.0,0.008851,0.005813,0.072232,0.000294,  34.030
   978.0,0.008745,0.005745,0.071523,0.000294,  34.040
   979.0,0.008628,0.005695,0.070805,0.000281,  34.044
   980.0,0.008524,0.005623,0.069793,0.000319,  34.044
   981.0,0.008429,0.005561,0.069082,0.000294,  34.050
   982.0,0.008355,0.005504,0.068055,0.000319,  34.053
   983.0,0.008253,0.005449,0.066969,0.000281,  34.059
   984.0,0.008166,0.005397,0.064168,0.000281,  34.062
   985.0,0.008066,0.005343,0.065474,0.000256,  34.066
   986.0,0.007968,0.005287,0.065214,0.000344,  34.071
   987.0,0.007866,0.005215,0.064400,0.000319,  34.073
   988.0,0.007785,0.005148,0.063840,0.000242,  34.070
   989.0,0.007686,0.005088,0.062914,0.000270,  34.067
   990.0,0.007617,0.005023,0.062297,0.000256,  34.061
   991.0,0.007518,0.004970,0.061787,0.000270,  34.057
   992.0,0.007420,0.004908,0.061026,0.000267,  34.054
   993.0,0.007324,0.004857,0.060210,0.000242,  34.046
   994.0,0.007229,0.004808,0.059723,0.000242,  34.040
   995.0,0.007167,0.004743,0.058941,0.000281,  34.042
   996.0,0.007076,0.004701,0.057987,0.000242,  34.035
   997.0,0.006982,0.004643,0.057554,0.000281,  34.038
   998.0,0.006902,0.004593,0.056810,0.000242,  34.033
   999.0,0.006799,0.004524,0.056131,0.000256,  34.034
  1000.0,0.006713,0.004468,0.055320,0.000267,  34.034
  1001.0,0.006644,0.004423,0.054637,0.000305,  34.035
  1002.0,0.006579,0.004375,0.054095,0.000344,  34.041
  1003.0,0.006505,0.004330,0.053364,0.000330,  34.039
  1004.0,0.006431,0.004295,0.052909,0.000344,  34.037
  1005.0,0.006336,0.004228,0.051572,0.000330,  34.034
  1006.0,0.006261,0.004189,0.051174,0.000319,  34.033
  1007.0,0.006178,0.004137,0.050587,0.000281,  34.030
  1008.0,0.006112,0.004101,0.050368,0.000281,  34.026
  1009.0,0.006056,0.004059,0.049960,0.000256,  34.021
  1010.0,0.005965,0.004018,0.049466,0.000294,  34.015
  1011.0,0.005887,0.003975,0.048879,0.000319,  34.015
  1012.0,0.005817,0.003922,0.048127,0.000294,  34.005
  1013.0,0.005739,0.003893,0.047688,0.000308,  34.006
  1014.0,0.005676,0.003847,0.047122,0.000270,  33.999
  1015.0,0.005597,0.003791,0.046522,0.000270,  33.998
  1016.0,0.005537,0.003755,0.045957,0.000319,  33.995
  1017.0,0.005443,0.003699,0.044994,0.000267,  33.990
  1018.0,0.005373,0.003649,0.044684,0.000267,  33.982
  1019.0,0.005307,0.003607,0.044129,0.000242,  33.975
  1020.0,0.005251,0.003585,0.043470,0.000256,  33.962
  1021.0,0.005172,0.003537,0.043032,0.000281,  33.952
  1022.0,0.005113,0.003491,0.042546,0.000281,  33.948
  1023.0,0.005034,0.003446,0.041901,0.000281,  33.950
  1024.0,0.004976,0.003399,0.041319,0.000277,  33.949
  1025.0,0.004908,0.003357,0.040915,0.000330,  33.950
  1026.0,0.004828,0.003311,0.040196,0.000305,  33.946
  1027.0,0.004782,0.003284,0.039772,0.000267,  33.952
  1028.0,0.004718,0.003239,0.039203,0.000281,  33.951
  1029.0,0.004671,0.003198,0.038805,0.000291,  33.957
  1030.0,0.004604,0.003166,0.038194,0.000291,  33.968
  1031.0,0.004521,0.003112,0.037698,0.000291,  33.970
  1032.0,0.004474,0.003075,0.037278,0.000291,  33.975
  1033.0,0.004413,0.003036,0.036837,0.000281,  33.980
  1034.0,0.004345,0.003012,0.036385,0.000305,  33.976
  1035.0,0.004290,0.002979,0.035986,0.000242,  33.983
  1036.0,0.004250,0.002944,0.035452,0.000242,  33.979
  1037.0,0.004187,0.002902,0.034858,0.000305,  33.978
  1038.0,0.004119,0.002875,0.034292,0.000267,  33.975
  1039.0,0.004068,0.002840,0.033915,0.000319,  33.977
  1040.0,0.004021,0.002820,0.033455,0.000319,  33.980
  1041.0,0.003952,0.002784,0.033120,0.000294,  33.974
  1042.0,0.003896,0.002739,0.032464,0.000330,  33.975
  1043.0,0.003837,0.002694,0.032082,0.000319,  33.974
  1044.0,0.003785,0.002651,0.031688,0.000305,  33.970
  1045.0,0.003729,0.002604,0.031385,0.000291,  33.968
  1046.0,0.003677,0.002578,0.030907,0.000267,  33.969
  1047.0,0.003620,0.002564,0.030399,0.000291,  33.970
  1048.0,0.003569,0.002524,0.030078,0.000319,  33.968
  1049.0,0.003521,0.002480,0.029735,0.000242,  33.971
  1050.0,0.003473,0.002462,0.029291,0.000267,  33.971
  1051.0,0.003425,0.002434,0.028918,0.000277,  33.967
  1052.0,0.003373,0.002404,0.028432,0.000277,  33.967
  1053.0,0.003329,0.002372,0.027947,0.000305,  33.958
  1054.0,0.003269,0.002338,0.027637,0.000267,  33.964
  1055.0,0.003222,0.002295,0.027367,0.000263,  33.965
  1056.0,0.003182,0.002270,0.026854,0.000263,  33.971
  1057.0,0.003144,0.002241,0.026482,0.000302,  33.976
  1058.0,0.003092,0.002220,0.026052,0.000302,  33.987
  1059.0,0.003035,0.002183,0.025659,0.000277,  33.995
  1060.0,0.002988,0.002154,0.025005,0.000291,  34.007
  1061.0,0.002944,0.002127,0.024758,0.000291,  34.015
  1062.0,0.002904,0.002090,0.024550,0.000253,  34.027
  1063.0,0.002874,0.002084,0.024261,0.000291,  34.030
  1064.0,0.002844,0.002060,0.023842,0.000267,  34.036
  1065.0,0.002790,0.002041,0.023542,0.000267,  34.047
  1066.0,0.002754,0.002014,0.023141,0.000228,  34.061
  1067.0,0.002709,0.001987,0.023015,0.000256,  34.073
