Run Name,Run 1
Run Date,09:43:27 PM   03-20-15
Method Name,14% C group 3 April 8 2014.11
Export Format Version, 1.00
Method ID, 2400
Points/Second, 5.00
Number of Records,   3277
Offset from Run Start Time,00:00:00
Run End Time,00:11:00
Time,Second
QuadTec 1, (280.0 nm), AU
QuadTec 2, (260.0 nm), AU
Gradient Pump,<Not Selected>
QuadTec 3, (214.0 nm), AU
QuadTec 4, (405.0 nm), AU
Conductivity,mS/cm
Trace 6,<Not Available>
GP Pressure,<Not Selected>
Volume,<Not Selected>
Fraction,<Not Available>
Time,QuadTec 1,QuadTec 2,QuadTec 3,QuadTec 4,Conductivity
     0.0,0.000628,0.000673,0.012329,0.000364,  21.155
     0.2,0.000628,0.000668,0.012403,0.000340,  21.154
     0.4,0.000624,0.000670,0.012513,0.000326,  21.153
     0.6,0.000628,0.000670,0.012607,0.000364,  21.153
     0.8,0.000628,0.000670,0.012650,0.000364,  21.155
     1.0,0.000624,0.000670,0.012670,0.000326,  21.149
     1.2,0.000628,0.000671,0.012639,0.000377,  21.153
     1.4,0.000628,0.000663,0.012639,0.000364,  21.152
     1.6,0.000624,0.000662,0.012599,0.000326,  21.149
     1.8,0.000628,0.000667,0.012595,0.000364,  21.148
     2.0,0.000628,0.000667,0.012552,0.000364,  21.145
     2.2,0.000624,0.000670,0.012576,0.000340,  21.147
     2.4,0.000622,0.000000,0.012627,0.000326,  21.146
     2.6,0.000902,0.000000,0.012310,0.000364,  21.146
     2.8,-0.000397,0.000000,0.012310,0.000340,  21.145
     3.0,-0.001207,0.000000,0.012310,0.000340,  21.144
     3.2,0.000000,0.000000,0.012310,0.000377,  21.145
     3.4,0.000000,0.000000,0.012310,0.000377,  21.141
     3.6,0.000000,0.000000,0.000000,0.000375,  21.142
     3.8,0.000000,0.000000,0.000000,0.000000,  21.143
     4.0,0.000000,0.000000,0.000000,0.000000,  21.139
     4.2,0.000000,0.000000,0.000000,0.000000,  21.138
     4.4,0.000000,0.000000,0.000000,0.000000,  21.139
     4.6,0.000000,0.000000,0.000000,0.000000,  21.139
     4.8,0.000000,0.000000,0.000000,0.000000,  21.137
     5.0,0.000000,0.000000,0.000000,0.000000,  21.136
     5.2,0.000000,0.000000,0.000000,0.000000,  21.136
     5.4,0.000000,0.000000,0.000000,0.000000,  21.130
     5.6,0.000000,0.000000,0.000000,0.000000,  21.134
     5.8,0.000000,0.000000,0.000000,0.000000,  21.130
     6.0,0.000000,0.000000,0.000000,0.000000,  21.130
     6.2,0.000000,0.000000,0.000000,0.000000,  21.130
     6.4,0.000000,0.000000,0.000000,0.000000,  21.125
     6.6,0.000000,0.000000,0.000000,0.000000,  21.127
     6.8,0.000000,0.000000,0.000000,0.000000,  21.130
     7.0,0.000040,0.000000,0.000000,0.000000,  21.127
     7.2,0.000067,0.000058,0.001623,0.000000,  21.128
     7.4,0.000075,0.000060,0.001707,0.000000,  21.132
     7.6,0.000074,0.000067,0.001749,0.000000,  21.126
     7.8,0.000074,0.000074,0.001737,0.000000,  21.127
     8.0,0.000072,0.000081,0.001669,0.000000,  21.126
     8.2,0.000075,0.000086,0.001566,-0.000038,  21.128
     8.4,0.000082,0.000091,0.001425,-0.000024,  21.126
     8.6,0.000091,0.000100,0.001387,-0.000062,  21.130
     8.8,0.000100,0.000102,0.001357,-0.000011,  21.128
     9.0,0.000103,0.000109,0.001337,-0.000035,  21.129
     9.2,0.000103,0.000108,0.001269,0.000016,  21.123
     9.4,0.000106,0.000108,0.001216,0.000016,  21.122
     9.6,0.000109,0.000103,0.001094,-0.000022,  21.123
     9.8,0.000109,0.000107,0.001056,0.000029,  21.122
    10.0,0.000112,0.000111,0.001056,0.000029,  21.125
    10.2,0.000115,0.000118,0.001068,0.000029,  21.127
    10.4,0.000118,0.000117,0.001079,0.000043,  21.125
    10.6,0.000121,0.000120,0.001094,0.000043,  21.123
    10.8,0.000121,0.000124,0.001136,0.000043,  21.123
    11.0,0.000118,0.000118,0.001177,0.000043,  21.125
    11.2,0.000121,0.000121,0.001189,0.000043,  21.121
    11.4,0.000121,0.000123,0.001162,0.000043,  21.123
    11.6,0.000121,0.000115,0.001124,0.000019,  21.126
    11.8,0.000121,0.000118,0.001086,0.000056,  21.124
    12.0,0.000118,0.000116,0.001067,0.000056,  21.117
    12.2,0.000112,0.000114,0.001009,0.000032,  21.115
    12.4,0.000112,0.000116,0.000952,0.000069,  21.119
    12.6,0.000112,0.000116,0.000884,0.000056,  21.120
    12.8,0.000106,0.000118,0.000804,0.000032,  21.123
    13.0,0.000106,0.000120,0.000789,0.000069,  21.123
    13.2,0.000106,0.000117,0.000822,0.000056,  21.126
    13.4,0.000103,0.000116,0.000883,0.000032,  21.124
    13.6,0.000106,0.000113,0.000887,0.000069,  21.125
    13.8,0.000109,0.000111,0.000871,0.000056,  21.126
    14.0,0.000115,0.000116,0.000852,0.000032,  21.130
    14.2,0.000115,0.000121,0.000845,0.000069,  21.131
    14.4,0.000115,0.000120,0.000822,0.000056,  21.128
    14.6,0.000112,0.000120,0.000761,0.000032,  21.129
    14.8,0.000115,0.000122,0.000734,0.000069,  21.129
    15.0,0.000115,0.000122,0.000742,0.000069,  21.132
    15.2,0.000115,0.000123,0.000704,0.000045,  21.131
    15.4,0.000118,0.000128,0.000370,0.000069,  21.132
    15.6,0.000118,0.000128,-0.000142,0.000069,  21.131
    15.8,0.000118,0.000131,-0.000801,0.000045,  21.135
    16.0,0.000118,0.000131,-0.000839,0.000069,  21.133
    16.2,0.000114,0.000128,-0.000673,0.000069,  21.137
    16.4,0.000129,0.000120,-0.000298,0.000045,  21.134
    16.6,0.000126,0.000112,-0.000188,0.000069,  21.134
    16.8,0.000129,0.000112,-0.000109,0.000069,  21.137
    17.0,0.000129,0.000121,-0.000086,0.000045,  21.136
    17.2,0.000129,0.000124,-0.000014,0.000083,  21.137
    17.4,0.000128,0.000119,0.000027,0.000083,  21.137
    17.6,0.000131,0.000122,0.000088,0.000059,  21.139
    17.8,0.000134,0.000125,0.000149,0.000083,  21.140
    18.0,0.000129,0.000127,0.000209,0.000069,  21.136
    18.2,0.000132,0.000132,0.000259,0.000045,  21.137
    18.4,0.000134,0.000129,0.000240,0.000069,  21.140
    18.6,0.000134,0.000134,0.000190,0.000069,  21.138
    18.8,0.000137,0.000136,0.000099,0.000045,  21.137
    19.0,0.000137,0.000135,0.000061,0.000069,  21.137
    19.2,0.000140,0.000140,0.000050,0.000069,  21.139
    19.4,0.000140,0.000142,0.000023,0.000069,  21.138
    19.6,0.000143,0.000142,0.000031,0.000083,  21.136
    19.8,0.000146,0.000141,0.000054,0.000069,  21.138
    20.0,0.000149,0.000151,0.000092,0.000069,  21.142
    20.2,0.000155,0.000161,0.000133,0.000083,  21.140
    20.4,0.000158,0.000159,0.000183,0.000069,  21.140
    20.6,0.000161,0.000160,0.000202,0.000069,  21.138
    20.8,0.000161,0.000164,0.000213,0.000045,  21.142
    21.0,0.000172,0.000166,0.000224,0.000069,  21.144
    21.2,0.000175,0.000167,0.000251,0.000069,  21.143
    21.4,0.000169,0.000170,0.000232,0.000045,  21.148
    21.6,0.000179,0.000171,0.000183,0.000069,  21.145
    21.8,0.000182,0.000171,0.000149,0.000069,  21.146
    22.0,0.000178,0.000174,0.000077,0.000045,  21.145
    22.2,0.000174,0.000173,0.000035,0.000045,  21.150
    22.4,0.000177,0.000172,-0.000014,0.000045,  21.148
    22.6,0.000183,0.000179,-0.000037,0.000035,  21.152
    22.8,0.000178,0.000181,-0.000067,0.000035,  21.151
    23.0,0.000182,0.000183,-0.000116,0.000072,  21.149
    23.2,0.000192,0.000183,-0.000169,0.000035,  21.154
    23.4,0.000195,0.000186,-0.000188,0.000035,  21.157
    23.6,0.000198,0.000188,-0.000169,0.000059,  21.161
    23.8,0.000195,0.000194,-0.000131,0.000008,  21.159
    24.0,0.000198,0.000194,-0.000078,0.000008,  21.162
    24.2,0.000198,0.000191,0.000032,0.000059,  21.166
    24.4,0.000198,0.000197,0.000161,0.000021,  21.162
    24.6,0.000209,0.000197,0.000213,0.000021,  21.163
    24.8,0.000209,0.000191,0.000263,0.000059,  21.162
    25.0,0.000212,0.000197,0.000282,0.000021,  21.170
    25.2,0.000212,0.000194,0.000293,0.000021,  21.175
    25.4,0.000204,0.000192,0.000285,0.000059,  21.178
    25.6,0.000204,0.000198,0.000274,0.000021,  21.174
    25.8,0.000201,0.000198,0.000255,0.000021,  21.179
    26.0,0.000201,0.000193,0.000236,0.000059,  21.178
    26.2,0.000201,0.000198,0.000225,0.000021,  21.180
    26.4,0.000198,0.000203,0.000187,0.000021,  21.182
    26.6,0.000198,0.000197,0.000175,0.000059,  21.182
    26.8,0.000198,0.000197,0.000145,0.000021,  21.188
    27.0,0.000195,0.000200,-0.000192,0.000021,  21.192
    27.2,0.000195,0.000197,-0.000734,0.000059,  21.196
    27.4,0.000195,0.000194,-0.001444,0.000021,  21.195
    27.6,0.000192,0.000194,-0.002101,0.000021,  21.198
    27.8,0.000199,0.000194,-0.002843,0.000059,  21.202
    28.0,0.000199,0.000199,-0.003632,0.000021,  21.203
    28.2,0.000199,0.000194,-0.003691,0.000021,  21.202
    28.4,0.000207,0.000190,-0.003444,0.000059,  21.204
    28.6,0.000210,0.000183,-0.002832,0.000059,  21.208
    28.8,0.000202,0.000177,-0.001913,0.000021,  21.210
    29.0,0.000202,0.000183,-0.001569,0.000059,  21.215
    29.2,0.000206,0.000183,-0.001294,0.000059,  21.218
    29.4,0.000202,0.000178,-0.001037,0.000021,  21.218
    29.6,0.000202,0.000180,-0.000780,0.000072,  21.220
    29.8,0.000202,0.000183,-0.000560,0.000072,  21.222
    30.0,0.000199,0.000183,-0.000363,0.000048,  21.224
    30.2,0.000199,0.000188,-0.000401,0.000048,  21.228
    30.4,0.000196,0.000199,-0.000549,0.000072,  21.230
    30.6,0.000193,0.000199,-0.000837,0.000035,  21.230
    30.8,0.000189,0.000201,-0.001025,0.000035,  21.228
    31.0,0.000192,0.000199,-0.001260,0.000072,  21.232
    31.2,0.000198,0.000199,-0.001498,0.000035,  21.236
    31.4,0.000194,0.000205,-0.001724,0.000035,  21.235
    31.6,0.000191,0.000205,-0.001950,0.000072,  21.238
    31.8,0.000198,0.000206,-0.002207,0.000035,  21.238
    32.0,0.000198,0.000209,-0.002109,0.000035,  21.241
    32.2,0.000198,0.000209,-0.001845,0.000072,  21.248
    32.4,0.000195,0.000209,-0.001426,0.000035,  21.247
    32.6,0.000195,0.000214,-0.001218,0.000035,  21.247
    32.8,0.000195,0.000211,-0.001040,0.000072,  21.249
    33.0,0.000192,0.000202,-0.000912,0.000035,  21.253
    33.2,0.000192,0.000197,-0.000802,0.000035,  21.256
    33.4,0.000195,0.000194,-0.000704,0.000072,  21.248
    33.6,0.000195,0.000201,-0.000655,0.000035,  21.255
    33.8,0.000199,0.000201,-0.000613,0.000048,  21.256
    34.0,0.000201,0.000197,-0.000572,0.000085,  21.253
    34.2,0.000199,0.000200,-0.000515,0.000048,  21.258
    34.4,0.000196,0.000197,-0.000454,0.000061,  21.258
    34.6,0.000199,0.000197,-0.000375,0.000085,  21.259
    34.8,0.000191,0.000193,-0.000314,0.000048,  21.255
    35.0,0.000195,0.000193,-0.000314,0.000048,  21.259
    35.2,0.000201,0.000191,-0.000382,0.000072,  21.258
    35.4,0.000204,0.000195,-0.000511,0.000035,  21.259
    35.6,0.000207,0.000200,-0.000470,0.000035,  21.261
    35.8,0.000202,0.000205,-0.000341,0.000072,  21.264
    36.0,0.000206,0.000200,-0.000189,0.000035,  21.262
    36.2,0.000210,0.000199,-0.000129,0.000048,  21.269
    36.4,0.000206,0.000193,-0.000087,0.000085,  21.266
    36.6,0.000206,0.000192,-0.000068,0.000048,  21.263
    36.8,0.000213,0.000189,-0.000137,0.000061,  21.268
    37.0,0.000209,0.000189,-0.000246,0.000085,  21.264
    37.2,0.000206,0.000197,-0.000390,0.000048,  21.265
    37.4,0.000213,0.000201,-0.000420,0.000061,  21.262
    37.6,0.000209,0.000204,-0.000409,0.000085,  21.264
    37.8,0.000212,0.000204,-0.000379,0.000085,  21.267
    38.0,0.000222,0.000209,-0.000318,0.000048,  21.265
    38.2,0.000218,0.000213,-0.000280,0.000072,  21.267
    38.4,0.000218,0.000216,-0.000269,0.000072,  21.264
    38.6,0.000215,0.000213,-0.000258,0.000035,  21.268
    38.8,0.000214,0.000219,-0.000284,0.000085,  21.265
    39.0,0.000217,0.000225,-0.000326,0.000072,  21.266
    39.2,0.000217,0.000227,-0.000386,0.000035,  21.266
    39.4,0.000220,0.000227,-0.000345,0.000035,  21.268
    39.6,0.000223,0.000227,-0.000265,0.000072,  21.268
    39.8,0.000224,0.000230,-0.000148,0.000035,  21.270
    40.0,0.000234,0.000227,-0.000118,0.000035,  21.270
    40.2,0.000237,0.000234,-0.000144,0.000072,  21.273
    40.4,0.000233,0.000237,-0.000156,0.000035,  21.269
    40.6,0.000226,0.000233,-0.000125,0.000035,  21.270
    40.8,0.000223,0.000237,-0.000087,0.000072,  21.272
    41.0,0.000220,0.000241,-0.000057,0.000035,  21.267
    41.2,0.000215,0.000240,-0.000038,0.000048,  21.265
    41.4,0.000215,0.000246,-0.000049,0.000085,  21.268
    41.6,0.000226,0.000243,-0.000098,0.000048,  21.267
    41.8,0.000236,0.000240,-0.000118,0.000061,  21.268
    42.0,0.000233,0.000241,-0.000118,0.000085,  21.263
    42.2,0.000233,0.000238,-0.000118,0.000048,  21.265
    42.4,0.000236,0.000236,-0.000216,0.000061,  21.264
    42.6,0.000236,0.000231,-0.000318,0.000085,  21.263
    42.8,0.000232,0.000232,-0.000470,0.000048,  21.264
    43.0,0.000235,0.000227,-0.000470,0.000048,  21.261
    43.2,0.000232,0.000227,-0.000401,0.000072,  21.264
    43.4,0.000239,0.000229,-0.000329,0.000035,  21.265
    43.6,0.000239,0.000229,-0.000299,0.000048,  21.267
    43.8,0.000235,0.000232,-0.000269,0.000085,  21.267
    44.0,0.000232,0.000236,-0.000258,0.000048,  21.265
    44.2,0.000235,0.000236,-0.000235,0.000061,  21.266
    44.4,0.000238,0.000228,-0.000186,0.000085,  21.264
    44.6,0.000235,0.000228,-0.000137,0.000048,  21.265
    44.8,0.000232,0.000225,-0.000137,0.000061,  21.269
    45.0,0.000235,0.000220,-0.000197,0.000085,  21.268
    45.2,0.000235,0.000216,-0.000280,0.000048,  21.265
    45.4,0.000235,0.000219,-0.000477,0.000061,  21.267
    45.6,0.000241,0.000216,-0.000791,0.000085,  21.266
    45.8,0.000241,0.000225,-0.001185,0.000048,  21.270
    46.0,0.000241,0.000227,-0.001174,0.000061,  21.266
    46.2,0.000248,0.000224,-0.001007,0.000085,  21.262
    46.4,0.000248,0.000232,-0.000693,0.000048,  21.261
    46.6,0.000245,0.000232,-0.000614,0.000061,  21.261
    46.8,0.000250,0.000232,-0.000545,0.000099,  21.258
    47.0,0.000250,0.000238,-0.000545,0.000099,  21.259
    47.2,0.000245,0.000238,-0.000568,0.000061,  21.261
    47.4,0.000241,0.000235,-0.000496,0.000112,  21.259
    47.6,0.000241,0.000233,-0.000398,0.000099,  21.257
    47.8,0.000241,0.000235,-0.000269,0.000075,  21.258
    48.0,0.000237,0.000235,-0.000208,0.000112,  21.258
    48.2,0.000237,0.000235,-0.000189,0.000099,  21.259
    48.4,0.000241,0.000240,-0.000201,0.000061,  21.258
    48.6,0.000241,0.000239,-0.000189,0.000061,  21.258
    48.8,0.000241,0.000242,-0.000182,0.000099,  21.254
    49.0,0.000241,0.000241,-0.000212,0.000061,  21.260
    49.2,0.000241,0.000240,-0.000170,0.000061,  21.255
    49.4,0.000241,0.000240,-0.000083,0.000099,  21.253
    49.6,0.000241,0.000242,-0.000003,0.000061,  21.255
    49.8,0.000248,0.000242,-0.000003,0.000061,  21.253
    50.0,0.000248,0.000240,-0.000045,0.000099,  21.253
    50.2,0.000256,0.000241,-0.000128,0.000061,  21.251
    50.4,0.000256,0.000241,-0.000325,0.000061,  21.255
    50.6,0.000259,0.000244,-0.000640,0.000099,  21.250
    50.8,0.000252,0.000250,-0.001033,0.000061,  21.255
    51.0,0.000244,0.000250,-0.001041,0.000061,  21.255
    51.2,0.000247,0.000245,-0.000924,0.000099,  21.255
    51.4,0.000247,0.000245,-0.000659,0.000061,  21.251
    51.6,0.000244,0.000247,-0.000568,0.000061,  21.253
    51.8,0.000241,0.000247,-0.000500,0.000099,  21.249
    52.0,0.000253,0.000249,-0.000451,0.000061,  21.255
    52.2,0.000250,0.000251,-0.000511,0.000099,  21.254
    52.4,0.000250,0.000250,-0.000659,0.000136,  21.255
    52.6,0.000245,0.000254,-0.000840,0.000099,  21.256
    52.8,0.000245,0.000254,-0.000780,0.000136,  21.254
    53.0,0.000238,0.000251,-0.000632,0.000136,  21.256
    53.2,0.000248,0.000254,-0.000394,0.000099,  21.252
    53.4,0.000248,0.000249,-0.000284,0.000136,  21.256
    53.6,0.000248,0.000249,-0.000204,0.000123,  21.254
    53.8,0.000252,0.000252,-0.000174,0.000085,  21.257
    54.0,0.000248,0.000250,-0.000204,0.000136,  21.257
    54.2,0.000241,0.000245,-0.000280,0.000123,  21.256
    54.4,0.000241,0.000249,-0.000469,0.000085,  21.255
    54.6,0.000241,0.000248,-0.000715,0.000136,  21.257
    54.8,0.000234,0.000245,-0.001040,0.000136,  21.259
    55.0,0.000234,0.000254,-0.001444,0.000099,  21.260
    55.2,0.000241,0.000254,-0.001365,0.000136,  21.259
    55.4,0.000248,0.000254,-0.001086,0.000136,  21.258
    55.6,0.000248,0.000259,-0.000594,0.000099,  21.257
    55.8,0.000248,0.000252,-0.000427,0.000136,  21.257
    56.0,0.000248,0.000249,-0.000348,0.000136,  21.256
    56.2,0.000252,0.000249,-0.000348,0.000136,  21.255
    56.4,0.000244,0.000246,-0.000249,0.000136,  21.261
    56.6,0.000244,0.000249,-0.000170,0.000150,  21.261
    56.8,0.000247,0.000253,-0.000071,0.000136,  21.260
    57.0,0.000252,0.000258,0.000008,0.000150,  21.260
    57.2,0.000259,0.000255,-0.000189,0.000150,  21.262
    57.4,0.000262,0.000249,-0.000496,0.000136,  21.262
    57.6,0.000252,0.000249,-0.000919,0.000099,  21.262
    57.8,0.000252,0.000249,-0.000988,0.000136,  21.260
    58.0,0.000252,0.000252,-0.000912,0.000136,  21.260
    58.2,0.000248,0.000252,-0.000756,0.000099,  21.257
    58.4,0.000248,0.000249,-0.000685,0.000136,  21.259
    58.6,0.000248,0.000252,-0.000567,0.000123,  21.258
    58.8,0.000248,0.000254,-0.000477,0.000085,  21.261
    59.0,0.000245,0.000249,-0.000375,0.000136,  21.257
    59.2,0.000245,0.000253,-0.000265,0.000123,  21.261
    59.4,0.000245,0.000252,-0.000147,0.000085,  21.258
    59.6,0.000235,0.000249,-0.000125,0.000136,  21.256
    59.8,0.000235,0.000254,-0.000136,0.000123,  21.259
    60.0,0.000238,0.000253,-0.000196,0.000085,  21.259
    60.2,0.000234,0.000250,-0.000185,0.000136,  21.261
    60.4,0.000237,0.000249,-0.000155,0.000123,  21.258
    60.6,0.000247,0.000252,-0.000144,0.000085,  21.254
    60.8,0.000250,0.000250,-0.000163,0.000136,  21.257
    61.0,0.000250,0.000242,-0.000204,0.000123,  21.257
    61.2,0.000244,0.000243,-0.000276,0.000085,  21.255
    61.4,0.000252,0.000240,-0.000234,0.000123,  21.254
    61.6,0.000255,0.000237,-0.000144,0.000110,  21.254
    61.8,0.000252,0.000238,-0.000034,0.000072,  21.256
    62.0,0.000252,0.000238,-0.000015,0.000123,  21.257
    62.2,0.000247,0.000234,-0.000034,0.000123,  21.259
    62.4,0.000255,0.000234,-0.000094,0.000085,  21.259
    62.6,0.000255,0.000234,-0.000075,0.000099,  21.259
    62.8,0.000258,0.000230,-0.000045,0.000085,  21.258
    63.0,0.000258,0.000241,0.000023,0.000048,  21.255
    63.2,0.000255,0.000245,0.000023,0.000061,  21.256
    63.4,0.000255,0.000240,-0.000026,0.000085,  21.255
    63.6,0.000255,0.000240,-0.000098,0.000048,  21.260
    63.8,0.000255,0.000239,-0.000049,0.000061,  21.259
    64.0,0.000255,0.000242,0.000012,0.000085,  21.256
    64.2,0.000255,0.000238,0.000103,0.000048,  21.265
    64.4,0.000255,0.000238,0.000103,0.000061,  21.261
    64.6,0.000258,0.000240,0.000035,0.000085,  21.261
    64.8,0.000261,0.000245,-0.000068,0.000085,  21.265
    65.0,0.000274,0.000245,-0.000098,0.000048,  21.264
    65.2,0.000270,0.000242,-0.000098,0.000085,  21.264
    65.4,0.000270,0.000249,-0.000128,0.000085,  21.260
    65.6,0.000270,0.000251,-0.000109,0.000048,  21.262
    65.8,0.000273,0.000246,-0.000041,0.000085,  21.263
    66.0,0.000270,0.000256,0.000031,0.000072,  21.264
    66.2,0.000267,0.000256,0.000122,0.000035,  21.264
    66.4,0.000270,0.000253,0.000111,0.000035,  21.259
    66.6,0.000267,0.000257,0.000031,0.000072,  21.264
    66.8,0.000267,0.000263,-0.000113,0.000035,  21.261
    67.0,0.000270,0.000257,-0.000113,0.000035,  21.261
    67.2,0.000270,0.000260,-0.000082,0.000072,  21.263
    67.4,0.000277,0.000264,-0.000014,0.000035,  21.259
    67.6,0.000276,0.000264,-0.000003,0.000035,  21.258
    67.8,0.000282,0.000266,-0.000003,0.000072,  21.262
    68.0,0.000293,0.000274,-0.000014,0.000021,  21.260
    68.2,0.000291,0.000278,-0.000033,0.000021,  21.259
    68.4,0.000298,0.000281,-0.000044,0.000059,  21.261
    68.6,0.000305,0.000286,-0.000048,0.000021,  21.260
    68.8,0.000304,0.000291,0.000013,0.000021,  21.258
    69.0,0.000310,0.000293,0.000111,0.000072,  21.257
    69.2,0.000313,0.000298,0.000259,0.000048,  21.258
    69.4,0.000319,0.000300,-0.000196,0.000048,  21.257
    69.6,0.000325,0.000300,-0.000945,0.000072,  21.257
    69.8,0.000328,0.000298,-0.002006,0.000035,  21.258
    70.0,0.000324,0.000303,-0.002025,0.000048,  21.255
    70.2,0.000327,0.000304,-0.001655,0.000085,  21.255
    70.4,0.000330,0.000308,-0.000919,0.000048,  21.257
    70.6,0.000333,0.000312,-0.000612,0.000061,  21.255
    70.8,0.000332,0.000320,-0.000336,0.000085,  21.260
    71.0,0.000339,0.000324,-0.000090,0.000048,  21.255
    71.2,0.000345,0.000326,0.000096,0.000061,  21.255
    71.4,0.000352,0.000331,0.000222,0.000085,  21.256
    71.6,0.000352,0.000332,0.000279,0.000048,  21.256
    71.8,0.000352,0.000334,0.000366,0.000061,  21.255
    72.0,0.000358,0.000339,0.000450,0.000085,  21.253
    72.2,0.000361,0.000349,0.000507,0.000048,  21.252
    72.4,0.000364,0.000354,0.000625,0.000061,  21.257
    72.6,0.000377,0.000356,0.000754,0.000085,  21.256
    72.8,0.000380,0.000363,0.000883,0.000048,  21.254
    73.0,0.000387,0.000372,0.000982,0.000061,  21.256
    73.2,0.000400,0.000377,0.001077,0.000085,  21.252
    73.4,0.000403,0.000379,0.001142,0.000048,  21.254
    73.6,0.000399,0.000386,0.001211,0.000061,  21.254
    73.8,0.000405,0.000391,0.001257,0.000099,  21.258
    74.0,0.000408,0.000391,0.001257,0.000099,  21.259
    74.2,0.000414,0.000394,0.001276,0.000061,  21.258
    74.4,0.000420,0.000396,0.001333,0.000112,  21.253
    74.6,0.000427,0.000399,0.001333,0.000099,  21.254
    74.8,0.000430,0.000404,0.001379,0.000075,  21.256
    75.0,0.000436,0.000408,0.001398,0.000112,  21.255
    75.2,0.000442,0.000421,0.001387,0.000099,  21.255
    75.4,0.000448,0.000430,0.001383,0.000061,  21.251
    75.6,0.000457,0.000434,0.001459,0.000061,  21.254
    75.8,0.000466,0.000446,0.001566,0.000085,  21.254
    76.0,0.000473,0.000456,0.001673,0.000048,  21.252
    76.2,0.000479,0.000457,0.001738,0.000061,  21.251
    76.4,0.000488,0.000464,0.001764,0.000099,  21.249
    76.6,0.000494,0.000466,0.001753,0.000061,  21.249
    76.8,0.000500,0.000475,0.001837,0.000061,  21.248
    77.0,0.000506,0.000477,0.001894,0.000099,  21.252
    77.2,0.000520,0.000487,0.001982,0.000061,  21.247
    77.4,0.000522,0.000491,0.002020,0.000061,  21.248
    77.6,0.000531,0.000501,0.002055,0.000099,  21.250
    77.8,0.000541,0.000509,0.002051,0.000061,  21.245
    78.0,0.000543,0.000519,0.002131,0.000061,  21.251
    78.2,0.000555,0.000523,0.002269,0.000099,  21.244
    78.4,0.000569,0.000535,0.002456,0.000061,  21.244
    78.6,0.000571,0.000544,0.002505,0.000061,  21.245
    78.8,0.000580,0.000550,0.002551,0.000061,  21.244
    79.0,0.000591,0.000561,0.002548,0.000061,  21.243
    79.2,0.000589,0.000565,0.002594,0.000061,  21.242
    79.4,0.000598,0.000574,0.002621,0.000099,  21.242
    79.6,0.000609,0.000581,0.002636,0.000061,  21.242
    79.8,0.000615,0.000591,0.002663,0.000061,  21.241
    80.0,0.000617,0.000598,0.002659,0.000099,  21.240
    80.2,0.000630,0.000610,0.002675,0.000061,  21.241
    80.4,0.000632,0.000619,0.002770,0.000061,  21.240
    80.6,0.000645,0.000631,0.002850,0.000099,  21.243
    80.8,0.000654,0.000645,0.002977,0.000061,  21.239
    81.0,0.000663,0.000654,0.003042,0.000061,  21.243
    81.2,0.000675,0.000667,0.003069,0.000099,  21.241
    81.4,0.000684,0.000672,0.003073,0.000061,  21.236
    81.6,0.000691,0.000687,0.003191,0.000061,  21.236
    81.8,0.000700,0.000695,0.003379,0.000099,  21.240
    82.0,0.000709,0.000712,0.003589,0.000061,  21.236
    82.2,0.000718,0.000724,0.003739,0.000061,  21.238
    82.4,0.000728,0.000728,0.003877,0.000099,  21.234
    82.6,0.000740,0.000740,0.003984,0.000061,  21.234
    82.8,0.000752,0.000751,0.004053,0.000061,  21.235
    83.0,0.000761,0.000768,0.004080,0.000099,  21.233
    83.2,0.000774,0.000784,0.004103,0.000099,  21.225
    83.4,0.000783,0.000796,0.004092,0.000061,  21.225
    83.6,0.000795,0.000810,0.004096,0.000112,  21.225
    83.8,0.000807,0.000819,0.004054,0.000099,  21.226
    84.0,0.000820,0.000823,0.004000,0.000075,  21.230
    84.2,0.000832,0.000838,0.004088,0.000112,  21.231
    84.4,0.000838,0.000851,0.004207,0.000099,  21.227
    84.6,0.000844,0.000860,0.004384,0.000061,  21.227
    84.8,0.000857,0.000875,0.004503,0.000061,  21.224
    85.0,0.000869,0.000895,0.004622,0.000099,  21.227
    85.2,0.000878,0.000910,0.004729,0.000061,  21.225
    85.4,0.000890,0.000918,0.004798,0.000061,  21.224
    85.6,0.000900,0.000933,0.004818,0.000099,  21.220
    85.8,0.000909,0.000941,0.004802,0.000061,  21.222
    86.0,0.000914,0.000955,0.004810,0.000061,  21.222
    86.2,0.000926,0.000967,0.004825,0.000099,  21.223
    86.4,0.000938,0.000982,0.004829,0.000061,  21.219
    86.6,0.000946,0.000993,0.004906,0.000061,  21.222
    86.8,0.000959,0.001007,0.004995,0.000099,  21.220
    87.0,0.000975,0.001026,0.005095,0.000061,  21.217
    87.2,0.000991,0.001038,0.005083,0.000099,  21.219
    87.4,0.001003,0.001054,0.005056,0.000123,  21.219
    87.6,0.001015,0.001071,0.004968,0.000072,  21.221
    87.8,0.001031,0.001087,0.005006,0.000110,  21.219
    88.0,0.001035,0.001107,0.005056,0.000134,  21.217
    88.2,0.001048,0.001124,0.005164,0.000096,  21.220
    88.4,0.001060,0.001141,0.005256,0.000110,  21.218
    88.6,0.001069,0.001157,0.005383,0.000123,  21.216
    88.8,0.001086,0.001174,0.005503,0.000099,  21.216
    89.0,0.001095,0.001193,0.005264,0.000150,  21.215
    89.2,0.001100,0.001212,0.004880,0.000123,  21.211
    89.4,0.001117,0.001231,0.004308,0.000085,  21.212
    89.6,0.001129,0.001254,0.004369,0.000136,  21.210
    89.8,0.001144,0.001276,0.004688,0.000123,  21.212
    90.0,0.001157,0.001297,0.005199,0.000085,  21.210
    90.2,0.001172,0.001316,0.005368,0.000136,  21.212
    90.4,0.001195,0.001336,0.005495,0.000123,  21.212
    90.6,0.001207,0.001353,0.005541,0.000085,  21.212
    90.8,0.001222,0.001377,0.005360,0.000136,  21.211
    91.0,0.001245,0.001392,0.005057,0.000136,  21.211
    91.2,0.001258,0.001412,0.004596,0.000099,  21.211
    91.4,0.001259,0.001431,0.004688,0.000150,  21.208
    91.6,0.001272,0.001454,0.004949,0.000150,  21.210
    91.8,0.001284,0.001471,0.005430,0.000112,  21.206
    92.0,0.001296,0.001487,0.005591,0.000163,  21.208
    92.2,0.001309,0.001516,0.005661,0.000150,  21.212
    92.4,0.001321,0.001535,0.005668,0.000150,  21.209
    92.6,0.001333,0.001554,0.005699,0.000150,  21.208
    92.8,0.001349,0.001573,0.005749,0.000150,  21.210
    93.0,0.001364,0.001595,0.005749,0.000136,  21.204
    93.2,0.001376,0.001614,0.005749,0.000150,  21.211
    93.4,0.001392,0.001625,0.005734,0.000150,  21.206
    93.6,0.001407,0.001649,0.005745,0.000136,  21.205
    93.8,0.001419,0.001671,0.005765,0.000099,  21.209
    94.0,0.001435,0.001687,0.005745,0.000136,  21.206
    94.2,0.001450,0.001715,0.005687,0.000136,  21.203
    94.4,0.001459,0.001737,0.005607,0.000099,  21.203
    94.6,0.001475,0.001750,0.005630,0.000136,  21.205
    94.8,0.001490,0.001764,0.005664,0.000123,  21.202
    95.0,0.001502,0.001781,0.005745,0.000085,  21.202
    95.2,0.001518,0.001796,0.005587,0.000136,  21.204
    95.4,0.001533,0.001820,0.005329,0.000123,  21.200
    95.6,0.001546,0.001848,0.004980,0.000085,  21.201
    95.8,0.001561,0.001872,0.004922,0.000136,  21.201
    96.0,0.001576,0.001886,0.004972,0.000123,  21.200
    96.2,0.001595,0.001908,0.005114,0.000085,  21.201
    96.4,0.001610,0.001931,0.004707,0.000136,  21.202
    96.6,0.001619,0.001954,0.004070,0.000123,  21.199
    96.8,0.001629,0.001984,0.003212,0.000085,  21.202
    97.0,0.001644,0.002005,0.003125,0.000136,  21.199
    97.2,0.001659,0.002026,0.003296,0.000123,  21.199
    97.4,0.001675,0.002053,0.003736,0.000085,  21.204
    97.6,0.001690,0.002071,0.003870,0.000136,  21.199
    97.8,0.001717,0.002101,0.003974,0.000123,  21.202
    98.0,0.001741,0.002127,0.004077,0.000085,  21.202
    98.2,0.001764,0.002151,0.004154,0.000123,  21.197
    98.4,0.001769,0.002173,0.004180,0.000110,  21.197
    98.6,0.001787,0.002195,0.004176,0.000072,  21.200
    98.8,0.001792,0.002213,0.003942,0.000110,  21.200
    99.0,0.001804,0.002237,0.003575,0.000110,  21.196
    99.2,0.001819,0.002263,0.003031,0.000059,  21.198
    99.4,0.001834,0.002286,0.002917,0.000096,  21.197
    99.6,0.001845,0.002310,0.002920,0.000134,  21.198
    99.8,0.001864,0.002342,0.003042,0.000083,  21.191
   100.0,0.001882,0.002365,0.002989,0.000083,  21.194
   100.2,0.001897,0.002384,0.002904,0.000134,  21.190
   100.4,0.001912,0.002411,0.002809,0.000096,  21.193
   100.6,0.001927,0.002434,0.002675,0.000096,  21.193
   100.8,0.001946,0.002453,0.002511,0.000134,  21.190
   101.0,0.001958,0.002477,0.002297,0.000096,  21.187
   101.2,0.001967,0.002498,0.002163,0.000096,  21.192
   101.4,0.001983,0.002522,0.002052,0.000134,  21.186
   101.6,0.002001,0.002549,0.001938,0.000134,  21.191
   101.8,0.002014,0.002573,0.001834,0.000110,  21.187
   102.0,0.002032,0.002594,0.001731,0.000134,  21.186
   102.2,0.002051,0.002616,0.001639,0.000147,  21.186
   102.4,0.002069,0.002636,0.001563,0.000147,  21.183
   102.6,0.002080,0.002657,0.001464,0.000160,  21.189
   102.8,0.002096,0.002680,0.001364,0.000147,  21.185
   103.0,0.002105,0.002696,0.001246,0.000110,  21.183
   103.2,0.002113,0.002715,0.001078,0.000110,  21.181
   103.4,0.002128,0.002737,0.000857,0.000147,  21.178
   103.6,0.002145,0.002754,0.000625,0.000096,  21.182
   103.8,0.002163,0.002770,0.000396,0.000096,  21.178
   104.0,0.002176,0.002784,0.000165,0.000120,  21.179
   104.2,0.002191,0.002804,-0.000086,0.000083,  21.178
   104.4,0.002210,0.002821,-0.000314,0.000083,  21.174
   104.6,0.002228,0.002845,-0.000542,0.000134,  21.178
   104.8,0.002244,0.002864,-0.000724,0.000110,  21.177
   105.0,0.002269,0.002886,-0.000921,0.000110,  21.178
   105.2,0.002285,0.002905,-0.001100,0.000110,  21.177
   105.4,0.002297,0.002927,-0.001278,0.000085,  21.175
   105.6,0.002320,0.002946,-0.001468,0.000123,  21.175
   105.8,0.002335,0.002970,-0.001725,0.000110,  21.173
   106.0,0.002340,0.002995,-0.001993,0.000072,  21.173
   106.2,0.002356,0.003017,-0.002171,0.000110,  21.175
   106.4,0.002371,0.003029,-0.002376,0.000110,  21.169
   106.6,0.002387,0.003043,-0.002543,0.000072,  21.168
   106.8,0.002402,0.003062,-0.002709,0.000110,  21.163
   107.0,0.002404,0.003081,-0.002898,0.000110,  21.167
   107.2,0.002427,0.003095,-0.003076,0.000072,  21.167
   107.4,0.002436,0.003111,-0.003625,0.000123,  21.165
   107.6,0.002451,0.003129,-0.004369,0.000123,  21.161
   107.8,0.002464,0.003152,-0.005279,0.000085,  21.162
   108.0,0.002479,0.003171,-0.005485,0.000123,  21.158
   108.2,0.002492,0.003180,-0.005449,0.000110,  21.154
   108.4,0.002504,0.003195,-0.005140,0.000072,  21.154
   108.6,0.002513,0.003205,-0.005241,0.000110,  21.152
   108.8,0.002529,0.003212,-0.005440,0.000110,  21.148
   109.0,0.002544,0.003221,-0.005717,0.000072,  21.149
   109.2,0.002556,0.003234,-0.005826,0.000110,  21.149
   109.4,0.002575,0.003242,-0.005868,0.000110,  21.144
   109.6,0.002593,0.003261,-0.005888,0.000072,  21.136
   109.8,0.002616,0.003272,-0.005960,0.000110,  21.143
   110.0,0.002624,0.003289,-0.006050,0.000110,  21.137
   110.2,0.002640,0.003306,-0.006144,0.000110,  21.134
   110.4,0.002662,0.003317,-0.006256,0.000110,  21.130
   110.6,0.002670,0.003334,-0.006436,0.000110,  21.127
   110.8,0.002683,0.003344,-0.006675,0.000110,  21.125
   111.0,0.002706,0.003353,-0.006925,0.000110,  21.124
   111.2,0.002714,0.003368,-0.007085,0.000123,  21.119
   111.4,0.002738,0.003379,-0.007205,0.000110,  21.112
   111.6,0.002762,0.003385,-0.007298,0.000072,  21.108
   111.8,0.002770,0.003396,-0.007381,0.000110,  21.106
   112.0,0.002782,0.003402,-0.007482,0.000110,  21.100
   112.2,0.002794,0.003409,-0.007538,0.000072,  21.099
   112.4,0.002803,0.003414,-0.007621,0.000123,  21.092
   112.6,0.002821,0.003427,-0.007706,0.000123,  21.090
   112.8,0.002833,0.003436,-0.007811,0.000085,  21.084
   113.0,0.002841,0.003448,-0.008126,0.000136,  21.082
   113.2,0.002854,0.003455,-0.008587,0.000123,  21.076
   113.4,0.002866,0.003457,-0.009172,0.000085,  21.074
   113.6,0.002874,0.003467,-0.009169,0.000136,  21.068
   113.8,0.002887,0.003463,-0.008947,0.000136,  21.063
   114.0,0.002903,0.003466,-0.008521,0.000099,  21.061
   114.2,0.002911,0.003465,-0.008384,0.000136,  21.052
   114.4,0.002927,0.003468,-0.008288,0.000136,  21.051
   114.6,0.002950,0.003470,-0.008251,0.000099,  21.050
   114.8,0.002958,0.003472,-0.008162,0.000099,  21.048
   115.0,0.002973,0.003480,-0.008047,0.000099,  21.042
   115.2,0.002993,0.003488,-0.007942,0.000061,  21.037
   115.4,0.003005,0.003493,-0.007827,0.000061,  21.030
   115.6,0.003017,0.003490,-0.007693,0.000085,  21.028
   115.8,0.003027,0.003492,-0.007552,0.000048,  21.021
   116.0,0.003036,0.003497,-0.007399,0.000061,  21.018
   116.2,0.003051,0.003501,-0.007265,0.000099,  21.019
   116.4,0.003064,0.003512,-0.007104,0.000061,  21.014
   116.6,0.003079,0.003517,-0.006944,0.000075,  21.008
   116.8,0.003084,0.003515,-0.006828,0.000112,  21.001
   117.0,0.003097,0.003511,-0.006689,0.000075,  20.998
   117.2,0.003116,0.003510,-0.006569,0.000088,  20.994
   117.4,0.003124,0.003517,-0.006468,0.000112,  20.992
   117.6,0.003134,0.003519,-0.006389,0.000075,  20.990
   117.8,0.003150,0.003516,-0.006179,0.000088,  20.986
   118.0,0.003158,0.003518,-0.005951,0.000112,  20.981
   118.2,0.003171,0.003513,-0.005655,0.000088,  20.976
   118.4,0.003194,0.003509,-0.005467,0.000101,  20.969
   118.6,0.003202,0.003513,-0.005321,0.000139,  20.969
   118.8,0.003217,0.003515,-0.005207,0.000115,  20.969
   119.0,0.003237,0.003512,-0.005030,0.000115,  20.960
   119.2,0.003245,0.003506,-0.004823,0.000139,  20.958
   119.4,0.003260,0.003507,-0.004643,0.000139,  20.953
   119.6,0.003280,0.003504,-0.004425,0.000101,  20.949
   119.8,0.003288,0.003506,-0.004150,0.000139,  20.951
   120.0,0.003307,0.003505,-0.003875,0.000139,  20.943
   120.2,0.003326,0.003499,-0.003544,0.000101,  20.944
   120.4,0.003334,0.003495,-0.003280,0.000139,  20.941
   120.6,0.003350,0.003493,-0.003038,0.000139,  20.938
   120.8,0.003370,0.003491,-0.002799,0.000115,  20.931
   121.0,0.003378,0.003485,-0.002467,0.000115,  20.927
   121.2,0.003393,0.003485,-0.002112,0.000152,  20.931
   121.4,0.003402,0.003488,-0.001700,0.000128,  20.925
   121.6,0.003418,0.003485,-0.001359,0.000115,  20.923
   121.8,0.003433,0.003486,-0.001097,0.000152,  20.921
   122.0,0.003453,0.003484,-0.000838,0.000128,  20.918
   122.2,0.003461,0.003477,-0.000497,0.000115,  20.918
   122.4,0.003484,0.003475,-0.000120,0.000139,  20.910
   122.6,0.003504,0.003469,0.000260,0.000115,  20.908
   122.8,0.003509,0.003461,0.000663,0.000115,  20.907
   123.0,0.003529,0.003461,0.001074,0.000139,  20.906
   123.2,0.003541,0.003453,0.001497,0.000115,  20.904
   123.4,0.003549,0.003445,0.001898,0.000152,  20.905
   123.6,0.003572,0.003451,0.002242,0.000176,  20.903
   123.8,0.003584,0.003446,0.002575,0.000152,  20.901
   124.0,0.003592,0.003441,0.003015,0.000190,  20.899
   124.2,0.003612,0.003441,0.003486,0.000190,  20.903
   124.4,0.003621,0.003439,0.004007,0.000166,  20.897
   124.6,0.003634,0.003431,0.004410,0.000190,  20.904
   124.8,0.003646,0.003429,0.004791,0.000190,  20.902
   125.0,0.003658,0.003420,0.005129,0.000166,  20.905
   125.2,0.003668,0.003415,0.005572,0.000190,  20.904
   125.4,0.003680,0.003410,0.006027,0.000190,  20.904
   125.6,0.003685,0.003409,0.006482,0.000166,  20.907
   125.8,0.003697,0.003404,0.006848,0.000190,  20.901
   126.0,0.003706,0.003394,0.007219,0.000190,  20.905
   126.2,0.003721,0.003390,0.007540,0.000166,  20.909
   126.4,0.003741,0.003385,0.007966,0.000190,  20.908
   126.6,0.003749,0.003377,0.008392,0.000190,  20.912
   126.8,0.003758,0.003374,0.008877,0.000166,  20.913
   127.0,0.003778,0.003369,0.009300,0.000190,  20.920
   127.2,0.003786,0.003361,0.009653,0.000190,  20.919
   127.4,0.003801,0.003354,0.009995,0.000166,  20.923
   127.6,0.003821,0.003346,0.010396,0.000190,  20.920
   127.8,0.003826,0.003350,0.010840,0.000190,  20.922
   128.0,0.003839,0.003345,0.011265,0.000190,  20.928
   128.2,0.003858,0.003332,0.011707,0.000190,  20.927
   128.4,0.003866,0.003331,0.012172,0.000190,  20.930
   128.6,0.003879,0.003324,0.012634,0.000190,  20.934
   128.8,0.003894,0.003314,0.013116,0.000176,  20.938
   129.0,0.003913,0.003309,0.013598,0.000176,  20.940
   129.2,0.003925,0.003310,0.014089,0.000176,  20.942
   129.4,0.003938,0.003305,0.014548,0.000152,  20.946
   129.6,0.003953,0.003295,0.014957,0.000190,  20.951
   129.8,0.003965,0.003296,0.015347,0.000176,  20.956
   130.0,0.003978,0.003288,0.015673,0.000152,  20.956
   130.2,0.003990,0.003284,0.016095,0.000190,  20.954
   130.4,0.004000,0.003276,0.016541,0.000190,  20.960
   130.6,0.004012,0.003277,0.016988,0.000166,  20.962
   130.8,0.004027,0.003270,0.017411,0.000190,  20.969
   131.0,0.004040,0.003266,0.017814,0.000190,  20.971
   131.2,0.004055,0.003262,0.018178,0.000166,  20.975
   131.4,0.004071,0.003260,0.018603,0.000190,  20.976
   131.6,0.004083,0.003252,0.019059,0.000176,  20.977
   131.8,0.004095,0.003253,0.019469,0.000152,  20.981
   132.0,0.004111,0.003248,0.019931,0.000190,  20.989
   132.2,0.004120,0.003236,0.020421,0.000176,  20.991
   132.4,0.004133,0.003232,0.020904,0.000152,  20.998
   132.6,0.004145,0.003227,0.021211,0.000190,  21.000
   132.8,0.004147,0.003219,0.021441,0.000176,  21.002
   133.0,0.004170,0.003219,0.021575,0.000152,  21.003
   133.2,0.004176,0.003217,0.021955,0.000190,  21.001
   133.4,0.004191,0.003213,0.022387,0.000176,  21.008
   133.6,0.004204,0.003212,0.022892,0.000139,  21.016
   133.8,0.004216,0.003208,0.023123,0.000163,  21.017
   134.0,0.004232,0.003208,0.023230,0.000174,  21.019
   134.2,0.004244,0.003201,0.023199,0.000136,  21.022
   134.4,0.004256,0.003190,0.023665,0.000150,  21.023
   134.6,0.004269,0.003187,0.024301,0.000187,  21.027
   134.8,0.004281,0.003187,0.025124,0.000150,  21.033
   135.0,0.004294,0.003183,0.025645,0.000163,  21.037
   135.2,0.004312,0.003175,0.026074,0.000187,  21.039
   135.4,0.004325,0.003183,0.026465,0.000150,  21.041
   135.6,0.004348,0.003180,0.026267,0.000163,  21.045
   135.8,0.004356,0.003176,0.025733,0.000187,  21.052
   136.0,0.004368,0.003169,0.024871,0.000150,  21.052
   136.2,0.004388,0.003167,0.025002,0.000163,  21.055
   136.4,0.004393,0.003164,0.025467,0.000187,  21.060
   136.6,0.004416,0.003164,0.026256,0.000187,  21.060
   136.8,0.004435,0.003164,0.027378,0.000163,  21.066
   137.0,0.004444,0.003158,0.027980,0.000150,  21.071
   137.2,0.004459,0.003159,0.028529,0.000150,  21.075
   137.4,0.004468,0.003159,0.029107,0.000163,  21.073
   137.6,0.004480,0.003156,0.029585,0.000150,  21.077
   137.8,0.004495,0.003159,0.030058,0.000150,  21.077
   138.0,0.004521,0.003159,0.030486,0.000112,  21.079
   138.2,0.004532,0.003156,0.030878,0.000163,  21.081
   138.4,0.004545,0.003159,0.031279,0.000150,  21.084
   138.6,0.004564,0.003162,0.031639,0.000112,  21.083
   138.8,0.004576,0.003162,0.032086,0.000163,  21.087
   139.0,0.004594,0.003160,0.032555,0.000150,  21.084
   139.2,0.004610,0.003160,0.033016,0.000112,  21.090
   139.4,0.004625,0.003160,0.033121,0.000150,  21.087
   139.6,0.004641,0.003156,0.033039,0.000136,  21.087
   139.8,0.004653,0.003152,0.032791,0.000099,  21.093
   140.0,0.004672,0.003151,0.033091,0.000136,  21.089
   140.2,0.004684,0.003157,0.033606,0.000136,  21.090
   140.4,0.004703,0.003155,0.034305,0.000099,  21.093
   140.6,0.004721,0.003155,0.034701,0.000136,  21.088
   140.8,0.004737,0.003153,0.035017,0.000136,  21.087
   141.0,0.004749,0.003157,0.035272,0.000099,  21.093
   141.2,0.004765,0.003159,0.035595,0.000136,  21.087
   141.4,0.004783,0.003161,0.035933,0.000136,  21.087
   141.6,0.004803,0.003172,0.036222,0.000099,  21.085
   141.8,0.004819,0.003174,0.036470,0.000136,  21.084
   142.0,0.004827,0.003176,0.036733,0.000136,  21.084
   142.2,0.004847,0.003184,0.036935,0.000099,  21.085
   142.4,0.004848,0.003191,0.037271,0.000136,  21.086
   142.6,0.004867,0.003185,0.037655,0.000136,  21.084
   142.8,0.004886,0.003190,0.038080,0.000099,  21.083
   143.0,0.004907,0.003194,0.038363,0.000136,  21.083
   143.2,0.004929,0.003193,0.038571,0.000123,  21.077
   143.4,0.004948,0.003193,0.038711,0.000085,  21.080
   143.6,0.004963,0.003192,0.038947,0.000136,  21.077
   143.8,0.004988,0.003205,0.039150,0.000123,  21.076
   144.0,0.005010,0.003211,0.039373,0.000085,  21.068
   144.2,0.005028,0.003218,0.039691,0.000136,  21.065
   144.4,0.005053,0.003220,0.040085,0.000136,  21.067
   144.6,0.005075,0.003230,0.040484,0.000099,  21.063
   144.8,0.005094,0.003234,0.040748,0.000136,  21.063
   145.0,0.005115,0.003236,0.040943,0.000136,  21.060
   145.2,0.005137,0.003246,0.041099,0.000099,  21.063
   145.4,0.005159,0.003247,0.041295,0.000136,  21.058
   145.6,0.005184,0.003250,0.041483,0.000136,  21.059
   145.8,0.005202,0.003257,0.041638,0.000136,  21.055
   146.0,0.005221,0.003262,0.041784,0.000136,  21.050
   146.2,0.005246,0.003263,0.042069,0.000150,  21.051
   146.4,0.005267,0.003273,0.042410,0.000136,  21.042
   146.6,0.005289,0.003277,0.042757,0.000150,  21.044
   146.8,0.005314,0.003284,0.043008,0.000150,  21.041
   147.0,0.005339,0.003291,0.043205,0.000136,  21.037
   147.2,0.005371,0.003301,0.043381,0.000099,  21.038
   147.4,0.005388,0.003310,0.043591,0.000136,  21.032
   147.6,0.005418,0.003320,0.043774,0.000136,  21.027
   147.8,0.005444,0.003327,0.043958,0.000099,  21.029
   148.0,0.005458,0.003337,0.044203,0.000136,  21.023
   148.2,0.005487,0.003339,0.044477,0.000123,  21.023
   148.4,0.005509,0.003349,0.044743,0.000085,  21.019
   148.6,0.005529,0.003353,0.045009,0.000136,  21.015
   148.8,0.005565,0.003365,0.045270,0.000123,  21.014
   149.0,0.005593,0.003377,0.045502,0.000085,  21.008
   149.2,0.005616,0.003381,0.045755,0.000136,  21.009
   149.4,0.005652,0.003399,0.045953,0.000123,  21.006
   149.6,0.005680,0.003416,0.046138,0.000085,  21.003
   149.8,0.005700,0.003418,0.045856,0.000136,  21.004
   150.0,0.005725,0.003430,0.045309,0.000123,  20.995
   150.2,0.005750,0.003441,0.044502,0.000085,  20.995
   150.4,0.005771,0.003449,0.044713,0.000123,  20.990
   150.6,0.005789,0.003459,0.045291,0.000110,  20.990
   150.8,0.005815,0.003471,0.046259,0.000072,  20.990
   151.0,0.005837,0.003483,0.046723,0.000123,  20.988
   151.2,0.005859,0.003493,0.047075,0.000123,  20.983
   151.4,0.005884,0.003509,0.047379,0.000085,  20.982
   151.6,0.005902,0.003521,0.047724,0.000136,  20.981
   151.8,0.005930,0.003527,0.048027,0.000123,  20.979
   152.0,0.005958,0.003544,0.048338,0.000085,  20.978
   152.2,0.005986,0.003553,0.048676,0.000136,  20.975
   152.4,0.006007,0.003564,0.049014,0.000123,  20.968
   152.6,0.006038,0.003579,0.049360,0.000085,  20.971
   152.8,0.006073,0.003585,0.049664,0.000123,  20.970
   153.0,0.006094,0.003597,0.049920,0.000110,  20.964
   153.2,0.006119,0.003614,0.050112,0.000072,  20.965
   153.4,0.006144,0.003621,0.050368,0.000110,  20.961
   153.6,0.006175,0.003638,0.050624,0.000110,  20.962
   153.8,0.006206,0.003656,0.050846,0.000072,  20.958
   154.0,0.006240,0.003667,0.051137,0.000110,  20.956
   154.2,0.006271,0.003681,0.051437,0.000110,  20.953
   154.4,0.006302,0.003695,0.051736,0.000072,  20.953
   154.6,0.006341,0.003707,0.051985,0.000110,  20.954
   154.8,0.006368,0.003721,0.052213,0.000110,  20.951
   155.0,0.006396,0.003735,0.052412,0.000110,  20.949
   155.2,0.006424,0.003746,0.052598,0.000110,  20.942
   155.4,0.006455,0.003766,0.052883,0.000110,  20.941
   155.6,0.006486,0.003778,0.053211,0.000110,  20.941
   155.8,0.006511,0.003789,0.053569,0.000110,  20.939
   156.0,0.006542,0.003809,0.053862,0.000123,  20.938
   156.2,0.006576,0.003823,0.054156,0.000110,  20.937
   156.4,0.006611,0.003835,0.054407,0.000072,  20.936
   156.6,0.006645,0.003844,0.054701,0.000110,  20.933
   156.8,0.006673,0.003859,0.054995,0.000110,  20.934
   157.0,0.006704,0.003868,0.055275,0.000072,  20.935
   157.2,0.006738,0.003882,0.055584,0.000123,  20.932
   157.4,0.006773,0.003901,0.055914,0.000123,  20.930
   157.6,0.006807,0.003920,0.056260,0.000085,  20.930
   157.8,0.006841,0.003934,0.056506,0.000136,  20.928
   158.0,0.006872,0.003954,0.056717,0.000123,  20.926
   158.2,0.006903,0.003976,0.056856,0.000085,  20.926
   158.4,0.006941,0.003992,0.057059,0.000136,  20.924
   158.6,0.006981,0.004008,0.057299,0.000123,  20.921
   158.8,0.007019,0.004032,0.057539,0.000085,  20.922
   159.0,0.007056,0.004048,0.057843,0.000123,  20.911
   159.2,0.007097,0.004067,0.058182,0.000110,  20.917
   159.4,0.007134,0.004084,0.058509,0.000072,  20.916
   159.6,0.007167,0.004105,0.058805,0.000110,  20.919
   159.8,0.007208,0.004124,0.059124,0.000147,  20.912
   160.0,0.007245,0.004139,0.059422,0.000110,  20.916
   160.2,0.007276,0.004155,0.059727,0.000110,  20.916
   160.4,0.007300,0.004178,0.060018,0.000147,  20.911
   160.6,0.007333,0.004200,0.060332,0.000110,  20.907
   160.8,0.007354,0.004216,0.060673,0.000123,  20.912
   161.0,0.007392,0.004240,0.061008,0.000160,  20.912
   161.2,0.007432,0.004266,0.061364,0.000123,  20.910
   161.4,0.007476,0.004282,0.061671,0.000136,  20.909
   161.6,0.007517,0.004309,0.061964,0.000160,  20.908
   161.8,0.007551,0.004326,0.062228,0.000123,  20.908
   162.0,0.007585,0.004340,0.062557,0.000136,  20.909
   162.2,0.007626,0.004364,0.062887,0.000174,  20.904
   162.4,0.007663,0.004386,0.063210,0.000136,  20.903
   162.6,0.007701,0.004400,0.063590,0.000136,  20.897
   162.8,0.007745,0.004421,0.064000,0.000136,  20.900
   163.0,0.007785,0.004448,0.064439,0.000099,  20.900
   163.2,0.007823,0.004467,0.064734,0.000136,  20.902
   163.4,0.007874,0.004488,0.064970,0.000136,  20.899
   163.6,0.007914,0.004515,0.065163,0.000136,  20.899
   163.8,0.007952,0.004531,0.065422,0.000150,  20.900
   164.0,0.008000,0.004553,0.065687,0.000150,  20.896
   164.2,0.008037,0.004577,0.065952,0.000150,  20.899
   164.4,0.008071,0.004596,0.066218,0.000163,  20.895
   164.6,0.008114,0.004615,0.066565,0.000150,  20.895
   164.8,0.008152,0.004639,0.066948,0.000150,  20.898
   165.0,0.008192,0.004655,0.067376,0.000112,  20.899
   165.2,0.008233,0.004674,0.067709,0.000163,  20.894
   165.4,0.008271,0.004696,0.068051,0.000150,  20.894
   165.6,0.008305,0.004713,0.068333,0.000126,  20.893
   165.8,0.008346,0.004737,0.068490,0.000163,  20.892
   166.0,0.008386,0.004759,0.068528,0.000163,  20.893
   166.2,0.008430,0.004776,0.068493,0.000139,  20.897
   166.4,0.008471,0.004793,0.068864,0.000163,  20.896
   166.6,0.008508,0.004807,0.069390,0.000163,  20.895
   166.8,0.008556,0.004821,0.070035,0.000139,  20.897
   167.0,0.008593,0.004843,0.070496,0.000163,  20.895
   167.2,0.008633,0.004867,0.070973,0.000163,  20.901
   167.4,0.008685,0.004883,0.071391,0.000126,  20.894
   167.6,0.008721,0.004903,0.071764,0.000163,  20.891
   167.8,0.008762,0.004932,0.072131,0.000150,  20.893
   168.0,0.008807,0.004958,0.072446,0.000112,  20.890
   168.2,0.008843,0.004977,0.072783,0.000163,  20.893
   168.4,0.008890,0.004999,0.073135,0.000150,  20.895
   168.6,0.008941,0.005021,0.073472,0.000112,  20.896
   168.8,0.008981,0.005040,0.073878,0.000163,  20.897
   169.0,0.009035,0.005063,0.074298,0.000150,  20.895
   169.2,0.009086,0.005095,0.074735,0.000112,  20.892
   169.4,0.009127,0.005111,0.075096,0.000163,  20.893
   169.6,0.009162,0.005136,0.075420,0.000150,  20.893
   169.8,0.009185,0.005158,0.075707,0.000112,  20.891
   170.0,0.009211,0.005181,0.076130,0.000163,  20.893
   170.2,0.009251,0.005207,0.076567,0.000150,  20.894
   170.4,0.009298,0.005231,0.077051,0.000112,  20.894
   170.6,0.009338,0.005252,0.077429,0.000163,  20.887
   170.8,0.009388,0.005281,0.077793,0.000150,  20.892
   171.0,0.009432,0.005302,0.078089,0.000112,  20.896
   171.2,0.009479,0.005321,0.078445,0.000150,  20.891
   171.4,0.009526,0.005353,0.078863,0.000136,  20.890
   171.6,0.009570,0.005378,0.079281,0.000099,  20.892
   171.8,0.009611,0.005399,0.079646,0.000136,  20.889
   172.0,0.009658,0.005426,0.080020,0.000136,  20.894
   172.2,0.009708,0.005447,0.080386,0.000099,  20.895
   172.4,0.009752,0.005468,0.080775,0.000136,  20.891
   172.6,0.009802,0.005497,0.081133,0.000136,  20.893
   172.8,0.009849,0.005525,0.081485,0.000099,  20.893
   173.0,0.009896,0.005544,0.081798,0.000136,  20.895
   173.2,0.009946,0.005568,0.082089,0.000136,  20.894
   173.4,0.009993,0.005595,0.082365,0.000136,  20.896
   173.6,0.010044,0.005616,0.082610,0.000136,  20.895
   173.8,0.010094,0.005644,0.083031,0.000150,  20.897
   174.0,0.010141,0.005674,0.083507,0.000136,  20.890
   174.2,0.010195,0.005697,0.084076,0.000150,  20.893
   174.4,0.010238,0.005721,0.084453,0.000150,  20.894
   174.6,0.010282,0.005747,0.084799,0.000136,  20.895
   174.8,0.010330,0.005768,0.085085,0.000099,  20.895
   175.0,0.010376,0.005803,0.085516,0.000136,  20.894
   175.2,0.010430,0.005830,0.085995,0.000136,  20.893
   175.4,0.010487,0.005851,0.086513,0.000099,  20.895
   175.6,0.010530,0.005873,0.087008,0.000136,  20.894
   175.8,0.010584,0.005892,0.087442,0.000136,  20.894
   176.0,0.010635,0.005909,0.087868,0.000099,  20.896
   176.2,0.010678,0.005932,0.088272,0.000136,  20.896
   176.4,0.010728,0.005963,0.088637,0.000136,  20.894
   176.6,0.010786,0.005986,0.088955,0.000099,  20.896
   176.8,0.010832,0.006011,0.089422,0.000136,  20.894
   177.0,0.010882,0.006038,0.089913,0.000136,  20.898
   177.2,0.010940,0.006070,0.090451,0.000099,  20.898
   177.4,0.010986,0.006093,0.090357,0.000136,  20.902
   177.6,0.011040,0.006122,0.089966,0.000136,  20.903
   177.8,0.011097,0.006149,0.089272,0.000099,  20.906
   178.0,0.011144,0.006168,0.089318,0.000136,  20.901
   178.2,0.011191,0.006205,0.089598,0.000136,  20.905
   178.4,0.011249,0.006230,0.090065,0.000099,  20.905
   178.6,0.011295,0.006255,0.090814,0.000136,  20.903
   178.8,0.011348,0.006289,0.091768,0.000136,  20.908
   179.0,0.011406,0.006319,0.092960,0.000099,  20.902
   179.2,0.011453,0.006348,0.093730,0.000136,  20.906
   179.4,0.011491,0.006377,0.094384,0.000136,  20.906
   179.6,0.011532,0.006410,0.094896,0.000099,  20.901
   179.8,0.011563,0.006436,0.095528,0.000136,  20.907
   180.0,0.011617,0.006464,0.096145,0.000136,  20.911
   180.2,0.011674,0.006502,0.096730,0.000099,  20.911
   180.4,0.011737,0.006525,0.097301,0.000136,  20.909
   180.6,0.011783,0.006552,0.097865,0.000160,  20.905
   180.8,0.011836,0.006579,0.098390,0.000123,  20.909
   181.0,0.011894,0.006604,0.098923,0.000150,  20.907
   181.2,0.011944,0.006636,0.099489,0.000187,  20.912
   181.4,0.011994,0.006672,0.100039,0.000150,  20.913
   181.6,0.012055,0.006700,0.100494,0.000163,  20.910
   181.8,0.012104,0.006731,0.100941,0.000187,  20.907
   182.0,0.012158,0.006762,0.101341,0.000187,  20.908
   182.2,0.012219,0.006788,0.101725,0.000163,  20.914
   182.4,0.012268,0.006822,0.102109,0.000187,  20.911
   182.6,0.012325,0.006854,0.102422,0.000187,  20.914
   182.8,0.012386,0.006875,0.102711,0.000201,  20.909
   183.0,0.012433,0.006902,0.103056,0.000187,  20.910
   183.2,0.012483,0.006926,0.103400,0.000187,  20.907
   183.4,0.012538,0.006955,0.103721,0.000150,  20.911
   183.6,0.012587,0.006984,0.104180,0.000163,  20.910
   183.8,0.012647,0.007026,0.104704,0.000187,  20.912
   184.0,0.012718,0.007062,0.105310,0.000150,  20.911
   184.2,0.012774,0.007093,0.105819,0.000163,  20.913
   184.4,0.012834,0.007134,0.106304,0.000187,  20.912
   184.6,0.012898,0.007163,0.106798,0.000150,  20.908
   184.8,0.012950,0.007189,0.107309,0.000163,  20.912
   185.0,0.013011,0.007213,0.107747,0.000187,  20.914
   185.2,0.013068,0.007230,0.108201,0.000150,  20.911
   185.4,0.013115,0.007259,0.108648,0.000163,  20.906
   185.6,0.013172,0.007285,0.109071,0.000150,  20.906
   185.8,0.013233,0.007314,0.109485,0.000112,  20.907
   186.0,0.013282,0.007348,0.109974,0.000163,  20.912
   186.2,0.013342,0.007376,0.110472,0.000150,  20.912
   186.4,0.013403,0.007415,0.111036,0.000126,  20.909
   186.6,0.013466,0.007446,0.111139,0.000163,  20.911
   186.8,0.013529,0.007472,0.110986,0.000163,  20.911
   187.0,0.013586,0.007506,0.110619,0.000139,  20.911
   187.2,0.013646,0.007537,0.111168,0.000163,  20.912
   187.4,0.013703,0.007563,0.112040,0.000163,  20.914
   187.6,0.013764,0.007600,0.113212,0.000139,  20.919
   187.8,0.013815,0.007631,0.113980,0.000163,  20.918
   188.0,0.013859,0.007652,0.114733,0.000163,  20.912
   188.2,0.013897,0.007684,0.115379,0.000126,  20.914
   188.4,0.013929,0.007715,0.116067,0.000163,  20.914
   188.6,0.013986,0.007745,0.116765,0.000150,  20.921
   188.8,0.014046,0.007786,0.117422,0.000112,  20.916
   189.0,0.014113,0.007814,0.117870,0.000163,  20.920
   189.2,0.014172,0.007848,0.118200,0.000150,  20.920
   189.4,0.014235,0.007883,0.118429,0.000112,  20.921
   189.6,0.014306,0.007909,0.118963,0.000163,  20.920
   189.8,0.014365,0.007945,0.119615,0.000150,  20.920
   190.0,0.014426,0.007977,0.120354,0.000112,  20.921
   190.2,0.014490,0.008005,0.121093,0.000163,  20.923
   190.4,0.014543,0.008038,0.121842,0.000150,  20.919
   190.6,0.014600,0.008072,0.122609,0.000126,  20.922
   190.8,0.014661,0.008101,0.123106,0.000163,  20.925
   191.0,0.014711,0.008135,0.123543,0.000163,  20.922
   191.2,0.014774,0.008175,0.123812,0.000163,  20.925
   191.4,0.014842,0.008206,0.123984,0.000176,  20.924
   191.6,0.014898,0.008238,0.124405,0.000176,  20.926
   191.8,0.014962,0.008266,0.124825,0.000163,  20.930
   192.0,0.015033,0.008298,0.125272,0.000176,  20.927
   192.2,0.015086,0.008334,0.125797,0.000176,  20.932
   192.4,0.015146,0.008366,0.126374,0.000163,  20.933
   192.6,0.015210,0.008400,0.126987,0.000139,  20.935
   192.8,0.015257,0.008425,0.127497,0.000163,  20.932
   193.0,0.015311,0.008458,0.127989,0.000163,  20.934
   193.2,0.015372,0.008482,0.128388,0.000139,  20.936
   193.4,0.015425,0.008508,0.128881,0.000163,  20.936
   193.6,0.015489,0.008527,0.129400,0.000163,  20.939
   193.8,0.015566,0.008552,0.129895,0.000139,  20.936
   194.0,0.015629,0.008588,0.130139,0.000163,  20.940
   194.2,0.015697,0.008621,0.130252,0.000163,  20.942
   194.4,0.015768,0.008657,0.130234,0.000139,  20.943
   194.6,0.015824,0.008688,0.130711,0.000163,  20.942
   194.8,0.015892,0.008721,0.131338,0.000163,  20.941
   195.0,0.015952,0.008755,0.132157,0.000139,  20.944
   195.2,0.016005,0.008783,0.132690,0.000163,  20.946
   195.4,0.016063,0.008818,0.133137,0.000163,  20.947
   195.6,0.016120,0.008850,0.133573,0.000139,  20.945
   195.8,0.016176,0.008880,0.134230,0.000163,  20.948
   196.0,0.016240,0.008916,0.134950,0.000163,  20.945
   196.2,0.016308,0.008953,0.135742,0.000139,  20.952
   196.4,0.016362,0.008986,0.136439,0.000163,  20.951
   196.6,0.016406,0.009022,0.137138,0.000163,  20.951
   196.8,0.016451,0.009054,0.137759,0.000139,  20.950
   197.0,0.016486,0.009082,0.138371,0.000176,  20.953
   197.2,0.016547,0.009116,0.138964,0.000176,  20.956
   197.4,0.016610,0.009148,0.139496,0.000152,  20.954
   197.6,0.016680,0.009179,0.140110,0.000190,  20.954
   197.8,0.016737,0.009218,0.140680,0.000176,  20.953
   198.0,0.016797,0.009256,0.141277,0.000152,  20.955
   198.2,0.016859,0.009289,0.141849,0.000176,  20.956
   198.4,0.016919,0.009326,0.142384,0.000163,  20.958
   198.6,0.016982,0.009363,0.142901,0.000139,  20.959
   198.8,0.017049,0.009391,0.143438,0.000163,  20.959
   199.0,0.017119,0.009423,0.143975,0.000163,  20.956
   199.2,0.017180,0.009460,0.144512,0.000139,  20.961
   199.4,0.017244,0.009488,0.145016,0.000163,  20.960
   199.6,0.017308,0.009522,0.145521,0.000163,  20.963
   199.8,0.017365,0.009555,0.146019,0.000139,  20.963
   200.0,0.017423,0.009584,0.146471,0.000163,  20.966
   200.2,0.017487,0.009621,0.146897,0.000163,  20.968
   200.4,0.017544,0.009653,0.147279,0.000163,  20.965
   200.6,0.017605,0.009683,0.147607,0.000176,  20.971
   200.8,0.017669,0.009717,0.148088,0.000176,  20.966
   201.0,0.017732,0.009756,0.148623,0.000163,  20.969
   201.2,0.017796,0.009785,0.149212,0.000176,  20.971
   201.4,0.017857,0.009814,0.149813,0.000176,  20.969
   201.6,0.017915,0.009846,0.150442,0.000163,  20.971
   201.8,0.017975,0.009874,0.151080,0.000126,  20.974
   202.0,0.018036,0.009910,0.151665,0.000163,  20.969
   202.2,0.018097,0.009950,0.152232,0.000150,  20.976
   202.4,0.018158,0.009980,0.152733,0.000112,  20.973
   202.6,0.018222,0.010006,0.153255,0.000163,  20.975
   202.8,0.018282,0.010031,0.153750,0.000150,  20.980
   203.0,0.018343,0.010052,0.154199,0.000126,  20.982
   203.2,0.018410,0.010080,0.154753,0.000163,  20.984
   203.4,0.018471,0.010112,0.155382,0.000163,  20.982
   203.6,0.018538,0.010153,0.156031,0.000139,  20.987
   203.8,0.018606,0.010188,0.156642,0.000163,  20.987
   204.0,0.018670,0.010223,0.157235,0.000163,  20.985
   204.2,0.018730,0.010257,0.157817,0.000139,  20.990
   204.4,0.018794,0.010287,0.158336,0.000163,  20.990
   204.6,0.018862,0.010320,0.158825,0.000163,  20.993
   204.8,0.018923,0.010354,0.159213,0.000139,  20.995
   205.0,0.018990,0.010387,0.159714,0.000163,  20.995
   205.2,0.019051,0.010421,0.160216,0.000163,  20.996
   205.4,0.019115,0.010455,0.160755,0.000139,  20.998
   205.6,0.019182,0.010488,0.161325,0.000163,  20.996
   205.8,0.019246,0.010524,0.161869,0.000163,  21.000
   206.0,0.019310,0.010561,0.162434,0.000139,  20.999
   206.2,0.019365,0.010589,0.163014,0.000163,  21.003
   206.4,0.019406,0.010629,0.163568,0.000163,  20.998
   206.6,0.019451,0.010661,0.164075,0.000139,  21.001
   206.8,0.019489,0.010689,0.164705,0.000163,  20.997
   207.0,0.019550,0.010729,0.165365,0.000163,  20.997
   207.2,0.019611,0.010765,0.166010,0.000139,  21.002
   207.4,0.019675,0.010796,0.166532,0.000163,  20.999
   207.6,0.019739,0.010833,0.167050,0.000163,  20.998
   207.8,0.019804,0.010862,0.167492,0.000139,  20.999
   208.0,0.019861,0.010890,0.167975,0.000163,  21.000
   208.2,0.019933,0.010932,0.168403,0.000163,  20.999
   208.4,0.019997,0.010964,0.168839,0.000139,  20.997
   208.6,0.020061,0.010992,0.169400,0.000163,  21.000
   208.8,0.020133,0.011031,0.170010,0.000163,  20.999
   209.0,0.020194,0.011063,0.170622,0.000139,  20.999
   209.2,0.020252,0.011096,0.171129,0.000163,  20.995
   209.4,0.020309,0.011132,0.171629,0.000163,  21.001
   209.6,0.020376,0.011163,0.172024,0.000163,  20.993
   209.8,0.020448,0.011194,0.172420,0.000176,  21.000
   210.0,0.020508,0.011234,0.172929,0.000163,  20.997
   210.2,0.020572,0.011273,0.173467,0.000150,  21.001
   210.4,0.020634,0.011304,0.174070,0.000163,  20.994
   210.6,0.020698,0.011340,0.174574,0.000163,  20.998
   210.8,0.020765,0.011382,0.175036,0.000163,  20.998
   211.0,0.020830,0.011410,0.175507,0.000139,  20.997
   211.2,0.020897,0.011444,0.176041,0.000163,  20.998
   211.4,0.020959,0.011484,0.176611,0.000163,  20.997
   211.6,0.021023,0.011516,0.177190,0.000139,  20.995
   211.8,0.021091,0.011543,0.177783,0.000163,  20.999
   212.0,0.021155,0.011567,0.178377,0.000163,  20.998
   212.2,0.021219,0.011590,0.178980,0.000139,  20.995
   212.4,0.021284,0.011627,0.179625,0.000163,  20.998
   212.6,0.021348,0.011661,0.180214,0.000163,  20.999
   212.8,0.021413,0.011692,0.180811,0.000126,  20.997
   213.0,0.021474,0.011728,0.181330,0.000163,  20.995
   213.2,0.021538,0.011759,0.181771,0.000150,  21.000
   213.4,0.021600,0.011798,0.182141,0.000112,  21.000
   213.6,0.021667,0.011831,0.182669,0.000163,  20.998
   213.8,0.021735,0.011868,0.183257,0.000150,  20.995
   214.0,0.021799,0.011901,0.183866,0.000112,  20.996
   214.2,0.021864,0.011935,0.184489,0.000163,  20.998
   214.4,0.021928,0.011972,0.185151,0.000150,  21.001
   214.6,0.021990,0.012003,0.185835,0.000112,  21.000
   214.8,0.022058,0.012037,0.186440,0.000163,  20.996
   215.0,0.022119,0.012070,0.186995,0.000150,  20.998
   215.2,0.022183,0.012104,0.187529,0.000112,  20.997
   215.4,0.022238,0.012138,0.188057,0.000163,  21.000
   215.6,0.022283,0.012170,0.188534,0.000150,  21.005
   215.8,0.022335,0.012208,0.189011,0.000112,  21.002
   216.0,0.022371,0.012239,0.189599,0.000163,  21.002
   216.2,0.022432,0.012275,0.190202,0.000150,  20.997
   216.4,0.022493,0.012312,0.190843,0.000112,  21.003
   216.6,0.022565,0.012345,0.191404,0.000163,  21.000
   216.8,0.022623,0.012384,0.191914,0.000150,  21.007
   217.0,0.022687,0.012415,0.192403,0.000112,  21.006
   217.2,0.022756,0.012448,0.192759,0.000163,  21.003
   217.4,0.022813,0.012485,0.193065,0.000150,  21.006
   217.6,0.022875,0.012522,0.193267,0.000112,  21.008
   217.8,0.022947,0.012552,0.192997,0.000163,  21.002
   218.0,0.023007,0.012582,0.192382,0.000150,  21.005
   218.2,0.023069,0.012615,0.191503,0.000112,  21.005
   218.4,0.023138,0.012649,0.191763,0.000163,  21.005
   218.6,0.023195,0.012682,0.192478,0.000150,  21.009
   218.8,0.023263,0.012722,0.193584,0.000150,  21.005
   219.0,0.023335,0.012755,0.195102,0.000163,  21.006
   219.2,0.023392,0.012792,0.196023,0.000163,  21.009
   219.4,0.023451,0.012826,0.196963,0.000163,  21.008
   219.6,0.023516,0.012860,0.197867,0.000176,  21.010
   219.8,0.023574,0.012896,0.198721,0.000176,  21.006
   220.0,0.023642,0.012933,0.199441,0.000163,  21.013
   220.2,0.023714,0.012964,0.200110,0.000139,  21.010
   220.4,0.023771,0.013000,0.200811,0.000163,  21.010
   220.6,0.023833,0.013034,0.201400,0.000163,  21.011
   220.8,0.023898,0.013063,0.201982,0.000139,  21.013
   221.0,0.023953,0.013085,0.202610,0.000163,  21.010
   221.2,0.024017,0.013107,0.203209,0.000163,  21.013
   221.4,0.024080,0.013129,0.203809,0.000139,  21.011
   221.6,0.024134,0.013158,0.204356,0.000163,  21.016
   221.8,0.024193,0.013192,0.204859,0.000163,  21.020
   222.0,0.024258,0.013230,0.205301,0.000126,  21.019
   222.2,0.024313,0.013253,0.205866,0.000163,  21.017
   222.4,0.024371,0.013293,0.206492,0.000150,  21.018
   222.6,0.024440,0.013326,0.207119,0.000112,  21.018
   222.8,0.024494,0.013349,0.207265,0.000163,  21.024
   223.0,0.024546,0.013381,0.207166,0.000150,  21.027
   223.2,0.024609,0.013415,0.206785,0.000112,  21.024
   223.4,0.024663,0.013447,0.207282,0.000163,  21.023
   223.6,0.024725,0.013476,0.208079,0.000150,  21.026
   223.8,0.024794,0.013514,0.209146,0.000126,  21.025
   224.0,0.024851,0.013542,0.209777,0.000163,  21.025
   224.2,0.024913,0.013579,0.210401,0.000163,  21.026
   224.4,0.024979,0.013615,0.210903,0.000139,  21.024
   224.6,0.025031,0.013644,0.211583,0.000163,  21.025
   224.8,0.025076,0.013686,0.212318,0.000163,  21.028
   225.0,0.025122,0.013720,0.213078,0.000139,  21.026
   225.2,0.025157,0.013744,0.213739,0.000163,  21.033
   225.4,0.025212,0.013779,0.214338,0.000163,  21.029
   225.6,0.025264,0.013805,0.214860,0.000139,  21.032
   225.8,0.025323,0.013834,0.215421,0.000163,  21.032
   226.0,0.025381,0.013866,0.215968,0.000163,  21.029
   226.2,0.025440,0.013895,0.216421,0.000139,  21.031
   226.4,0.025495,0.013924,0.216891,0.000163,  21.031
   226.6,0.025553,0.013958,0.217345,0.000163,  21.035
   226.8,0.025615,0.013993,0.217737,0.000139,  21.035
   227.0,0.025674,0.014021,0.218215,0.000163,  21.034
   227.2,0.025729,0.014055,0.218718,0.000163,  21.035
   227.4,0.025788,0.014095,0.219166,0.000139,  21.036
   227.6,0.025843,0.014119,0.219663,0.000163,  21.034
   227.8,0.025898,0.014149,0.220223,0.000163,  21.035
   228.0,0.025954,0.014174,0.220776,0.000163,  21.039
   228.2,0.026009,0.014202,0.221131,0.000176,  21.038
   228.4,0.026071,0.014236,0.221463,0.000176,  21.039
   228.6,0.026130,0.014275,0.221668,0.000163,  21.041
   228.8,0.026188,0.014307,0.221802,0.000176,  21.039
   229.0,0.026253,0.014338,0.222333,0.000176,  21.037
   229.2,0.026312,0.014376,0.222920,0.000163,  21.043
   229.4,0.026374,0.014407,0.223620,0.000139,  21.040
   229.6,0.026433,0.014438,0.224266,0.000163,  21.040
   229.8,0.026488,0.014469,0.224848,0.000163,  21.039
   230.0,0.026540,0.014496,0.225456,0.000126,  21.039
   230.2,0.026596,0.014512,0.225992,0.000150,  21.039
   230.4,0.026648,0.014537,0.226447,0.000160,  21.042
   230.6,0.026700,0.014550,0.226831,0.000123,  21.042
   230.8,0.026759,0.014576,0.227344,0.000136,  21.042
   231.0,0.026817,0.014606,0.227897,0.000174,  21.042
   231.2,0.026873,0.014636,0.228411,0.000136,  21.043
   231.4,0.026928,0.014657,0.228975,0.000136,  21.043
   231.6,0.026987,0.014689,0.229508,0.000174,  21.045
   231.8,0.027043,0.014725,0.230073,0.000136,  21.046
   232.0,0.027098,0.014751,0.230607,0.000150,  21.042
   232.2,0.027150,0.014780,0.231077,0.000187,  21.042
   232.4,0.027203,0.014816,0.231563,0.000150,  21.044
   232.6,0.027258,0.014843,0.232024,0.000163,  21.047
   232.8,0.027307,0.014872,0.232396,0.000187,  21.045
   233.0,0.027356,0.014899,0.232744,0.000150,  21.050
   233.2,0.027408,0.014921,0.233240,0.000163,  21.048
   233.4,0.027468,0.014953,0.233760,0.000187,  21.048
   233.6,0.027528,0.014988,0.234274,0.000150,  21.048
   233.8,0.027577,0.015012,0.234763,0.000163,  21.045
   234.0,0.027619,0.015039,0.235196,0.000187,  21.049
   234.2,0.027654,0.015073,0.235571,0.000150,  21.050
   234.4,0.027690,0.015097,0.236054,0.000163,  21.049
   234.6,0.027743,0.015127,0.236545,0.000187,  21.050
   234.8,0.027798,0.015160,0.237004,0.000150,  21.046
   235.0,0.027854,0.015184,0.237405,0.000163,  21.051
   235.2,0.027899,0.015209,0.237790,0.000187,  21.050
   235.4,0.027951,0.015239,0.238142,0.000150,  21.048
   235.6,0.028001,0.015265,0.238628,0.000163,  21.049
   235.8,0.028046,0.015293,0.239139,0.000150,  21.053
   236.0,0.028098,0.015327,0.239710,0.000112,  21.051
   236.2,0.028151,0.015356,0.240249,0.000163,  21.054
   236.4,0.028203,0.015377,0.240762,0.000150,  21.050
   236.6,0.028255,0.015413,0.241251,0.000112,  21.052
   236.8,0.028311,0.015441,0.241657,0.000163,  21.050
   237.0,0.028356,0.015465,0.242004,0.000187,  21.049
   237.2,0.028412,0.015493,0.242341,0.000187,  21.050
   237.4,0.028464,0.015520,0.242707,0.000201,  21.052
   237.6,0.028509,0.015549,0.243098,0.000187,  21.051
   237.8,0.028558,0.015577,0.243515,0.000187,  21.054
   238.0,0.028605,0.015598,0.243892,0.000201,  21.051
   238.2,0.028657,0.015627,0.244359,0.000187,  21.054
   238.4,0.028706,0.015660,0.244834,0.000187,  21.057
   238.6,0.028758,0.015681,0.245269,0.000150,  21.051
   238.8,0.028814,0.015708,0.245770,0.000163,  21.051
   239.0,0.028859,0.015741,0.246232,0.000187,  21.051
   239.2,0.028919,0.015765,0.246686,0.000150,  21.053
   239.4,0.028971,0.015782,0.247003,0.000150,  21.054
   239.6,0.029024,0.015807,0.247176,0.000174,  21.054
   239.8,0.029077,0.015829,0.247230,0.000136,  21.055
   240.0,0.029133,0.015856,0.247641,0.000136,  21.056
   240.2,0.029183,0.015890,0.248179,0.000174,  21.058
   240.4,0.029229,0.015913,0.248770,0.000136,  21.055
   240.6,0.029278,0.015937,0.249286,0.000150,  21.054
   240.8,0.029330,0.015964,0.249871,0.000187,  21.059
   241.0,0.029375,0.015994,0.250449,0.000163,  21.057
   241.2,0.029425,0.016029,0.250881,0.000163,  21.058
   241.4,0.029471,0.016056,0.251269,0.000201,  21.055
   241.6,0.029524,0.016078,0.251632,0.000176,  21.055
   241.8,0.029577,0.016110,0.252073,0.000176,  21.055
   242.0,0.029627,0.016140,0.252489,0.000214,  21.053
   242.2,0.029668,0.016161,0.252912,0.000190,  21.053
   242.4,0.029714,0.016186,0.253415,0.000190,  21.054
   242.6,0.029760,0.016213,0.253843,0.000214,  21.058
   242.8,0.029806,0.016237,0.254305,0.000190,  21.062
   243.0,0.029846,0.016261,0.254776,0.000190,  21.062
   243.2,0.029875,0.016288,0.255186,0.000214,  21.054
   243.4,0.029915,0.016313,0.255589,0.000190,  21.058
   243.6,0.029944,0.016337,0.256034,0.000190,  21.058
   243.8,0.029990,0.016359,0.256385,0.000214,  21.060
   244.0,0.030036,0.016384,0.256770,0.000190,  21.061
   244.2,0.030086,0.016412,0.257236,0.000190,  21.058
   244.4,0.030132,0.016439,0.257675,0.000176,  21.062
   244.6,0.030181,0.016458,0.258142,0.000152,  21.060
   244.8,0.030227,0.016482,0.258494,0.000190,  21.064
   245.0,0.030276,0.016509,0.258801,0.000176,  21.065
   245.2,0.030319,0.016534,0.259054,0.000152,  21.064
   245.4,0.030365,0.016558,0.259468,0.000190,  21.063
   245.6,0.030411,0.016579,0.259875,0.000214,  21.066
   245.8,0.030454,0.016609,0.260371,0.000190,  21.066
   246.0,0.030497,0.016630,0.260717,0.000190,  21.069
   246.2,0.030540,0.016648,0.260995,0.000214,  21.072
   246.4,0.030586,0.016676,0.261280,0.000214,  21.070
   246.6,0.030628,0.016703,0.261469,0.000176,  21.070
   246.8,0.030674,0.016725,0.261878,0.000214,  21.070
   247.0,0.030721,0.016750,0.262330,0.000201,  21.069
   247.2,0.030763,0.016775,0.262836,0.000214,  21.070
   247.4,0.030799,0.016799,0.263273,0.000214,  21.070
   247.6,0.030842,0.016824,0.263711,0.000201,  21.077
   247.8,0.030881,0.016843,0.264150,0.000176,  21.075
   248.0,0.030917,0.016865,0.264534,0.000163,  21.073
   248.2,0.030963,0.016893,0.264856,0.000201,  21.078
   248.4,0.031006,0.016912,0.265090,0.000176,  21.076
   248.6,0.031049,0.016926,0.265412,0.000176,  21.075
   248.8,0.031092,0.016939,0.265778,0.000214,  21.076
   249.0,0.031131,0.016957,0.266101,0.000190,  21.078
   249.2,0.031174,0.016974,0.266390,0.000190,  21.079
   249.4,0.031217,0.016996,0.266686,0.000214,  21.084
   249.6,0.031260,0.017019,0.266990,0.000190,  21.082
   249.8,0.031300,0.017036,0.267307,0.000190,  21.079
   250.0,0.031339,0.017055,0.267631,0.000214,  21.083
   250.2,0.031375,0.017077,0.267983,0.000190,  21.083
   250.4,0.031418,0.017093,0.268356,0.000190,  21.084
   250.6,0.031458,0.017118,0.268771,0.000227,  21.087
   250.8,0.031494,0.017143,0.269179,0.000203,  21.084
   251.0,0.031537,0.017160,0.269553,0.000190,  21.088
   251.2,0.031577,0.017182,0.269934,0.000227,  21.087
   251.4,0.031613,0.017207,0.270351,0.000203,  21.086
   251.6,0.031656,0.017221,0.270797,0.000190,  21.087
   251.8,0.031692,0.017243,0.271207,0.000214,  21.088
   252.0,0.031725,0.017265,0.271610,0.000190,  21.089
   252.2,0.031755,0.017283,0.271993,0.000176,  21.093
   252.4,0.031777,0.017300,0.272313,0.000201,  21.091
   252.6,0.031811,0.017322,0.272578,0.000176,  21.094
   252.8,0.031834,0.017337,0.272878,0.000163,  21.090
   253.0,0.031867,0.017354,0.273108,0.000201,  21.091
   253.2,0.031903,0.017374,0.273281,0.000163,  21.094
   253.4,0.031943,0.017388,0.273674,0.000163,  21.099
   253.6,0.031979,0.017410,0.274023,0.000187,  21.095
   253.8,0.032015,0.017435,0.274429,0.000150,  21.096
   254.0,0.032052,0.017450,0.274815,0.000163,  21.097
   254.2,0.032095,0.017469,0.275101,0.000187,  21.097
   254.4,0.032131,0.017490,0.275388,0.000150,  21.098
   254.6,0.032167,0.017504,0.275703,0.000163,  21.094
   254.8,0.032211,0.017532,0.276033,0.000187,  21.099
   255.0,0.032244,0.017558,0.276328,0.000150,  21.099
   255.2,0.032274,0.017575,0.276459,0.000163,  21.099
   255.4,0.032321,0.017595,0.276454,0.000187,  21.100
   255.6,0.032354,0.017616,0.276349,0.000187,  21.096
   255.8,0.032383,0.017632,0.276116,0.000163,  21.100
   256.0,0.032419,0.017646,0.276467,0.000187,  21.096
   256.2,0.032449,0.017665,0.276975,0.000187,  21.099
   256.4,0.032479,0.017676,0.277641,0.000201,  21.097
   256.6,0.032512,0.017702,0.278086,0.000187,  21.100
   256.8,0.032542,0.017717,0.278496,0.000187,  21.100
   257.0,0.032575,0.017729,0.278878,0.000150,  21.100
   257.2,0.032608,0.017752,0.279188,0.000163,  21.100
   257.4,0.032641,0.017769,0.279456,0.000187,  21.101
   257.6,0.032670,0.017786,0.279661,0.000150,  21.103
   257.8,0.032704,0.017796,0.279942,0.000163,  21.102
   258.0,0.032740,0.017818,0.280232,0.000187,  21.102
   258.2,0.032766,0.017825,0.280522,0.000150,  21.104
   258.4,0.032799,0.017842,0.280748,0.000163,  21.099
   258.6,0.032833,0.017859,0.280916,0.000187,  21.099
   258.8,0.032862,0.017877,0.281063,0.000150,  21.102
   259.0,0.032895,0.017893,0.281375,0.000163,  21.098
   259.2,0.032928,0.017910,0.281759,0.000187,  21.101
   259.4,0.032962,0.017927,0.282201,0.000150,  21.100
   259.6,0.032991,0.017946,0.282521,0.000163,  21.100
   259.8,0.033021,0.017961,0.282776,0.000187,  21.100
   260.0,0.033051,0.017973,0.282938,0.000163,  21.100
   260.2,0.033081,0.017991,0.283193,0.000163,  21.098
   260.4,0.033107,0.018008,0.283412,0.000201,  21.099
   260.6,0.033134,0.018023,0.283647,0.000176,  21.101
   260.8,0.033157,0.018040,0.283968,0.000163,  21.101
   261.0,0.033173,0.018057,0.284274,0.000201,  21.102
   261.2,0.033196,0.018069,0.284653,0.000163,  21.100
   261.4,0.033212,0.018084,0.284938,0.000163,  21.099
   261.6,0.033239,0.018101,0.285231,0.000187,  21.101
   261.8,0.033265,0.018116,0.285451,0.000150,  21.104
   262.0,0.033292,0.018129,0.285672,0.000163,  21.105
   262.2,0.033322,0.018146,0.285863,0.000187,  21.105
   262.4,0.033351,0.018162,0.285996,0.000150,  21.104
   262.6,0.033378,0.018165,0.286188,0.000163,  21.105
   262.8,0.033404,0.018185,0.286379,0.000187,  21.103
   263.0,0.033431,0.018199,0.286578,0.000150,  21.108
   263.2,0.033454,0.018211,0.286807,0.000163,  21.113
   263.4,0.033481,0.018226,0.286969,0.000187,  21.110
   263.6,0.033501,0.018241,0.287103,0.000150,  21.108
   263.8,0.033524,0.018259,0.287419,0.000163,  21.107
   264.0,0.033554,0.018266,0.287764,0.000187,  21.110
   264.2,0.033581,0.018274,0.288161,0.000187,  21.111
   264.4,0.033601,0.018292,0.288221,0.000163,  21.110
   264.6,0.033631,0.018301,0.288104,0.000187,  21.110
   264.8,0.033658,0.018314,0.287834,0.000187,  21.112
   265.0,0.033677,0.018323,0.287366,0.000201,  21.110
   265.2,0.033700,0.018343,0.287645,0.000187,  21.110
   265.4,0.033723,0.018360,0.288057,0.000187,  21.113
   265.6,0.033747,0.018372,0.288696,0.000163,  21.112
   265.8,0.033773,0.018381,0.289080,0.000163,  21.109
   266.0,0.033793,0.018396,0.289339,0.000201,  21.109
   266.2,0.033813,0.018406,0.289576,0.000176,  21.109
   266.4,0.033836,0.018421,0.289894,0.000163,  21.111
   266.6,0.033859,0.018428,0.290175,0.000201,  21.110
   266.8,0.033882,0.018442,0.290412,0.000176,  21.110
   267.0,0.033902,0.018451,0.290626,0.000163,  21.108
   267.2,0.033925,0.018463,0.290812,0.000201,  21.112
   267.4,0.033945,0.018473,0.290939,0.000176,  21.108
   267.6,0.033961,0.018483,0.291191,0.000163,  21.110
   267.8,0.033984,0.018493,0.291466,0.000201,  21.110
   268.0,0.034008,0.018504,0.291777,0.000176,  21.104
   268.2,0.034028,0.018514,0.291408,0.000163,  21.103
   268.4,0.034048,0.018532,0.290714,0.000201,  21.103
   268.6,0.034067,0.018541,0.289616,0.000176,  21.106
   268.8,0.034087,0.018553,0.289536,0.000163,  21.105
   269.0,0.034111,0.018565,0.289737,0.000201,  21.101
   269.2,0.034130,0.018582,0.290261,0.000176,  21.104
   269.4,0.034150,0.018586,0.290712,0.000163,  21.105
   269.6,0.034174,0.018601,0.291156,0.000201,  21.102
   269.8,0.034190,0.018611,0.291742,0.000176,  21.105
   270.0,0.034207,0.018621,0.292224,0.000163,  21.105
   270.2,0.034219,0.018628,0.292633,0.000201,  21.103
   270.4,0.034237,0.018641,0.293012,0.000176,  21.102
   270.6,0.034253,0.018654,0.293422,0.000163,  21.106
   270.8,0.034273,0.018667,0.293764,0.000201,  21.102
   271.0,0.034290,0.018669,0.294062,0.000176,  21.104
   271.2,0.034303,0.018676,0.294339,0.000163,  21.096
   271.4,0.034320,0.018691,0.294593,0.000201,  21.100
   271.6,0.034340,0.018702,0.294788,0.000176,  21.102
   271.8,0.034353,0.018715,0.294908,0.000163,  21.100
   272.0,0.034373,0.018725,0.294969,0.000201,  21.100
   272.2,0.034386,0.018736,0.294970,0.000176,  21.100
   272.4,0.034403,0.018740,0.295179,0.000163,  21.096
   272.6,0.034423,0.018750,0.295456,0.000201,  21.103
   272.8,0.034439,0.018758,0.295793,0.000163,  21.100
   273.0,0.034452,0.018762,0.295936,0.000163,  21.100
   273.2,0.034469,0.018775,0.296019,0.000187,  21.102
   273.4,0.034482,0.018780,0.296042,0.000187,  21.106
   273.6,0.034492,0.018784,0.295990,0.000163,  21.101
   273.8,0.034509,0.018797,0.295871,0.000187,  21.100
   274.0,0.034515,0.018810,0.295684,0.000187,  21.101
   274.2,0.034531,0.018814,0.295438,0.000201,  21.101
   274.4,0.034548,0.018819,0.295647,0.000187,  21.099
   274.6,0.034557,0.018829,0.295954,0.000187,  21.100
   274.8,0.034578,0.018833,0.296427,0.000150,  21.102
   275.0,0.034595,0.018843,0.296704,0.000163,  21.097
   275.2,0.034604,0.018848,0.296953,0.000187,  21.095
   275.4,0.034624,0.018850,0.297133,0.000150,  21.097
   275.6,0.034638,0.018862,0.297179,0.000163,  21.099
   275.8,0.034644,0.018862,0.297134,0.000187,  21.098
   276.0,0.034658,0.018871,0.296924,0.000150,  21.100
   276.2,0.034671,0.018874,0.297008,0.000163,  21.097
   276.4,0.034677,0.018879,0.297150,0.000187,  21.100
   276.6,0.034697,0.018879,0.297406,0.000150,  21.101
   276.8,0.034711,0.018887,0.297685,0.000163,  21.103
   277.0,0.034721,0.018891,0.297978,0.000187,  21.104
   277.2,0.034738,0.018901,0.298385,0.000150,  21.101
   277.4,0.034759,0.018908,0.298355,0.000163,  21.098
   277.6,0.034769,0.018910,0.298175,0.000187,  21.096
   277.8,0.034779,0.018918,0.297829,0.000150,  21.098
   278.0,0.034799,0.018926,0.297972,0.000163,  21.101
   278.2,0.034806,0.018934,0.298251,0.000187,  21.103
   278.4,0.034802,0.018937,0.298666,0.000163,  21.097
   278.6,0.034812,0.018945,0.298825,0.000163,  21.102
   278.8,0.034826,0.018947,0.298871,0.000201,  21.098
   279.0,0.034841,0.018949,0.298788,0.000176,  21.101
   279.2,0.034851,0.018949,0.298962,0.000163,  21.098
   279.4,0.034864,0.018954,0.299165,0.000201,  21.098
   279.6,0.034867,0.018962,0.299430,0.000176,  21.099
   279.8,0.034873,0.018964,0.299566,0.000163,  21.098
   280.0,0.034875,0.018972,0.299672,0.000201,  21.097
   280.2,0.034882,0.018979,0.299748,0.000176,  21.100
   280.4,0.034896,0.018979,0.299823,0.000163,  21.100
   280.6,0.034902,0.018986,0.299869,0.000201,  21.101
   280.8,0.034912,0.018996,0.299892,0.000176,  21.098
   281.0,0.034922,0.018998,0.299703,0.000163,  21.096
   281.2,0.034932,0.019001,0.299341,0.000201,  21.095
   281.4,0.034938,0.019011,0.298858,0.000176,  21.092
   281.6,0.034942,0.019013,0.298994,0.000163,  21.097
   281.8,0.034952,0.019018,0.299288,0.000201,  21.094
   282.0,0.034961,0.019026,0.299847,0.000176,  21.098
   282.2,0.034968,0.019025,0.300052,0.000163,  21.100
   282.4,0.034975,0.019029,0.300234,0.000201,  21.094
   282.6,0.034985,0.019039,0.300279,0.000201,  21.098
   282.8,0.034988,0.019039,0.300257,0.000176,  21.095
   283.0,0.034995,0.019036,0.300204,0.000214,  21.094
   283.2,0.034998,0.019049,0.299969,0.000201,  21.095
   283.4,0.034998,0.019049,0.299720,0.000214,  21.098
   283.6,0.034997,0.019047,0.299887,0.000201,  21.095
   283.8,0.035004,0.019050,0.300121,0.000187,  21.095
   284.0,0.035007,0.019055,0.300485,0.000150,  21.094
   284.2,0.035003,0.019058,0.300659,0.000163,  21.094
   284.4,0.035003,0.019059,0.300758,0.000150,  21.096
   284.6,0.035014,0.019059,0.300841,0.000112,  21.093
   284.8,0.035025,0.019066,0.300622,0.000163,  21.098
   285.0,0.035025,0.019064,0.300190,0.000150,  21.097
   285.2,0.035025,0.019066,0.299532,0.000112,  21.093
   285.4,0.035035,0.019058,0.299532,0.000163,  21.094
   285.6,0.035039,0.019060,0.299767,0.000150,  21.097
   285.8,0.035028,0.019059,0.300243,0.000112,  21.096
   286.0,0.035028,0.019059,0.300440,0.000163,  21.091
   286.2,0.035031,0.019060,0.300615,0.000150,  21.092
   286.4,0.035028,0.019063,0.300751,0.000112,  21.092
   286.6,0.035028,0.019063,0.300910,0.000163,  21.096
   286.8,0.035031,0.019063,0.301047,0.000150,  21.091
   287.0,0.035031,0.019065,0.301100,0.000112,  21.092
   287.2,0.035031,0.019059,0.300629,0.000163,  21.093
   287.4,0.035035,0.019061,0.299797,0.000150,  21.094
   287.6,0.035035,0.019069,0.298672,0.000126,  21.094
   287.8,0.035031,0.019068,0.298650,0.000176,  21.094
   288.0,0.035028,0.019060,0.298891,0.000176,  21.096
   288.2,0.035021,0.019061,0.299541,0.000152,  21.096
   288.4,0.035015,0.019058,0.299805,0.000176,  21.096
   288.6,0.035015,0.019056,0.300002,0.000163,  21.094
   288.8,0.035020,0.019054,0.300160,0.000139,  21.092
   289.0,0.035017,0.019057,0.300387,0.000163,  21.094
   289.2,0.035020,0.019055,0.300569,0.000163,  21.101
   289.4,0.035013,0.019058,0.300766,0.000139,  21.096
   289.6,0.035009,0.019055,0.300925,0.000163,  21.092
   289.8,0.035001,0.019055,0.300978,0.000163,  21.098
   290.0,0.035001,0.019047,0.301038,0.000139,  21.098
   290.2,0.035012,0.019044,0.301069,0.000176,  21.099
   290.4,0.035001,0.019041,0.301038,0.000176,  21.098
   290.6,0.034998,0.019044,0.300955,0.000152,  21.098
   290.8,0.034991,0.019044,0.300948,0.000190,  21.100
   291.0,0.034988,0.019042,0.300986,0.000176,  21.098
   291.2,0.034981,0.019038,0.300948,0.000152,  21.096
   291.4,0.034978,0.019038,0.300932,0.000176,  21.101
   291.6,0.034975,0.019036,0.300962,0.000163,  21.100
   291.8,0.034968,0.019031,0.300909,0.000139,  21.104
   292.0,0.034961,0.019020,0.300265,0.000163,  21.100
   292.2,0.034955,0.019022,0.299327,0.000163,  21.103
   292.4,0.034948,0.019020,0.298068,0.000139,  21.103
   292.6,0.034942,0.019012,0.297843,0.000163,  21.104
   292.8,0.034935,0.019010,0.297933,0.000163,  21.102
   293.0,0.034928,0.019008,0.298369,0.000163,  21.102
   293.2,0.034915,0.019008,0.299131,0.000176,  21.102
   293.4,0.034901,0.018992,0.299365,0.000176,  21.105
   293.6,0.034891,0.018984,0.299485,0.000163,  21.105
   293.8,0.034881,0.018981,0.299568,0.000176,  21.107
   294.0,0.034867,0.018972,0.299590,0.000176,  21.108
   294.2,0.034860,0.018973,0.299583,0.000163,  21.106
   294.4,0.034864,0.018968,0.299515,0.000139,  21.103
   294.6,0.034854,0.018955,0.299477,0.000163,  21.110
   294.8,0.034844,0.018955,0.299401,0.000163,  21.112
   295.0,0.034834,0.018950,0.299371,0.000139,  21.106
   295.2,0.034824,0.018945,0.299401,0.000163,  21.108
   295.4,0.034815,0.018942,0.299416,0.000163,  21.108
   295.6,0.034801,0.018937,0.299476,0.000139,  21.106
   295.8,0.034795,0.018929,0.299431,0.000163,  21.111
   296.0,0.034785,0.018932,0.299325,0.000163,  21.108
   296.2,0.034771,0.018927,0.299181,0.000139,  21.110
   296.4,0.034765,0.018920,0.299098,0.000163,  21.105
   296.6,0.034755,0.018907,0.298992,0.000163,  21.111
   296.8,0.034745,0.018902,0.298848,0.000139,  21.111
   297.0,0.034735,0.018895,0.298162,0.000163,  21.111
   297.2,0.034725,0.018887,0.297214,0.000163,  21.111
   297.4,0.034712,0.018882,0.296014,0.000139,  21.111
   297.6,0.034705,0.018874,0.295961,0.000163,  21.113
   297.8,0.034692,0.018874,0.296343,0.000163,  21.113
   298.0,0.034678,0.018870,0.297228,0.000139,  21.112
   298.2,0.034665,0.018859,0.297415,0.000163,  21.111
   298.4,0.034651,0.018855,0.297437,0.000163,  21.108
   298.6,0.034645,0.018845,0.297362,0.000139,  21.113
   298.8,0.034635,0.018833,0.297414,0.000163,  21.110
   299.0,0.034625,0.018829,0.297369,0.000163,  21.104
   299.2,0.034615,0.018820,0.297323,0.000139,  21.109
   299.4,0.034605,0.018813,0.297346,0.000163,  21.111
   299.6,0.034595,0.018805,0.297293,0.000163,  21.109
   299.8,0.034582,0.018805,0.297277,0.000139,  21.110
   300.0,0.034569,0.018802,0.297232,0.000163,  21.109
   300.2,0.034555,0.018792,0.297149,0.000163,  21.109
   300.4,0.034542,0.018795,0.297036,0.000139,  21.109
   300.6,0.034529,0.018790,0.296960,0.000163,  21.109
   300.8,0.034516,0.018780,0.296810,0.000163,  21.107
   301.0,0.034502,0.018773,0.296637,0.000139,  21.109
   301.2,0.034489,0.018764,0.296592,0.000163,  21.106
   301.4,0.034476,0.018754,0.296538,0.000163,  21.107
   301.6,0.034462,0.018744,0.296478,0.000126,  21.106
   301.8,0.034446,0.018733,0.296365,0.000163,  21.103
   302.0,0.034433,0.018723,0.296297,0.000150,  21.104
   302.2,0.034419,0.018712,0.296155,0.000150,  21.104
   302.4,0.034406,0.018707,0.296020,0.000163,  21.108
   302.6,0.034397,0.018700,0.295974,0.000150,  21.107
   302.8,0.034384,0.018693,0.295899,0.000150,  21.102
   303.0,0.034369,0.018685,0.295846,0.000163,  21.104
   303.2,0.034356,0.018673,0.295763,0.000163,  21.111
   303.4,0.034338,0.018666,0.295651,0.000163,  21.103
   303.6,0.034321,0.018661,0.295426,0.000139,  21.105
   303.8,0.034300,0.018650,0.295335,0.000163,  21.105
   304.0,0.034287,0.018651,0.295282,0.000163,  21.106
   304.2,0.034274,0.018644,0.295199,0.000139,  21.103
   304.4,0.034257,0.018633,0.295057,0.000163,  21.102
   304.6,0.034244,0.018631,0.294802,0.000163,  21.106
   304.8,0.034227,0.018621,0.294541,0.000139,  21.104
   305.0,0.034207,0.018614,0.294399,0.000163,  21.104
   305.2,0.034190,0.018613,0.294242,0.000163,  21.104
   305.4,0.034170,0.018608,0.294129,0.000139,  21.105
   305.6,0.034154,0.018601,0.293950,0.000163,  21.106
   305.8,0.034134,0.018586,0.293741,0.000163,  21.105
   306.0,0.034125,0.018578,0.293473,0.000139,  21.104
   306.2,0.034112,0.018573,0.293294,0.000163,  21.103
   306.4,0.034092,0.018560,0.293145,0.000163,  21.103
   306.6,0.034065,0.018553,0.292966,0.000139,  21.103
   306.8,0.034048,0.018543,0.292876,0.000163,  21.099
   307.0,0.034035,0.018528,0.292786,0.000163,  21.101
   307.2,0.034018,0.018514,0.292733,0.000126,  21.101
   307.4,0.034005,0.018510,0.292651,0.000163,  21.098
   307.6,0.033989,0.018500,0.292524,0.000150,  21.101
   307.8,0.033965,0.018493,0.292374,0.000112,  21.100
   308.0,0.033952,0.018488,0.292159,0.000163,  21.105
   308.2,0.033925,0.018475,0.291913,0.000150,  21.103
   308.4,0.033922,0.018457,0.291639,0.000112,  21.102
   308.6,0.033906,0.018442,0.291520,0.000163,  21.102
   308.8,0.033886,0.018429,0.291393,0.000150,  21.099
   309.0,0.033866,0.018425,0.291369,0.000112,  21.099
   309.2,0.033839,0.018416,0.291242,0.000163,  21.101
   309.4,0.033815,0.018406,0.291094,0.000150,  21.100
   309.6,0.033796,0.018399,0.290879,0.000112,  21.099
   309.8,0.033776,0.018389,0.290730,0.000163,  21.100
   310.0,0.033759,0.018379,0.290544,0.000150,  21.101
   310.2,0.033742,0.018364,0.290367,0.000112,  21.105
   310.4,0.033737,0.018354,0.290181,0.000163,  21.103
   310.6,0.033724,0.018339,0.290025,0.000150,  21.104
   310.8,0.033701,0.018321,0.289811,0.000112,  21.102
   311.0,0.033667,0.018312,0.289633,0.000163,  21.101
   311.2,0.033640,0.018305,0.289522,0.000150,  21.102
   311.4,0.033620,0.018295,0.289345,0.000150,  21.099
   311.6,0.033593,0.018290,0.289205,0.000163,  21.101
   311.8,0.033566,0.018278,0.289057,0.000150,  21.105
   312.0,0.033546,0.018270,0.288909,0.000150,  21.103
   312.2,0.033530,0.018260,0.288753,0.000163,  21.103
   312.4,0.033510,0.018250,0.288605,0.000150,  21.103
   312.6,0.033494,0.018233,0.288450,0.000150,  21.102
   312.8,0.033474,0.018218,0.288273,0.000112,  21.107
   313.0,0.033451,0.018206,0.288096,0.000163,  21.105
   313.2,0.033428,0.018188,0.287838,0.000150,  21.104
   313.4,0.033398,0.018184,0.287588,0.000112,  21.101
   313.6,0.033375,0.018166,0.287440,0.000163,  21.100
   313.8,0.033351,0.018167,0.287277,0.000150,  21.099
   314.0,0.033325,0.018162,0.287078,0.000112,  21.101
   314.2,0.033312,0.018150,0.286886,0.000163,  21.105
   314.4,0.033293,0.018132,0.286694,0.000150,  21.099
   314.6,0.033269,0.018122,0.286452,0.000112,  21.103
   314.8,0.033257,0.018112,0.286232,0.000163,  21.105
   315.0,0.033237,0.018097,0.286012,0.000150,  21.104
   315.2,0.033207,0.018082,0.285807,0.000112,  21.104
   315.4,0.033183,0.018072,0.285645,0.000150,  21.104
   315.6,0.033157,0.018052,0.285475,0.000174,  21.107
   315.8,0.033127,0.018043,0.285341,0.000136,  21.107
   316.0,0.033104,0.018030,0.284990,0.000150,  21.106
   316.2,0.033077,0.018010,0.284589,0.000187,  21.106
   316.4,0.033054,0.017998,0.284058,0.000150,  21.106
   316.6,0.033034,0.017984,0.283839,0.000163,  21.105
   316.8,0.033004,0.017972,0.283722,0.000187,  21.103
   317.0,0.032998,0.017961,0.283691,0.000150,  21.106
   317.2,0.032978,0.017952,0.283610,0.000163,  21.108
   317.4,0.032955,0.017940,0.283420,0.000187,  21.106
   317.6,0.032928,0.017924,0.283237,0.000150,  21.107
   317.8,0.032905,0.017912,0.283091,0.000150,  21.110
   318.0,0.032879,0.017897,0.282836,0.000174,  21.110
   318.2,0.032849,0.017882,0.282581,0.000136,  21.110
   318.4,0.032816,0.017870,0.282391,0.000150,  21.104
   318.6,0.032790,0.017853,0.282173,0.000187,  21.106
   318.8,0.032763,0.017836,0.281947,0.000150,  21.103
   319.0,0.032740,0.017821,0.281505,0.000163,  21.107
   319.2,0.032706,0.017801,0.280905,0.000187,  21.106
   319.4,0.032676,0.017787,0.280148,0.000150,  21.109
   319.6,0.032650,0.017769,0.279895,0.000163,  21.106
   319.8,0.032616,0.017759,0.279799,0.000187,  21.110
   320.0,0.032586,0.017750,0.279869,0.000150,  21.107
   320.2,0.032564,0.017732,0.279753,0.000163,  21.111
   320.4,0.032537,0.017715,0.279629,0.000187,  21.108
   320.6,0.032508,0.017697,0.279492,0.000187,  21.108
   320.8,0.032478,0.017680,0.279311,0.000163,  21.111
   321.0,0.032452,0.017657,0.279123,0.000187,  21.108
   321.2,0.032422,0.017645,0.278963,0.000187,  21.108
   321.4,0.032392,0.017630,0.278803,0.000201,  21.107
   321.6,0.032366,0.017608,0.278615,0.000187,  21.109
   321.8,0.032336,0.017591,0.278362,0.000187,  21.109
   322.0,0.032303,0.017579,0.278117,0.000150,  21.110
   322.2,0.032273,0.017566,0.277986,0.000163,  21.110
   322.4,0.032247,0.017556,0.277790,0.000187,  21.112
   322.6,0.032220,0.017548,0.277659,0.000150,  21.108
   322.8,0.032187,0.017528,0.277428,0.000163,  21.107
   323.0,0.032154,0.017519,0.277147,0.000187,  21.108
   323.2,0.032121,0.017502,0.276839,0.000150,  21.114
   323.4,0.032088,0.017484,0.276515,0.000163,  21.104
   323.6,0.032058,0.017465,0.276208,0.000187,  21.110
   323.8,0.032032,0.017453,0.275872,0.000150,  21.108
   324.0,0.032010,0.017439,0.275621,0.000163,  21.106
   324.2,0.031980,0.017419,0.275370,0.000187,  21.106
   324.4,0.031947,0.017406,0.275083,0.000150,  21.108
   324.6,0.031928,0.017394,0.274869,0.000163,  21.107
   324.8,0.031892,0.017374,0.274610,0.000187,  21.107
   325.0,0.031848,0.017357,0.274324,0.000150,  21.106
   325.2,0.031815,0.017334,0.274067,0.000163,  21.106
   325.4,0.031779,0.017315,0.273837,0.000187,  21.103
   325.6,0.031742,0.017297,0.273579,0.000150,  21.107
   325.8,0.031713,0.017280,0.273350,0.000163,  21.106
   326.0,0.031679,0.017256,0.273128,0.000187,  21.105
   326.2,0.031663,0.017244,0.272942,0.000150,  21.107
   326.4,0.031643,0.017229,0.272466,0.000163,  21.106
   326.6,0.031617,0.017206,0.271837,0.000187,  21.104
   326.8,0.031584,0.017194,0.271054,0.000150,  21.105
   327.0,0.031551,0.017180,0.270778,0.000163,  21.108
   327.2,0.031521,0.017160,0.270621,0.000187,  21.110
   327.4,0.031492,0.017146,0.270582,0.000150,  21.108
   327.6,0.031459,0.017129,0.270370,0.000163,  21.106
   327.8,0.031426,0.017109,0.270067,0.000187,  21.111
   328.0,0.031389,0.017089,0.269728,0.000150,  21.106
   328.2,0.031350,0.017072,0.269481,0.000163,  21.108
   328.4,0.031317,0.017050,0.269233,0.000187,  21.108
   328.6,0.031281,0.017030,0.269022,0.000150,  21.107
   328.8,0.031248,0.017013,0.268802,0.000163,  21.108
   329.0,0.031215,0.016996,0.268598,0.000187,  21.110
   329.2,0.031182,0.016979,0.268336,0.000187,  21.114
   329.4,0.031145,0.016962,0.268124,0.000163,  21.111
   329.6,0.031116,0.016940,0.267897,0.000187,  21.112
   329.8,0.031083,0.016925,0.267643,0.000187,  21.109
   330.0,0.031050,0.016906,0.267382,0.000201,  21.108
   330.2,0.031013,0.016883,0.267155,0.000201,  21.110
   330.4,0.030977,0.016861,0.266929,0.000201,  21.110
   330.6,0.030937,0.016844,0.266702,0.000176,  21.112
   330.8,0.030897,0.016821,0.266414,0.000163,  21.109
   331.0,0.030861,0.016804,0.266106,0.000201,  21.111
   331.2,0.030832,0.016790,0.265763,0.000163,  21.109
   331.4,0.030796,0.016770,0.265475,0.000163,  21.105
   331.6,0.030759,0.016759,0.265152,0.000187,  21.108
   331.8,0.030726,0.016747,0.264864,0.000150,  21.107
   332.0,0.030690,0.016727,0.264495,0.000163,  21.106
   332.2,0.030657,0.016706,0.264099,0.000187,  21.109
   332.4,0.030621,0.016692,0.263641,0.000150,  21.106
   332.6,0.030596,0.016674,0.263362,0.000163,  21.105
   332.8,0.030559,0.016657,0.263118,0.000187,  21.107
   333.0,0.030520,0.016637,0.262902,0.000150,  21.110
   333.2,0.030490,0.016614,0.262129,0.000163,  21.105
   333.4,0.030454,0.016597,0.261118,0.000187,  21.103
   333.6,0.030417,0.016575,0.259804,0.000150,  21.106
   333.8,0.030380,0.016553,0.259485,0.000163,  21.106
   334.0,0.030344,0.016543,0.259604,0.000187,  21.109
   334.2,0.030315,0.016531,0.260006,0.000150,  21.106
   334.4,0.030285,0.016512,0.259926,0.000163,  21.109
   334.6,0.030248,0.016489,0.259833,0.000187,  21.110
   334.8,0.030236,0.016468,0.259610,0.000163,  21.110
   335.0,0.030210,0.016448,0.259457,0.000163,  21.110
   335.2,0.030177,0.016424,0.259311,0.000201,  21.110
   335.4,0.030134,0.016410,0.259131,0.000176,  21.111
   335.6,0.030091,0.016393,0.258828,0.000163,  21.109
   335.8,0.030055,0.016368,0.258430,0.000201,  21.112
   336.0,0.030019,0.016351,0.257978,0.000176,  21.110
   336.2,0.029986,0.016334,0.257669,0.000163,  21.110
   336.4,0.029953,0.016314,0.257344,0.000201,  21.112
   336.6,0.029917,0.016292,0.257034,0.000176,  21.109
   336.8,0.029884,0.016277,0.256482,0.000163,  21.111
   337.0,0.029855,0.016255,0.255869,0.000201,  21.111
   337.2,0.029822,0.016240,0.255117,0.000163,  21.113
   337.4,0.029786,0.016225,0.254783,0.000163,  21.114
   337.6,0.029753,0.016200,0.254639,0.000187,  21.116
   337.8,0.029717,0.016186,0.254650,0.000187,  21.114
   338.0,0.029677,0.016166,0.254498,0.000163,  21.114
   338.2,0.029641,0.016141,0.254365,0.000187,  21.113
   338.4,0.029602,0.016122,0.254281,0.000187,  21.109
   338.6,0.029563,0.016103,0.254148,0.000201,  21.107
   338.8,0.029530,0.016080,0.253928,0.000187,  21.114
   339.0,0.029497,0.016066,0.253647,0.000187,  21.112
   339.2,0.029464,0.016049,0.253299,0.000150,  21.108
   339.4,0.029431,0.016026,0.253045,0.000163,  21.112
   339.6,0.029392,0.016015,0.252791,0.000187,  21.116
   339.8,0.029352,0.015992,0.252572,0.000150,  21.111
   340.0,0.029324,0.015975,0.252387,0.000163,  21.109
   340.2,0.029284,0.015958,0.252107,0.000187,  21.116
   340.4,0.029245,0.015940,0.251869,0.000150,  21.115
   340.6,0.029216,0.015923,0.251598,0.000163,  21.115
   340.8,0.029180,0.015911,0.251293,0.000187,  21.117
   341.0,0.029133,0.015902,0.250928,0.000150,  21.112
   341.2,0.029101,0.015874,0.250623,0.000163,  21.114
   341.4,0.029065,0.015855,0.250284,0.000187,  21.114
   341.6,0.029029,0.015836,0.249920,0.000150,  21.114
   341.8,0.028996,0.015811,0.249590,0.000163,  21.113
   342.0,0.028960,0.015794,0.249242,0.000187,  21.114
   342.2,0.028920,0.015774,0.248894,0.000150,  21.112
   342.4,0.028884,0.015751,0.248181,0.000163,  21.117
   342.6,0.028848,0.015737,0.247291,0.000150,  21.119
   342.8,0.028809,0.015715,0.246218,0.000112,  21.116
   343.0,0.028776,0.015690,0.245943,0.000163,  21.117
   343.2,0.028737,0.015673,0.245889,0.000150,  21.115
   343.4,0.028697,0.015648,0.246131,0.000112,  21.112
   343.6,0.028665,0.015626,0.246025,0.000163,  21.116
   343.8,0.028634,0.015610,0.245853,0.000187,  21.121
   344.0,0.028605,0.015589,0.245644,0.000150,  21.116
   344.2,0.028585,0.015567,0.245454,0.000163,  21.118
   344.4,0.028549,0.015543,0.245222,0.000187,  21.116
   344.6,0.028517,0.015523,0.245040,0.000150,  21.119
   344.8,0.028471,0.015503,0.244765,0.000163,  21.117
   345.0,0.028440,0.015484,0.244405,0.000187,  21.117
   345.2,0.028400,0.015468,0.244028,0.000150,  21.118
   345.4,0.028350,0.015451,0.243762,0.000163,  21.120
   345.6,0.028311,0.015426,0.243421,0.000187,  21.117
   345.8,0.028272,0.015406,0.243114,0.000150,  21.121
   346.0,0.028232,0.015387,0.242814,0.000163,  21.117
   346.2,0.028193,0.015360,0.242482,0.000187,  21.122
   346.4,0.028154,0.015331,0.242124,0.000150,  21.117
   346.6,0.028111,0.015309,0.241833,0.000163,  21.120
   346.8,0.028072,0.015290,0.241560,0.000187,  21.122
   347.0,0.028039,0.015270,0.241278,0.000187,  21.120
   347.2,0.028000,0.015247,0.241046,0.000163,  21.122
   347.4,0.027961,0.015225,0.240748,0.000187,  21.123
   347.6,0.027926,0.015211,0.240417,0.000187,  21.124
   347.8,0.027887,0.015195,0.240061,0.000201,  21.122
   348.0,0.027841,0.015173,0.239716,0.000187,  21.126
   348.2,0.027809,0.015151,0.239386,0.000187,  21.127
   348.4,0.027770,0.015127,0.239023,0.000150,  21.123
   348.6,0.027720,0.015100,0.238744,0.000163,  21.124
   348.8,0.027680,0.015073,0.238458,0.000187,  21.127
   349.0,0.027641,0.015048,0.238237,0.000150,  21.123
   349.2,0.027591,0.015025,0.237883,0.000163,  21.127
   349.4,0.027552,0.015015,0.237471,0.000187,  21.126
   349.6,0.027520,0.015007,0.236977,0.000150,  21.127
   349.8,0.027477,0.014987,0.236624,0.000163,  21.129
   350.0,0.027438,0.014972,0.236231,0.000187,  21.130
   350.2,0.027399,0.014955,0.235879,0.000150,  21.131
   350.4,0.027352,0.014936,0.235576,0.000163,  21.135
   350.6,0.027310,0.014911,0.235307,0.000187,  21.134
   350.8,0.027267,0.014889,0.234990,0.000150,  21.136
   351.0,0.027220,0.014867,0.234163,0.000163,  21.130
   351.2,0.027175,0.014842,0.233157,0.000187,  21.134
   351.4,0.027133,0.014823,0.231836,0.000150,  21.131
   351.6,0.027098,0.014796,0.231423,0.000163,  21.135
   351.8,0.027059,0.014779,0.231359,0.000187,  21.134
   352.0,0.027013,0.014757,0.231606,0.000150,  21.134
   352.2,0.026981,0.014732,0.231478,0.000163,  21.139
   352.4,0.026943,0.014708,0.231358,0.000187,  21.133
   352.6,0.026908,0.014686,0.231197,0.000150,  21.137
   352.8,0.026872,0.014660,0.231037,0.000163,  21.140
   353.0,0.026840,0.014635,0.230787,0.000187,  21.138
   353.2,0.026803,0.014614,0.230473,0.000150,  21.136
   353.4,0.026766,0.014589,0.230199,0.000163,  21.134
   353.6,0.026720,0.014569,0.229837,0.000187,  21.137
   353.8,0.026677,0.014542,0.229433,0.000150,  21.135
   354.0,0.026639,0.014517,0.229078,0.000163,  21.134
   354.2,0.026592,0.014497,0.228749,0.000150,  21.139
   354.4,0.026547,0.014472,0.228363,0.000112,  21.134
   354.6,0.026512,0.014445,0.228058,0.000163,  21.140
   354.8,0.026469,0.014429,0.227817,0.000150,  21.134
   355.0,0.026433,0.014407,0.227570,0.000112,  21.137
   355.2,0.026400,0.014383,0.227265,0.000150,  21.136
   355.4,0.026361,0.014364,0.226929,0.000136,  21.135
   355.6,0.026315,0.014342,0.226537,0.000099,  21.135
   355.8,0.026270,0.014314,0.226048,0.000136,  21.136
   356.0,0.026223,0.014295,0.225423,0.000136,  21.136
   356.2,0.026181,0.014271,0.224687,0.000136,  21.134
   356.4,0.026135,0.014249,0.224264,0.000136,  21.137
   356.6,0.026086,0.014227,0.223929,0.000174,  21.140
   356.8,0.026043,0.014210,0.223722,0.000160,  21.137
   357.0,0.026005,0.014188,0.223531,0.000174,  21.134
   357.2,0.025966,0.014159,0.223261,0.000160,  21.136
   357.4,0.025924,0.014140,0.223023,0.000160,  21.134
   357.6,0.025888,0.014115,0.222778,0.000123,  21.137
   357.8,0.025849,0.014088,0.222143,0.000136,  21.139
   358.0,0.025800,0.014071,0.221326,0.000174,  21.136
   358.2,0.025751,0.014044,0.220289,0.000136,  21.136
   358.4,0.025709,0.014024,0.219982,0.000150,  21.130
   358.6,0.025666,0.014005,0.219967,0.000187,  21.135
   358.8,0.025624,0.013988,0.220134,0.000150,  21.135
   359.0,0.025585,0.013965,0.219922,0.000163,  21.137
   359.2,0.025543,0.013948,0.219662,0.000187,  21.138
   359.4,0.025507,0.013939,0.219276,0.000150,  21.141
   359.6,0.025471,0.013914,0.219016,0.000163,  21.139
   359.8,0.025426,0.013893,0.218773,0.000187,  21.140
   360.0,0.025383,0.013867,0.218529,0.000150,  21.137
   360.2,0.025344,0.013840,0.218184,0.000163,  21.139
   360.4,0.025305,0.013813,0.217783,0.000187,  21.141
   360.6,0.025263,0.013797,0.217321,0.000150,  21.135
   360.8,0.025224,0.013775,0.217023,0.000163,  21.137
   361.0,0.025182,0.013745,0.216702,0.000187,  21.140
   361.2,0.025136,0.013728,0.216413,0.000150,  21.137
   361.4,0.025094,0.013708,0.216069,0.000163,  21.138
   361.6,0.025052,0.013681,0.215663,0.000187,  21.140
   361.8,0.025006,0.013662,0.215218,0.000150,  21.135
   362.0,0.024964,0.013638,0.214820,0.000163,  21.140
   362.2,0.024922,0.013611,0.214423,0.000187,  21.139
   362.4,0.024880,0.013592,0.213971,0.000150,  21.135
   362.6,0.024841,0.013568,0.213645,0.000163,  21.138
   362.8,0.024801,0.013538,0.213319,0.000187,  21.137
   363.0,0.024773,0.013519,0.213055,0.000150,  21.135
   363.2,0.024743,0.013495,0.212714,0.000163,  21.139
   363.4,0.024704,0.013463,0.212310,0.000187,  21.136
   363.6,0.024662,0.013441,0.211854,0.000150,  21.136
   363.8,0.024620,0.013420,0.211544,0.000163,  21.142
   364.0,0.024588,0.013390,0.211250,0.000187,  21.141
   364.2,0.024546,0.013376,0.210957,0.000150,  21.143
   364.4,0.024501,0.013359,0.210602,0.000150,  21.142
   364.6,0.024463,0.013331,0.210285,0.000174,  21.137
   364.8,0.024417,0.013314,0.209915,0.000136,  21.143
   365.0,0.024361,0.013286,0.209538,0.000136,  21.144
   365.2,0.024316,0.013262,0.209199,0.000174,  21.140
   365.4,0.024270,0.013233,0.208792,0.000136,  21.141
   365.6,0.024228,0.013208,0.208431,0.000136,  21.141
   365.8,0.024186,0.013184,0.208131,0.000174,  21.142
   366.0,0.024137,0.013165,0.207809,0.000174,  21.140
   366.2,0.024092,0.013143,0.207526,0.000136,  21.145
   366.4,0.024053,0.013119,0.207189,0.000187,  21.142
   366.6,0.024017,0.013095,0.206814,0.000174,  21.142
   366.8,0.023979,0.013073,0.206378,0.000187,  21.142
   367.0,0.023940,0.013054,0.206034,0.000187,  21.141
   367.2,0.023904,0.013032,0.205690,0.000174,  21.137
   367.4,0.023862,0.013008,0.205355,0.000136,  21.142
   367.6,0.023812,0.012984,0.205065,0.000136,  21.144
   367.8,0.023767,0.012960,0.204722,0.000174,  21.142
   368.0,0.023718,0.012944,0.204410,0.000136,  21.140
   368.2,0.023676,0.012921,0.204022,0.000136,  21.146
   368.4,0.023634,0.012904,0.203581,0.000174,  21.143
   368.6,0.023600,0.012892,0.203066,0.000136,  21.144
   368.8,0.023565,0.012872,0.202755,0.000136,  21.140
   369.0,0.023523,0.012847,0.202519,0.000174,  21.141
   369.2,0.023470,0.012830,0.202307,0.000136,  21.141
   369.4,0.023431,0.012811,0.201763,0.000136,  21.141
   369.6,0.023386,0.012788,0.201023,0.000174,  21.145
   369.8,0.023347,0.012766,0.200105,0.000136,  21.139
   370.0,0.023305,0.012744,0.199774,0.000136,  21.143
   370.2,0.023260,0.012717,0.199623,0.000174,  21.141
   370.4,0.023214,0.012698,0.199591,0.000136,  21.143
   370.6,0.023172,0.012671,0.199379,0.000136,  21.141
   370.8,0.023130,0.012649,0.199153,0.000174,  21.143
   371.0,0.023088,0.012627,0.198905,0.000136,  21.142
   371.2,0.023056,0.012603,0.198545,0.000136,  21.145
   371.4,0.023016,0.012584,0.198132,0.000174,  21.146
   371.6,0.022998,0.012563,0.197616,0.000136,  21.144
   371.8,0.022972,0.012541,0.197026,0.000136,  21.142
   372.0,0.022936,0.012516,0.196355,0.000174,  21.142
   372.2,0.022894,0.012498,0.195588,0.000136,  21.146
   372.4,0.022849,0.012476,0.195283,0.000174,  21.143
   372.6,0.022803,0.012448,0.195155,0.000211,  21.142
   372.8,0.022761,0.012427,0.195182,0.000174,  21.145
   373.0,0.022715,0.012405,0.194855,0.000187,  21.147
   373.2,0.022666,0.012380,0.194491,0.000187,  21.146
   373.4,0.022627,0.012362,0.193965,0.000150,  21.142
   373.6,0.022593,0.012345,0.193660,0.000163,  21.144
   373.8,0.022554,0.012325,0.193429,0.000187,  21.144
   374.0,0.022509,0.012310,0.193228,0.000150,  21.142
   374.2,0.022467,0.012285,0.192924,0.000163,  21.146
   374.4,0.022431,0.012263,0.192569,0.000187,  21.147
   374.6,0.022389,0.012233,0.192184,0.000163,  21.146
   374.8,0.022350,0.012209,0.191940,0.000163,  21.148
   375.0,0.022308,0.012185,0.191703,0.000201,  21.147
   375.2,0.022263,0.012166,0.191548,0.000201,  21.148
   375.4,0.022218,0.012136,0.191363,0.000176,  21.149
   375.6,0.022176,0.012109,0.191030,0.000214,  21.145
   375.8,0.022137,0.012090,0.190647,0.000201,  21.148
   376.0,0.022099,0.012060,0.190212,0.000214,  21.148
   376.2,0.022060,0.012041,0.189881,0.000201,  21.155
   376.4,0.022018,0.012017,0.189512,0.000187,  21.152
   376.6,0.021969,0.011993,0.189144,0.000150,  21.152
   376.8,0.021931,0.011974,0.188762,0.000163,  21.148
   377.0,0.021892,0.011953,0.188316,0.000187,  21.148
   377.2,0.021847,0.011931,0.187849,0.000150,  21.151
   377.4,0.021805,0.011914,0.187527,0.000163,  21.152
   377.6,0.021763,0.011897,0.187226,0.000187,  21.152
   377.8,0.021718,0.011885,0.186963,0.000150,  21.154
   378.0,0.021676,0.011860,0.186612,0.000163,  21.149
   378.2,0.021631,0.011836,0.186204,0.000187,  21.151
   378.4,0.021586,0.011817,0.185774,0.000150,  21.149
   378.6,0.021547,0.011798,0.185395,0.000163,  21.153
   378.8,0.021512,0.011774,0.184980,0.000187,  21.152
   379.0,0.021470,0.011749,0.184572,0.000150,  21.151
   379.2,0.021428,0.011730,0.184216,0.000163,  21.153
   379.4,0.021386,0.011708,0.183918,0.000187,  21.152
   379.6,0.021341,0.011684,0.183562,0.000150,  21.151
   379.8,0.021299,0.011664,0.183257,0.000163,  21.151
   380.0,0.021254,0.011640,0.183009,0.000187,  21.157
   380.2,0.021209,0.011618,0.182733,0.000150,  21.160
   380.4,0.021173,0.011601,0.182436,0.000163,  21.156
   380.6,0.021137,0.011573,0.182081,0.000187,  21.155
   380.8,0.021115,0.011557,0.181721,0.000150,  21.153
   381.0,0.021093,0.011535,0.181324,0.000163,  21.152
   381.2,0.021057,0.011509,0.180899,0.000187,  21.152
   381.4,0.021016,0.011485,0.180433,0.000150,  21.152
   381.6,0.020970,0.011463,0.180080,0.000201,  21.154
   381.8,0.020929,0.011438,0.179784,0.000225,  21.155
   382.0,0.020879,0.011424,0.179481,0.000187,  21.155
   382.2,0.020841,0.011399,0.179165,0.000238,  21.153
   382.4,0.020802,0.011372,0.178771,0.000225,  21.156
   382.6,0.020750,0.011350,0.178393,0.000187,  21.158
   382.8,0.020709,0.011323,0.177900,0.000201,  21.161
   383.0,0.020667,0.011301,0.177302,0.000187,  21.157
   383.2,0.020621,0.011278,0.176626,0.000150,  21.162
   383.4,0.020583,0.011248,0.176227,0.000163,  21.161
   383.6,0.020545,0.011229,0.175877,0.000187,  21.155
   383.8,0.020496,0.011207,0.175626,0.000150,  21.157
   384.0,0.020464,0.011180,0.175354,0.000163,  21.157
   384.2,0.020426,0.011164,0.175147,0.000187,  21.157
   384.4,0.020373,0.011142,0.174969,0.000187,  21.160
   384.6,0.020333,0.011115,0.174819,0.000163,  21.161
   384.8,0.020288,0.011098,0.174548,0.000187,  21.160
   385.0,0.020235,0.011077,0.174228,0.000187,  21.163
   385.2,0.020191,0.011052,0.173859,0.000201,  21.159
   385.4,0.020149,0.011026,0.173490,0.000187,  21.155
   385.6,0.020100,0.011002,0.173045,0.000187,  21.155
   385.8,0.020069,0.010972,0.172587,0.000150,  21.153
   386.0,0.020024,0.010946,0.172240,0.000163,  21.156
   386.2,0.019975,0.010919,0.171885,0.000187,  21.158
   386.4,0.019934,0.010897,0.171595,0.000150,  21.158
   386.6,0.019893,0.010874,0.171298,0.000163,  21.160
   386.8,0.019847,0.010857,0.170972,0.000187,  21.162
   387.0,0.019812,0.010842,0.170683,0.000150,  21.159
   387.2,0.019771,0.010821,0.170345,0.000150,  21.159
   387.4,0.019721,0.010805,0.169931,0.000174,  21.160
   387.6,0.019684,0.010784,0.169484,0.000136,  21.161
   387.8,0.019642,0.010760,0.169147,0.000136,  21.162
   388.0,0.019597,0.010733,0.168775,0.000174,  21.163
   388.2,0.019563,0.010712,0.168423,0.000136,  21.164
   388.4,0.019521,0.010688,0.167521,0.000136,  21.159
   388.6,0.019479,0.010661,0.166305,0.000174,  21.166
   388.8,0.019435,0.010639,0.164826,0.000136,  21.166
   389.0,0.019396,0.010612,0.164389,0.000136,  21.166
   389.2,0.019354,0.010591,0.164303,0.000174,  21.167
   389.4,0.019313,0.010573,0.164579,0.000136,  21.164
   389.6,0.019274,0.010554,0.164477,0.000136,  21.165
   389.8,0.019236,0.010534,0.164383,0.000160,  21.167
   390.0,0.019191,0.010517,0.164234,0.000123,  21.163
   390.2,0.019152,0.010498,0.164044,0.000136,  21.165
   390.4,0.019116,0.010465,0.163799,0.000160,  21.162
   390.6,0.019091,0.010443,0.163507,0.000123,  21.166
   390.8,0.019063,0.010418,0.163270,0.000136,  21.162
   391.0,0.019024,0.010399,0.162985,0.000160,  21.167
   391.2,0.018987,0.010377,0.162693,0.000123,  21.167
   391.4,0.018939,0.010352,0.162401,0.000136,  21.165
   391.6,0.018911,0.010341,0.162070,0.000160,  21.164
   391.8,0.018872,0.010317,0.161739,0.000123,  21.163
   392.0,0.018827,0.010290,0.161361,0.000136,  21.168
   392.2,0.018788,0.010276,0.160943,0.000174,  21.166
   392.4,0.018750,0.010252,0.160478,0.000136,  21.165
   392.6,0.018708,0.010227,0.160133,0.000136,  21.165
   392.8,0.018662,0.010207,0.159843,0.000174,  21.165
   393.0,0.018621,0.010180,0.159545,0.000136,  21.166
   393.2,0.018576,0.010153,0.159236,0.000136,  21.162
   393.4,0.018534,0.010137,0.158969,0.000174,  21.160
   393.6,0.018493,0.010110,0.158703,0.000174,  21.162
   393.8,0.018455,0.010086,0.158417,0.000136,  21.164
   394.0,0.018417,0.010073,0.158116,0.000187,  21.163
   394.2,0.018378,0.010057,0.157741,0.000174,  21.167
   394.4,0.018333,0.010033,0.157331,0.000187,  21.163
   394.6,0.018290,0.010006,0.157004,0.000187,  21.163
   394.8,0.018252,0.009982,0.156649,0.000174,  21.162
   395.0,0.018217,0.009963,0.156330,0.000136,  21.160
   395.2,0.018179,0.009938,0.156003,0.000136,  21.162
   395.4,0.018134,0.009919,0.155669,0.000174,  21.158
   395.6,0.018086,0.009902,0.155280,0.000136,  21.157
   395.8,0.018045,0.009882,0.154974,0.000136,  21.157
   396.0,0.018003,0.009870,0.154667,0.000174,  21.152
   396.2,0.017958,0.009858,0.154354,0.000136,  21.148
   396.4,0.017924,0.009835,0.154021,0.000136,  21.146
   396.6,0.017883,0.009814,0.153649,0.000174,  21.148
   396.8,0.017841,0.009795,0.153270,0.000136,  21.141
   397.0,0.017813,0.009770,0.152911,0.000136,  21.143
   397.2,0.017775,0.009751,0.152567,0.000174,  21.141
   397.4,0.017732,0.009731,0.152197,0.000136,  21.143
   397.6,0.017694,0.009710,0.151296,0.000136,  21.144
   397.8,0.017653,0.009686,0.150121,0.000160,  21.142
   398.0,0.017611,0.009674,0.148702,0.000123,  21.140
   398.2,0.017570,0.009652,0.148366,0.000136,  21.138
   398.4,0.017525,0.009627,0.148465,0.000160,  21.137
   398.6,0.017480,0.009608,0.148983,0.000123,  21.134
   398.8,0.017445,0.009589,0.148891,0.000136,  21.136
   399.0,0.017409,0.009568,0.148688,0.000160,  21.139
   399.2,0.017388,0.009547,0.148375,0.000123,  21.131
   399.4,0.017365,0.009528,0.148218,0.000136,  21.133
   399.6,0.017336,0.009504,0.148027,0.000160,  21.136
   399.8,0.017301,0.009475,0.147824,0.000123,  21.136
   400.0,0.017263,0.009447,0.147569,0.000136,  21.134
   400.2,0.017225,0.009428,0.147260,0.000160,  21.139
   400.4,0.017186,0.009404,0.146913,0.000123,  21.130
   400.6,0.017142,0.009379,0.146593,0.000136,  21.132
   400.8,0.017104,0.009352,0.146247,0.000160,  21.134
   401.0,0.017068,0.009336,0.145916,0.000123,  21.132
   401.2,0.017037,0.009320,0.145624,0.000136,  21.132
   401.4,0.016994,0.009295,0.145297,0.000160,  21.133
   401.6,0.016953,0.009282,0.144987,0.000123,  21.134
   401.8,0.016908,0.009261,0.144642,0.000136,  21.131
   402.0,0.016862,0.009244,0.144236,0.000160,  21.129
   402.2,0.016824,0.009223,0.143820,0.000123,  21.130
   402.4,0.016793,0.009198,0.143510,0.000136,  21.129
   402.6,0.016762,0.009181,0.143220,0.000160,  21.129
   402.8,0.016727,0.009161,0.142990,0.000160,  21.129
   403.0,0.016692,0.009139,0.142752,0.000123,  21.128
   403.2,0.016664,0.009119,0.142533,0.000160,  21.126
   403.4,0.016629,0.009099,0.142333,0.000160,  21.128
   403.6,0.016590,0.009076,0.142144,0.000174,  21.131
   403.8,0.016555,0.009060,0.141835,0.000160,  21.129
   404.0,0.016514,0.009045,0.141489,0.000160,  21.128
   404.2,0.016472,0.009025,0.141073,0.000123,  21.129
   404.4,0.016434,0.009004,0.140660,0.000136,  21.129
   404.6,0.016393,0.008980,0.140195,0.000174,  21.130
   404.8,0.016355,0.008957,0.139738,0.000136,  21.128
   405.0,0.016313,0.008945,0.139416,0.000136,  21.129
   405.2,0.016278,0.008925,0.139139,0.000174,  21.130
   405.4,0.016246,0.008920,0.138940,0.000136,  21.128
   405.6,0.016214,0.008897,0.138715,0.000136,  21.123
   405.8,0.016179,0.008878,0.138509,0.000174,  21.128
   406.0,0.016144,0.008857,0.138337,0.000136,  21.126
   406.2,0.016112,0.008834,0.138049,0.000136,  21.130
   406.4,0.016077,0.008823,0.137717,0.000174,  21.125
   406.6,0.016039,0.008803,0.137342,0.000136,  21.124
   406.8,0.016004,0.008784,0.136507,0.000136,  21.122
   407.0,0.015969,0.008766,0.135357,0.000174,  21.125
   407.2,0.015937,0.008747,0.133947,0.000136,  21.124
   407.4,0.015899,0.008730,0.133655,0.000136,  21.125
   407.6,0.015858,0.008708,0.133740,0.000136,  21.125
   407.8,0.015817,0.008691,0.134230,0.000099,  21.128
   408.0,0.015785,0.008669,0.134166,0.000136,  21.126
   408.2,0.015749,0.008645,0.134013,0.000136,  21.128
   408.4,0.015731,0.008624,0.133772,0.000099,  21.125
   408.6,0.015708,0.008605,0.133586,0.000136,  21.122
   408.8,0.015673,0.008583,0.133408,0.000136,  21.126
   409.0,0.015635,0.008568,0.133222,0.000099,  21.131
   409.2,0.015591,0.008551,0.132975,0.000136,  21.124
   409.4,0.015548,0.008527,0.132672,0.000136,  21.126
   409.6,0.015510,0.008508,0.132319,0.000099,  21.124
   409.8,0.015469,0.008489,0.132010,0.000136,  21.131
   410.0,0.015427,0.008462,0.131665,0.000136,  21.127
   410.2,0.015385,0.008445,0.131294,0.000099,  21.127
   410.4,0.015348,0.008421,0.130942,0.000136,  21.128
   410.6,0.015313,0.008401,0.130590,0.000136,  21.126
   410.8,0.015278,0.008382,0.130272,0.000099,  21.127
   411.0,0.015240,0.008362,0.129939,0.000136,  21.128
   411.2,0.015208,0.008348,0.129606,0.000136,  21.131
   411.4,0.015173,0.008325,0.129273,0.000099,  21.127
   411.6,0.015135,0.008298,0.129017,0.000136,  21.126
   411.8,0.015108,0.008288,0.128771,0.000136,  21.129
   412.0,0.015073,0.008267,0.128567,0.000136,  21.126
   412.2,0.015028,0.008239,0.128406,0.000150,  21.133
   412.4,0.014990,0.008223,0.127969,0.000150,  21.131
   412.6,0.014955,0.008206,0.127396,0.000150,  21.134
   412.8,0.014910,0.008181,0.126704,0.000163,  21.134
   413.0,0.014868,0.008159,0.126391,0.000150,  21.131
   413.2,0.014833,0.008136,0.126198,0.000136,  21.132
   413.4,0.014805,0.008114,0.126098,0.000099,  21.131
   413.6,0.014770,0.008099,0.125948,0.000136,  21.132
   413.8,0.014732,0.008090,0.125783,0.000136,  21.133
   414.0,0.014694,0.008073,0.125650,0.000099,  21.132
   414.2,0.014662,0.008061,0.125396,0.000136,  21.133
   414.4,0.014627,0.008042,0.125049,0.000136,  21.138
   414.6,0.014596,0.008028,0.124642,0.000099,  21.139
   414.8,0.014561,0.008008,0.124320,0.000136,  21.141
   415.0,0.014526,0.007989,0.123991,0.000136,  21.142
   415.2,0.014485,0.007972,0.123688,0.000099,  21.138
   415.4,0.014450,0.007947,0.123377,0.000136,  21.141
   415.6,0.014415,0.007931,0.123074,0.000136,  21.138
   415.8,0.014377,0.007909,0.122754,0.000099,  21.135
   416.0,0.014342,0.007885,0.122419,0.000136,  21.137
   416.2,0.014307,0.007868,0.122066,0.000123,  21.142
   416.4,0.014269,0.007852,0.121696,0.000085,  21.142
   416.6,0.014237,0.007827,0.121404,0.000136,  21.142
   416.8,0.014203,0.007808,0.121120,0.000123,  21.142
   417.0,0.014168,0.007792,0.120886,0.000085,  21.144
   417.2,0.014136,0.007770,0.120662,0.000136,  21.144
   417.4,0.014098,0.007753,0.120446,0.000136,  21.144
   417.6,0.014060,0.007739,0.120255,0.000099,  21.142
   417.8,0.014028,0.007711,0.119920,0.000150,  21.144
   418.0,0.013996,0.007695,0.119500,0.000150,  21.144
   418.2,0.013978,0.007677,0.119021,0.000112,  21.144
   418.4,0.013952,0.007650,0.118738,0.000163,  21.143
   418.6,0.013921,0.007636,0.118523,0.000150,  21.144
   418.8,0.013892,0.007625,0.118352,0.000112,  21.146
   419.0,0.013857,0.007605,0.118062,0.000150,  21.147
   419.2,0.013833,0.007590,0.117746,0.000136,  21.151
   419.4,0.013798,0.007573,0.117412,0.000099,  21.148
   419.6,0.013760,0.007549,0.117004,0.000150,  21.151
   419.8,0.013733,0.007537,0.116513,0.000150,  21.151
   420.0,0.013695,0.007519,0.115963,0.000112,  21.146
   420.2,0.013649,0.007497,0.115665,0.000150,  21.152
   420.4,0.013618,0.007481,0.115417,0.000136,  21.150
   420.6,0.013583,0.007466,0.115253,0.000099,  21.153
   420.8,0.013552,0.007446,0.114998,0.000150,  21.154
   421.0,0.013516,0.007425,0.114701,0.000150,  21.154
   421.2,0.013488,0.007410,0.114404,0.000150,  21.155
   421.4,0.013456,0.007393,0.114198,0.000163,  21.157
   421.6,0.013425,0.007378,0.114034,0.000150,  21.159
   421.8,0.013393,0.007364,0.113895,0.000150,  21.161
   422.0,0.013361,0.007344,0.113781,0.000163,  21.160
   422.2,0.013330,0.007330,0.113576,0.000150,  21.158
   422.4,0.013295,0.007309,0.113280,0.000150,  21.159
   422.6,0.013260,0.007286,0.112991,0.000112,  21.163
   422.8,0.013225,0.007275,0.112737,0.000163,  21.162
   423.0,0.013194,0.007253,0.112459,0.000150,  21.163
   423.2,0.013153,0.007237,0.112163,0.000112,  21.163
   423.4,0.013121,0.007225,0.111843,0.000163,  21.163
   423.6,0.013090,0.007207,0.111507,0.000150,  21.166
   423.8,0.013058,0.007203,0.111113,0.000112,  21.172
   424.0,0.013026,0.007186,0.110801,0.000163,  21.171
   424.2,0.012992,0.007170,0.110482,0.000150,  21.168
   424.4,0.012957,0.007154,0.110204,0.000112,  21.169
   424.6,0.012922,0.007138,0.109934,0.000163,  21.172
   424.8,0.012887,0.007115,0.109665,0.000150,  21.172
   425.0,0.012853,0.007106,0.109421,0.000112,  21.171
   425.2,0.012824,0.007087,0.109144,0.000163,  21.177
   425.4,0.012792,0.007063,0.108875,0.000150,  21.174
   425.6,0.012761,0.007044,0.108614,0.000112,  21.175
   425.8,0.012732,0.007019,0.108379,0.000150,  21.177
   426.0,0.012701,0.007000,0.108103,0.000160,  21.176
   426.2,0.012666,0.006981,0.107852,0.000123,  21.176
   426.4,0.012627,0.006959,0.107642,0.000136,  21.176
   426.6,0.012596,0.006942,0.107407,0.000174,  21.179
   426.8,0.012561,0.006928,0.107180,0.000136,  21.182
   427.0,0.012532,0.006908,0.106913,0.000136,  21.182
   427.2,0.012503,0.006893,0.106605,0.000174,  21.179
   427.4,0.012485,0.006882,0.106263,0.000136,  21.183
   427.6,0.012463,0.006860,0.106013,0.000136,  21.187
   427.8,0.012435,0.006843,0.105779,0.000174,  21.183
   428.0,0.012400,0.006829,0.105553,0.000136,  21.185
   428.2,0.012365,0.006808,0.105198,0.000136,  21.183
   428.4,0.012334,0.006789,0.104825,0.000174,  21.187
   428.6,0.012302,0.006774,0.104363,0.000136,  21.184
   428.8,0.012274,0.006757,0.104106,0.000136,  21.187
   429.0,0.012248,0.006740,0.103946,0.000174,  21.188
   429.2,0.012214,0.006723,0.103835,0.000136,  21.185
   429.4,0.012182,0.006709,0.102947,0.000136,  21.186
   429.6,0.012154,0.006697,0.101771,0.000160,  21.187
   429.8,0.012119,0.006685,0.100190,0.000123,  21.188
   430.0,0.012084,0.006665,0.099703,0.000136,  21.188
   430.2,0.012053,0.006651,0.099632,0.000160,  21.189
   430.4,0.012024,0.006631,0.099857,0.000160,  21.191
   430.6,0.011993,0.006611,0.100507,0.000123,  21.194
   430.8,0.011965,0.006600,0.100540,0.000174,  21.189
   431.0,0.011930,0.006583,0.100550,0.000174,  21.193
   431.2,0.011898,0.006564,0.100503,0.000187,  21.196
   431.4,0.011870,0.006545,0.100417,0.000187,  21.196
   431.6,0.011842,0.006526,0.100306,0.000174,  21.195
   431.8,0.011810,0.006504,0.100130,0.000136,  21.194
   432.0,0.011782,0.006492,0.099931,0.000136,  21.190
   432.2,0.011749,0.006480,0.099668,0.000174,  21.191
   432.4,0.011718,0.006468,0.099397,0.000136,  21.192
   432.6,0.011689,0.006447,0.099214,0.000136,  21.193
   432.8,0.011650,0.006435,0.099048,0.000136,  21.195
   433.0,0.011623,0.006423,0.098889,0.000099,  21.195
   433.2,0.011592,0.006407,0.098650,0.000150,  21.195
   433.4,0.011563,0.006388,0.098388,0.000150,  21.194
   433.6,0.011539,0.006371,0.098054,0.000112,  21.198
   433.8,0.011511,0.006349,0.097792,0.000163,  21.199
   434.0,0.011472,0.006340,0.097578,0.000150,  21.196
   434.2,0.011444,0.006331,0.097332,0.000112,  21.201
   434.4,0.011418,0.006314,0.096578,0.000163,  21.197
   434.6,0.011380,0.006305,0.095532,0.000150,  21.197
   434.8,0.011359,0.006291,0.094221,0.000112,  21.198
   435.0,0.011333,0.006273,0.094001,0.000163,  21.197
   435.2,0.011295,0.006253,0.094151,0.000150,  21.197
   435.4,0.011270,0.006234,0.094689,0.000112,  21.199
   435.6,0.011245,0.006214,0.094690,0.000163,  21.196
   435.8,0.011210,0.006202,0.094580,0.000150,  21.199
   436.0,0.011187,0.006186,0.094391,0.000112,  21.197
   436.2,0.011170,0.006166,0.094313,0.000163,  21.200
   436.4,0.011145,0.006158,0.094219,0.000150,  21.200
   436.6,0.011113,0.006141,0.094102,0.000112,  21.200
   436.8,0.011089,0.006119,0.093905,0.000163,  21.199
   437.0,0.011058,0.006107,0.093630,0.000150,  21.197
   437.2,0.011029,0.006096,0.093276,0.000112,  21.202
   437.4,0.011004,0.006074,0.093056,0.000163,  21.203
   437.6,0.010976,0.006062,0.092836,0.000150,  21.200
   437.8,0.010944,0.006051,0.092617,0.000112,  21.204
   438.0,0.010913,0.006037,0.092115,0.000163,  21.202
   438.2,0.010888,0.006022,0.091457,0.000150,  21.201
   438.4,0.010849,0.006011,0.090612,0.000126,  21.201
   438.6,0.010817,0.005994,0.089840,0.000163,  21.200
   438.8,0.010792,0.005978,0.089038,0.000163,  21.199
   439.0,0.010757,0.005964,0.088152,0.000139,  21.204
   439.2,0.010732,0.005946,0.087897,0.000163,  21.204
   439.4,0.010710,0.005932,0.087974,0.000163,  21.204
   439.6,0.010688,0.005915,0.088293,0.000163,  21.207
   439.8,0.010671,0.005900,0.088946,0.000176,  21.205
   440.0,0.010642,0.005881,0.088961,0.000176,  21.203
   440.2,0.010614,0.005865,0.088892,0.000163,  21.205
   440.4,0.010580,0.005848,0.088767,0.000176,  21.205
   440.6,0.010551,0.005827,0.088752,0.000176,  21.203
   440.8,0.010526,0.005817,0.088737,0.000163,  21.209
   441.0,0.010501,0.005802,0.088745,0.000139,  21.209
   441.2,0.010476,0.005788,0.088613,0.000163,  21.207
   441.4,0.010448,0.005773,0.088442,0.000163,  21.206
   441.6,0.010413,0.005759,0.088178,0.000139,  21.208
   441.8,0.010385,0.005750,0.087961,0.000163,  21.213
   442.0,0.010360,0.005733,0.087775,0.000163,  21.213
   442.2,0.010331,0.005730,0.087534,0.000126,  21.210
   442.4,0.010300,0.005716,0.086938,0.000163,  21.216
   442.6,0.010272,0.005699,0.086118,0.000150,  21.216
   442.8,0.010237,0.005682,0.085093,0.000112,  21.212
   443.0,0.010209,0.005664,0.084839,0.000163,  21.215
   443.2,0.010181,0.005648,0.084823,0.000150,  21.212
   443.4,0.010155,0.005639,0.085092,0.000112,  21.208
   443.6,0.010130,0.005625,0.085069,0.000163,  21.212
   443.8,0.010105,0.005605,0.085054,0.000150,  21.213
   444.0,0.010080,0.005597,0.085023,0.000112,  21.217
   444.2,0.010055,0.005577,0.084946,0.000163,  21.214
   444.4,0.010027,0.005562,0.084846,0.000150,  21.215
   444.6,0.009995,0.005550,0.084738,0.000112,  21.212
   444.8,0.009970,0.005531,0.084561,0.000163,  21.219
   445.0,0.009944,0.005516,0.084345,0.000150,  21.216
   445.2,0.009929,0.005505,0.084099,0.000126,  21.218
   445.4,0.009914,0.005486,0.083884,0.000163,  21.215
   445.6,0.009892,0.005472,0.083684,0.000163,  21.221
   445.8,0.009867,0.005459,0.083461,0.000139,  21.220
   446.0,0.009842,0.005439,0.083208,0.000163,  21.215
   446.2,0.009820,0.005427,0.082940,0.000163,  21.218
   446.4,0.009791,0.005412,0.082633,0.000139,  21.219
   446.6,0.009763,0.005395,0.082418,0.000163,  21.221
   446.8,0.009738,0.005384,0.082257,0.000163,  21.221
   447.0,0.009710,0.005369,0.082119,0.000139,  21.226
   447.2,0.009678,0.005352,0.081913,0.000163,  21.225
   447.4,0.009647,0.005341,0.081683,0.000163,  21.222
   447.6,0.009619,0.005324,0.081416,0.000126,  21.224
   447.8,0.009591,0.005307,0.081171,0.000163,  21.222
   448.0,0.009562,0.005299,0.080912,0.000150,  21.222
   448.2,0.009537,0.005288,0.080691,0.000150,  21.223
   448.4,0.009512,0.005276,0.080424,0.000163,  21.224
   448.6,0.009487,0.005256,0.080196,0.000150,  21.224
   448.8,0.009465,0.005246,0.079967,0.000150,  21.225
   449.0,0.009434,0.005233,0.079754,0.000163,  21.228
   449.2,0.009406,0.005216,0.079571,0.000150,  21.226
   449.4,0.009378,0.005204,0.079441,0.000150,  21.227
   449.6,0.009346,0.005186,0.079327,0.000112,  21.228
   449.8,0.009318,0.005170,0.079091,0.000163,  21.226
   450.0,0.009293,0.005156,0.078802,0.000150,  21.227
   450.2,0.009265,0.005142,0.078423,0.000112,  21.222
   450.4,0.009240,0.005132,0.078211,0.000163,  21.229
   450.6,0.009211,0.005120,0.078044,0.000150,  21.229
   450.8,0.009183,0.005111,0.077922,0.000112,  21.232
   451.0,0.009158,0.005094,0.077438,0.000163,  21.226
   451.2,0.009133,0.005080,0.076804,0.000150,  21.225
   451.4,0.009111,0.005070,0.076005,0.000112,  21.222
   451.6,0.009086,0.005058,0.075756,0.000163,  21.230
   451.8,0.009061,0.005040,0.075710,0.000150,  21.229
   452.0,0.009033,0.005031,0.075852,0.000112,  21.227
   452.2,0.009008,0.005019,0.075761,0.000163,  21.227
   452.4,0.008986,0.004994,0.075595,0.000150,  21.227
   452.6,0.008955,0.004983,0.075384,0.000112,  21.228
   452.8,0.008930,0.004971,0.075248,0.000163,  21.231
   453.0,0.008908,0.004951,0.075097,0.000150,  21.231
   453.2,0.008883,0.004945,0.074968,0.000112,  21.231
   453.4,0.008861,0.004930,0.074802,0.000163,  21.231
   453.6,0.008833,0.004918,0.074592,0.000150,  21.233
   453.8,0.008804,0.004908,0.074396,0.000112,  21.235
   454.0,0.008782,0.004891,0.074193,0.000163,  21.234
   454.2,0.008759,0.004884,0.073990,0.000150,  21.235
   454.4,0.008748,0.004868,0.073773,0.000112,  21.237
   454.6,0.008732,0.004851,0.073592,0.000163,  21.236
   454.8,0.008710,0.004834,0.073353,0.000150,  21.236
   455.0,0.008682,0.004818,0.073113,0.000112,  21.237
   455.2,0.008654,0.004806,0.072933,0.000163,  21.238
   455.4,0.008632,0.004789,0.072738,0.000150,  21.234
   455.6,0.008607,0.004782,0.072550,0.000112,  21.233
   455.8,0.008582,0.004773,0.072311,0.000163,  21.239
   456.0,0.008560,0.004755,0.072012,0.000150,  21.240
   456.2,0.008538,0.004747,0.071654,0.000112,  21.237
   456.4,0.008510,0.004729,0.071393,0.000163,  21.235
   456.6,0.008488,0.004717,0.071184,0.000150,  21.240
   456.8,0.008466,0.004708,0.070931,0.000126,  21.241
   457.0,0.008445,0.004690,0.070752,0.000163,  21.238
   457.2,0.008423,0.004684,0.070647,0.000163,  21.242
   457.4,0.008395,0.004670,0.070542,0.000163,  21.242
   457.6,0.008366,0.004655,0.070505,0.000176,  21.237
   457.8,0.008344,0.004642,0.070289,0.000176,  21.243
   458.0,0.008323,0.004623,0.070014,0.000163,  21.243
   458.2,0.008304,0.004606,0.069688,0.000176,  21.241
   458.4,0.008282,0.004599,0.069516,0.000163,  21.237
   458.6,0.008257,0.004588,0.069396,0.000150,  21.240
   458.8,0.008229,0.004573,0.069298,0.000112,  21.238
   459.0,0.008207,0.004569,0.069098,0.000163,  21.239
   459.2,0.008185,0.004555,0.068853,0.000150,  21.240
   459.4,0.008160,0.004543,0.068586,0.000112,  21.240
   459.6,0.008138,0.004531,0.068423,0.000163,  21.238
   459.8,0.008113,0.004522,0.068274,0.000150,  21.236
   460.0,0.008085,0.004516,0.068169,0.000112,  21.238
   460.2,0.008063,0.004501,0.067969,0.000163,  21.240
   460.4,0.008044,0.004493,0.067733,0.000150,  21.242
   460.6,0.008026,0.004481,0.067445,0.000112,  21.236
   460.8,0.008004,0.004472,0.067186,0.000163,  21.238
   461.0,0.007982,0.004451,0.066936,0.000150,  21.237
   461.2,0.007957,0.004436,0.066677,0.000112,  21.236
   461.4,0.007935,0.004424,0.066470,0.000163,  21.241
   461.6,0.007909,0.004411,0.066315,0.000150,  21.236
   461.8,0.007893,0.004404,0.066182,0.000112,  21.239
   462.0,0.007871,0.004387,0.066042,0.000163,  21.232
   462.2,0.007842,0.004378,0.065901,0.000150,  21.235
   462.4,0.007821,0.004367,0.065783,0.000112,  21.238
   462.6,0.007803,0.004352,0.065628,0.000163,  21.240
   462.8,0.007783,0.004346,0.065429,0.000150,  21.237
   463.0,0.007764,0.004339,0.065208,0.000112,  21.243
   463.2,0.007759,0.004324,0.065024,0.000163,  21.234
   463.4,0.007733,0.004315,0.064840,0.000150,  21.239
   463.6,0.007718,0.004302,0.064634,0.000112,  21.237
   463.8,0.007697,0.004287,0.064413,0.000163,  21.237
   464.0,0.007675,0.004280,0.064200,0.000150,  21.238
   464.2,0.007642,0.004270,0.064003,0.000126,  21.233
   464.4,0.007628,0.004253,0.063521,0.000163,  21.238
   464.6,0.007609,0.004244,0.062931,0.000163,  21.243
   464.8,0.007583,0.004235,0.062226,0.000139,  21.242
   465.0,0.007569,0.004220,0.061515,0.000163,  21.240
   465.2,0.007550,0.004213,0.060725,0.000163,  21.241
   465.4,0.007524,0.004203,0.059887,0.000126,  21.239
   465.6,0.007506,0.004188,0.059576,0.000163,  21.240
   465.8,0.007484,0.004184,0.059539,0.000150,  21.241
   466.0,0.007458,0.004170,0.059667,0.000150,  21.243
   466.2,0.007444,0.004152,0.060091,0.000163,  21.238
   466.4,0.007422,0.004151,0.060197,0.000150,  21.240
   466.6,0.007390,0.004138,0.060326,0.000150,  21.237
   466.8,0.007375,0.004123,0.060476,0.000163,  21.241
   467.0,0.007356,0.004110,0.060575,0.000150,  21.240
   467.2,0.007327,0.004097,0.060703,0.000136,  21.240
   467.4,0.007313,0.004085,0.060788,0.000099,  21.237
   467.6,0.007291,0.004075,0.060779,0.000136,  21.239
   467.8,0.007262,0.004066,0.060698,0.000136,  21.241
   468.0,0.007244,0.004051,0.060575,0.000099,  21.241
   468.2,0.007229,0.004041,0.060443,0.000136,  21.242
   468.4,0.007202,0.004029,0.060225,0.000136,  21.240
   468.6,0.007194,0.004023,0.060000,0.000099,  21.242
   468.8,0.007176,0.004011,0.059631,0.000136,  21.243
   469.0,0.007146,0.004002,0.059176,0.000136,  21.244
   469.2,0.007126,0.003990,0.058650,0.000099,  21.240
   469.4,0.007104,0.003976,0.058469,0.000136,  21.241
   469.6,0.007075,0.003965,0.058445,0.000136,  21.241
   469.8,0.007057,0.003964,0.058573,0.000099,  21.245
   470.0,0.007038,0.003948,0.058564,0.000136,  21.247
   470.2,0.007023,0.003935,0.058533,0.000136,  21.244
   470.4,0.007008,0.003931,0.058502,0.000099,  21.244
   470.6,0.006994,0.003919,0.057876,0.000150,  21.240
   470.8,0.006975,0.003903,0.056951,0.000150,  21.245
   471.0,0.006953,0.003894,0.055715,0.000112,  21.244
   471.2,0.006939,0.003883,0.055570,0.000163,  21.243
   471.4,0.006917,0.003874,0.055846,0.000150,  21.241
   471.6,0.006888,0.003867,0.056515,0.000112,  21.245
   471.8,0.006869,0.003858,0.056585,0.000163,  21.244
   472.0,0.006846,0.003843,0.056577,0.000150,  21.244
   472.2,0.006831,0.003833,0.056412,0.000112,  21.240
   472.4,0.006818,0.003819,0.056296,0.000163,  21.240
   472.6,0.006800,0.003802,0.056123,0.000150,  21.239
   472.8,0.006775,0.003789,0.055922,0.000112,  21.239
   473.0,0.006753,0.003777,0.055842,0.000163,  21.242
   473.2,0.006731,0.003763,0.055746,0.000150,  21.241
   473.4,0.006712,0.003746,0.055701,0.000112,  21.239
   473.6,0.006694,0.003739,0.055635,0.000163,  21.240
   473.8,0.006672,0.003724,0.055547,0.000150,  21.245
   474.0,0.006653,0.003717,0.055474,0.000112,  21.242
   474.2,0.006634,0.003706,0.055373,0.000150,  21.242
   474.4,0.006619,0.003696,0.055228,0.000136,  21.243
   474.6,0.006597,0.003688,0.055055,0.000099,  21.245
   474.8,0.006575,0.003676,0.054882,0.000112,  21.245
   475.0,0.006560,0.003664,0.054696,0.000112,  21.247
   475.2,0.006538,0.003652,0.054453,0.000112,  21.247
   475.4,0.006519,0.003639,0.054280,0.000075,  21.245
   475.6,0.006504,0.003627,0.054151,0.000112,  21.251
   475.8,0.006479,0.003616,0.054022,0.000099,  21.246
   476.0,0.006457,0.003604,0.053914,0.000075,  21.246
   476.2,0.006446,0.003594,0.053799,0.000099,  21.245
   476.4,0.006428,0.003580,0.053698,0.000085,  21.246
   476.6,0.006418,0.003568,0.053589,0.000048,  21.247
   476.8,0.006399,0.003561,0.053416,0.000061,  21.245
   477.0,0.006384,0.003553,0.053231,0.000085,  21.250
   477.2,0.006361,0.003546,0.052967,0.000048,  21.250
   477.4,0.006335,0.003531,0.052752,0.000061,  21.246
   477.6,0.006316,0.003527,0.052532,0.000099,  21.252
   477.8,0.006290,0.003520,0.052297,0.000061,  21.248
   478.0,0.006264,0.003511,0.051872,0.000061,  21.248
   478.2,0.006248,0.003501,0.051314,0.000099,  21.247
   478.4,0.006230,0.003491,0.050637,0.000061,  21.249
   478.6,0.006204,0.003479,0.050171,0.000061,  21.248
   478.8,0.006188,0.003472,0.049762,0.000099,  21.245
   479.0,0.006174,0.003468,0.049388,0.000061,  21.247
   479.2,0.006158,0.003455,0.048834,0.000061,  21.250
   479.4,0.006143,0.003448,0.048223,0.000099,  21.251
   479.6,0.006124,0.003438,0.047503,0.000061,  21.254
   479.8,0.006108,0.003421,0.047549,0.000075,  21.252
   480.0,0.006090,0.003420,0.047923,0.000112,  21.250
   480.2,0.006068,0.003409,0.048612,0.000075,  21.247
   480.4,0.006049,0.003394,0.048826,0.000088,  21.245
   480.6,0.006031,0.003392,0.048971,0.000112,  21.249
   480.8,0.006006,0.003385,0.049012,0.000075,  21.247
   481.0,0.005993,0.003375,0.049101,0.000088,  21.244
   481.2,0.005973,0.003368,0.049126,0.000112,  21.245
   481.4,0.005972,0.003357,0.049117,0.000075,  21.241
   481.6,0.005962,0.003345,0.049045,0.000088,  21.247
   481.8,0.005947,0.003338,0.048883,0.000112,  21.243
   482.0,0.005928,0.003332,0.048672,0.000075,  21.244
   482.2,0.005909,0.003319,0.048355,0.000088,  21.238
   482.4,0.005891,0.003307,0.047982,0.000112,  21.245
   482.6,0.005872,0.003300,0.047506,0.000075,  21.246
   482.8,0.005853,0.003285,0.047364,0.000088,  21.246
   483.0,0.005835,0.003277,0.047383,0.000112,  21.241
   483.2,0.005816,0.003274,0.047527,0.000075,  21.243
   483.4,0.005797,0.003264,0.047448,0.000088,  21.246
   483.6,0.005782,0.003252,0.047313,0.000112,  21.247
   483.8,0.005766,0.003253,0.047159,0.000075,  21.244
   484.0,0.005748,0.003245,0.047019,0.000088,  21.246
   484.2,0.005735,0.003226,0.046878,0.000112,  21.244
   484.4,0.005723,0.003215,0.046682,0.000075,  21.243
   484.6,0.005707,0.003202,0.046444,0.000075,  21.249
   484.8,0.005695,0.003192,0.046171,0.000099,  21.253
   485.0,0.005676,0.003185,0.045856,0.000099,  21.251
   485.2,0.005661,0.003175,0.045515,0.000061,  21.247
   485.4,0.005645,0.003163,0.045478,0.000112,  21.248
   485.6,0.005633,0.003160,0.045545,0.000099,  21.251
   485.8,0.005614,0.003147,0.045681,0.000075,  21.250
   486.0,0.005599,0.003132,0.045616,0.000112,  21.253
   486.2,0.005583,0.003127,0.045531,0.000099,  21.256
   486.4,0.005564,0.003117,0.045328,0.000061,  21.254
   486.6,0.005549,0.003105,0.045228,0.000061,  21.253
   486.8,0.005533,0.003100,0.045178,0.000099,  21.253
   487.0,0.005515,0.003093,0.045107,0.000061,  21.253
   487.2,0.005502,0.003089,0.045015,0.000061,  21.251
   487.4,0.005484,0.003079,0.044931,0.000099,  21.252
   487.6,0.005465,0.003076,0.044797,0.000061,  21.255
   487.8,0.005449,0.003066,0.044697,0.000061,  21.255
   488.0,0.005437,0.003059,0.044584,0.000099,  21.254
   488.2,0.005418,0.003054,0.044471,0.000061,  21.255
   488.4,0.005403,0.003050,0.044345,0.000061,  21.253
   488.6,0.005383,0.003038,0.044197,0.000099,  21.251
   488.8,0.005368,0.003031,0.044044,0.000061,  21.257
   489.0,0.005352,0.003024,0.043884,0.000075,  21.250
   489.2,0.005326,0.003009,0.043723,0.000112,  21.253
   489.4,0.005312,0.003003,0.043555,0.000075,  21.248
   489.6,0.005296,0.002991,0.043387,0.000088,  21.254
   489.8,0.005270,0.002981,0.043206,0.000112,  21.249
   490.0,0.005259,0.002976,0.043012,0.000075,  21.250
   490.2,0.005243,0.002963,0.042899,0.000088,  21.252
   490.4,0.005231,0.002955,0.042821,0.000112,  21.248
   490.6,0.005223,0.002947,0.042771,0.000075,  21.250
   490.8,0.005210,0.002937,0.042672,0.000088,  21.247
   491.0,0.005194,0.002930,0.042580,0.000112,  21.250
   491.2,0.005192,0.002921,0.042467,0.000075,  21.247
   491.4,0.005182,0.002916,0.042334,0.000088,  21.246
   491.6,0.005170,0.002906,0.042187,0.000112,  21.247
   491.8,0.005154,0.002905,0.042035,0.000075,  21.247
   492.0,0.005142,0.002895,0.041931,0.000088,  21.247
   492.2,0.005130,0.002890,0.041818,0.000112,  21.248
   492.4,0.005107,0.002883,0.041714,0.000075,  21.245
   492.6,0.005091,0.002875,0.041321,0.000088,  21.248
   492.8,0.005079,0.002871,0.040763,0.000112,  21.245
   493.0,0.005066,0.002864,0.040064,0.000075,  21.245
   493.2,0.005061,0.002854,0.039939,0.000088,  21.245
   493.4,0.005052,0.002853,0.040012,0.000112,  21.244
   493.6,0.005029,0.002850,0.040255,0.000075,  21.246
   493.8,0.005011,0.002844,0.040294,0.000088,  21.240
   494.0,0.004995,0.002835,0.040313,0.000112,  21.240
   494.2,0.004980,0.002833,0.040339,0.000112,  21.238
   494.4,0.004968,0.002823,0.040332,0.000088,  21.237
   494.6,0.004960,0.002812,0.040274,0.000112,  21.236
   494.8,0.004945,0.002807,0.040212,0.000112,  21.240
   495.0,0.004929,0.002797,0.040134,0.000088,  21.240
   495.2,0.004918,0.002782,0.040043,0.000112,  21.241
   495.4,0.004904,0.002779,0.039931,0.000112,  21.238
   495.6,0.004883,0.002769,0.039814,0.000075,  21.240
   495.8,0.004860,0.002756,0.039696,0.000088,  21.241
   496.0,0.004843,0.002750,0.039537,0.000112,  21.240
   496.2,0.004831,0.002743,0.039366,0.000075,  21.238
   496.4,0.004811,0.002735,0.039254,0.000088,  21.241
   496.6,0.004799,0.002730,0.039184,0.000112,  21.240
   496.8,0.004791,0.002722,0.039114,0.000088,  21.243
   497.0,0.004771,0.002713,0.039010,0.000126,  21.245
   497.2,0.004759,0.002710,0.038864,0.000163,  21.246
   497.4,0.004743,0.002701,0.038721,0.000139,  21.242
   497.6,0.004723,0.002694,0.038630,0.000163,  21.243
   497.8,0.004711,0.002685,0.038539,0.000163,  21.248
   498.0,0.004698,0.002678,0.038428,0.000126,  21.245
   498.2,0.004682,0.002671,0.037574,0.000163,  21.248
   498.4,0.004666,0.002660,0.036350,0.000150,  21.247
   498.6,0.004655,0.002653,0.034726,0.000112,  21.251
   498.8,0.004643,0.002642,0.034582,0.000163,  21.244
   499.0,0.004630,0.002627,0.034978,0.000150,  21.249
   499.2,0.004615,0.002623,0.035909,0.000112,  21.248
   499.4,0.004604,0.002613,0.036110,0.000163,  21.247
   499.6,0.004597,0.002601,0.036224,0.000150,  21.249
   499.8,0.004587,0.002592,0.036208,0.000112,  21.243
   500.0,0.004578,0.002585,0.036294,0.000163,  21.244
   500.2,0.004562,0.002578,0.036379,0.000150,  21.245
   500.4,0.004556,0.002573,0.036452,0.000112,  21.243
   500.6,0.004545,0.002571,0.036475,0.000150,  21.244
   500.8,0.004528,0.002561,0.036472,0.000136,  21.241
   501.0,0.004516,0.002554,0.036436,0.000099,  21.243
   501.2,0.004504,0.002546,0.036346,0.000136,  21.246
   501.4,0.004487,0.002538,0.036196,0.000136,  21.246
   501.6,0.004475,0.002531,0.035992,0.000099,  21.245
   501.8,0.004462,0.002521,0.035868,0.000150,  21.242
   502.0,0.004445,0.002511,0.035765,0.000150,  21.241
   502.2,0.004433,0.002507,0.035641,0.000112,  21.235
   502.4,0.004422,0.002495,0.035471,0.000163,  21.239
   502.6,0.004402,0.002485,0.035280,0.000150,  21.233
   502.8,0.004387,0.002481,0.035056,0.000112,  21.237
   503.0,0.004375,0.002471,0.034932,0.000163,  21.236
   503.2,0.004356,0.002466,0.034871,0.000150,  21.235
   503.4,0.004346,0.002469,0.034806,0.000150,  21.237
   503.6,0.004337,0.002459,0.034791,0.000163,  21.234
   503.8,0.004325,0.002455,0.034714,0.000150,  21.236
   504.0,0.004312,0.002451,0.034631,0.000150,  21.231
   504.2,0.004294,0.002441,0.034528,0.000163,  21.235
   504.4,0.004281,0.002436,0.034426,0.000150,  21.233
   504.6,0.004269,0.002431,0.034330,0.000150,  21.234
   504.8,0.004253,0.002419,0.034202,0.000112,  21.234
   505.0,0.004244,0.002415,0.034099,0.000163,  21.237
   505.2,0.004232,0.002411,0.034004,0.000150,  21.230
   505.4,0.004216,0.002403,0.033914,0.000112,  21.231
   505.6,0.004207,0.002396,0.033837,0.000150,  21.231
   505.8,0.004198,0.002388,0.033747,0.000174,  21.233
   506.0,0.004188,0.002385,0.033698,0.000136,  21.232
   506.2,0.004169,0.002378,0.033642,0.000136,  21.233
   506.4,0.004159,0.002371,0.033544,0.000174,  21.232
   506.6,0.004147,0.002370,0.033483,0.000136,  21.234
   506.8,0.004127,0.002358,0.033434,0.000136,  21.234
   507.0,0.004115,0.002351,0.033323,0.000174,  21.232
   507.2,0.004107,0.002343,0.033241,0.000136,  21.234
   507.4,0.004094,0.002333,0.033131,0.000136,  21.235
   507.6,0.004082,0.002324,0.033016,0.000174,  21.232
   507.8,0.004066,0.002320,0.032867,0.000136,  21.233
   508.0,0.004054,0.002309,0.032703,0.000150,  21.234
   508.2,0.004045,0.002303,0.032534,0.000187,  21.233
   508.4,0.004035,0.002299,0.032311,0.000150,  21.232
   508.6,0.004026,0.002289,0.032189,0.000163,  21.231
   508.8,0.004011,0.002290,0.032120,0.000187,  21.230
   509.0,0.003992,0.002287,0.032050,0.000150,  21.230
   509.2,0.003980,0.002277,0.031989,0.000163,  21.227
   509.4,0.003960,0.002272,0.031879,0.000187,  21.228
   509.6,0.003961,0.002267,0.031797,0.000150,  21.226
   509.8,0.003952,0.002260,0.031682,0.000163,  21.225
   510.0,0.003943,0.002252,0.031526,0.000150,  21.226
   510.2,0.003927,0.002251,0.031358,0.000112,  21.229
   510.4,0.003912,0.002236,0.031210,0.000163,  21.229
   510.6,0.003902,0.002227,0.031054,0.000150,  21.224
   510.8,0.003893,0.002216,0.030886,0.000112,  21.225
   511.0,0.003878,0.002206,0.030764,0.000163,  21.223
   511.2,0.003868,0.002209,0.030674,0.000150,  21.227
   511.4,0.003862,0.002206,0.030560,0.000112,  21.225
   511.6,0.003850,0.002199,0.030491,0.000163,  21.221
   511.8,0.003845,0.002199,0.030435,0.000150,  21.221
   512.0,0.003835,0.002192,0.030399,0.000112,  21.222
   512.2,0.003820,0.002180,0.030310,0.000150,  21.226
   512.4,0.003808,0.002173,0.030215,0.000160,  21.229
   512.6,0.003792,0.002163,0.030134,0.000160,  21.229
   512.8,0.003769,0.002150,0.030007,0.000160,  21.229
   513.0,0.003750,0.002146,0.029918,0.000160,  21.227
   513.2,0.003730,0.002140,0.029823,0.000160,  21.227
   513.4,0.003725,0.002131,0.029729,0.000174,  21.226
   513.6,0.003712,0.002127,0.029673,0.000174,  21.226
   513.8,0.003693,0.002122,0.029617,0.000174,  21.227
   514.0,0.003691,0.002112,0.029602,0.000136,  21.224
   514.2,0.003681,0.002108,0.029546,0.000136,  21.225
   514.4,0.003659,0.002102,0.029436,0.000136,  21.219
   514.6,0.003651,0.002100,0.029314,0.000099,  21.223
   514.8,0.003641,0.002086,0.029225,0.000136,  21.225
   515.0,0.003632,0.002082,0.029123,0.000136,  21.222
   515.2,0.003630,0.002077,0.029029,0.000099,  21.222
   515.4,0.003618,0.002067,0.028961,0.000136,  21.221
   515.6,0.003605,0.002060,0.028880,0.000136,  21.221
   515.8,0.003590,0.002058,0.028839,0.000099,  21.223
   516.0,0.003581,0.002045,0.028684,0.000136,  21.223
   516.2,0.003564,0.002044,0.028492,0.000136,  21.225
   516.4,0.003555,0.002038,0.028239,0.000099,  21.223
   516.6,0.003548,0.002030,0.028137,0.000136,  21.219
   516.8,0.003529,0.002028,0.028056,0.000136,  21.222
   517.0,0.003521,0.002022,0.028000,0.000099,  21.221
   517.2,0.003514,0.002012,0.027727,0.000136,  21.222
   517.4,0.003495,0.002016,0.027348,0.000136,  21.221
   517.6,0.003490,0.002012,0.026823,0.000099,  21.220
   517.8,0.003484,0.001999,0.026722,0.000136,  21.221
   518.0,0.003467,0.001992,0.026760,0.000136,  21.225
   518.2,0.003461,0.001985,0.026923,0.000099,  21.219
   518.4,0.003459,0.001973,0.026933,0.000136,  21.221
   518.6,0.003445,0.001973,0.026950,0.000136,  21.223
   518.8,0.003440,0.001974,0.026967,0.000099,  21.218
   519.0,0.003431,0.001964,0.026932,0.000136,  21.225
   519.2,0.003422,0.001961,0.026884,0.000136,  21.227
   519.4,0.003416,0.001961,0.026803,0.000099,  21.225
   519.6,0.003411,0.001954,0.026722,0.000150,  21.225
   519.8,0.003401,0.001949,0.026628,0.000150,  21.225
   520.0,0.003392,0.001952,0.026470,0.000112,  21.225
   520.2,0.003380,0.001944,0.026414,0.000163,  21.226
   520.4,0.003370,0.001942,0.026439,0.000150,  21.225
   520.6,0.003354,0.001938,0.026456,0.000112,  21.222
   520.8,0.003341,0.001934,0.025641,0.000163,  21.223
   521.0,0.003332,0.001927,0.024462,0.000150,  21.223
   521.2,0.003318,0.001923,0.022888,0.000112,  21.225
   521.4,0.003314,0.001915,0.022410,0.000163,  21.229
   521.6,0.003304,0.001906,0.022277,0.000150,  21.227
   521.8,0.003291,0.001903,0.022527,0.000150,  21.227
   522.0,0.003286,0.001895,0.023094,0.000163,  21.228
   522.2,0.003273,0.001892,0.023308,0.000150,  21.229
   522.4,0.003257,0.001886,0.023595,0.000150,  21.226
   522.6,0.003249,0.001881,0.023963,0.000163,  21.229
   522.8,0.003239,0.001880,0.024190,0.000150,  21.231
   523.0,0.003220,0.001873,0.024405,0.000150,  21.226
   523.2,0.003215,0.001866,0.024572,0.000112,  21.228
   523.4,0.003208,0.001863,0.024654,0.000163,  21.225
   523.6,0.003192,0.001859,0.024711,0.000150,  21.226
   523.8,0.003187,0.001857,0.024696,0.000112,  21.230
   524.0,0.003181,0.001849,0.024660,0.000163,  21.225
   524.2,0.003164,0.001845,0.024608,0.000150,  21.226
   524.4,0.003159,0.001836,0.024502,0.000112,  21.229
   524.6,0.003153,0.001826,0.024479,0.000163,  21.227
   524.8,0.003140,0.001822,0.024504,0.000150,  21.229
   525.0,0.003136,0.001821,0.024541,0.000112,  21.226
   525.2,0.003129,0.001813,0.024485,0.000163,  21.229
   525.4,0.003117,0.001806,0.024413,0.000150,  21.229
   525.6,0.003108,0.001803,0.024287,0.000112,  21.226
   525.8,0.003102,0.001795,0.024325,0.000150,  21.224
   526.0,0.003089,0.001790,0.024402,0.000136,  21.225
   526.2,0.003080,0.001791,0.024512,0.000099,  21.226
   526.4,0.003074,0.001777,0.024411,0.000136,  21.227
   526.6,0.003064,0.001770,0.024233,0.000136,  21.227
   526.8,0.003055,0.001764,0.023971,0.000099,  21.226
   527.0,0.003046,0.001762,0.023660,0.000136,  21.228
   527.2,0.003032,0.001758,0.023273,0.000136,  21.229
   527.4,0.003041,0.001757,0.022846,0.000099,  21.232
   527.6,0.003032,0.001752,0.022746,0.000136,  21.226
   527.8,0.003026,0.001756,0.022758,0.000136,  21.228
   528.0,0.003013,0.001746,0.022887,0.000099,  21.228
   528.2,0.003004,0.001742,0.022904,0.000136,  21.232
   528.4,0.002990,0.001734,0.022929,0.000123,  21.229
   528.6,0.002981,0.001733,0.022934,0.000085,  21.229
   528.8,0.002975,0.001728,0.022696,0.000136,  21.233
   529.0,0.002961,0.001721,0.022322,0.000123,  21.235
   529.2,0.002949,0.001727,0.021852,0.000085,  21.230
   529.4,0.002947,0.001722,0.021727,0.000136,  21.231
   529.6,0.002941,0.001711,0.021708,0.000123,  21.233
   529.8,0.002929,0.001708,0.021812,0.000085,  21.236
   530.0,0.002919,0.001702,0.021864,0.000136,  21.232
   530.2,0.002916,0.001694,0.021881,0.000136,  21.232
   530.4,0.002907,0.001687,0.021910,0.000099,  21.236
   530.6,0.002901,0.001677,0.021955,0.000136,  21.233
   530.8,0.002895,0.001672,0.021991,0.000136,  21.231
   531.0,0.002888,0.001671,0.022008,0.000136,  21.237
   531.2,0.002876,0.001660,0.022033,0.000136,  21.233
   531.4,0.002867,0.001659,0.022005,0.000150,  21.235
   531.6,0.002861,0.001663,0.021945,0.000136,  21.235
   531.8,0.002848,0.001656,0.021833,0.000150,  21.237
   532.0,0.002839,0.001644,0.021833,0.000150,  21.237
   532.2,0.002833,0.001643,0.021797,0.000136,  21.240
   532.4,0.002824,0.001638,0.021790,0.000099,  21.240
   532.6,0.002817,0.001628,0.021782,0.000150,  21.240
   532.8,0.002811,0.001631,0.021754,0.000150,  21.238
   533.0,0.002805,0.001629,0.021707,0.000112,  21.239
   533.2,0.002799,0.001621,0.021627,0.000163,  21.238
   533.4,0.002790,0.001621,0.021535,0.000150,  21.234
   533.6,0.002777,0.001621,0.021370,0.000112,  21.236
   533.8,0.002771,0.001613,0.021218,0.000163,  21.241
   534.0,0.002759,0.001608,0.021082,0.000150,  21.240
   534.2,0.002746,0.001611,0.020913,0.000112,  21.238
   534.4,0.002740,0.001606,0.020801,0.000163,  21.240
   534.6,0.002731,0.001598,0.020721,0.000150,  21.239
   534.8,0.002725,0.001590,0.020662,0.000112,  21.239
   535.0,0.002719,0.001580,0.020666,0.000163,  21.237
   535.2,0.002706,0.001581,0.020655,0.000150,  21.233
   535.4,0.002697,0.001577,0.020712,0.000112,  21.234
   535.6,0.002691,0.001566,0.020696,0.000150,  21.230
   535.8,0.002682,0.001572,0.020649,0.000123,  21.235
   536.0,0.002675,0.001570,0.020569,0.000085,  21.233
   536.2,0.002669,0.001559,0.020489,0.000136,  21.233
   536.4,0.002656,0.001561,0.020365,0.000123,  21.235
   536.6,0.002657,0.001554,0.020221,0.000085,  21.231
   536.8,0.002651,0.001550,0.020162,0.000136,  21.233
   537.0,0.002645,0.001545,0.020062,0.000136,  21.233
   537.2,0.002632,0.001543,0.020002,0.000099,  21.236
   537.4,0.002623,0.001541,0.019943,0.000136,  21.235
   537.6,0.002614,0.001531,0.019843,0.000136,  21.235
   537.8,0.002608,0.001529,0.019751,0.000099,  21.236
   538.0,0.002598,0.001529,0.019724,0.000136,  21.235
   538.2,0.002589,0.001524,0.019721,0.000136,  21.234
   538.4,0.002583,0.001527,0.019737,0.000099,  21.236
   538.6,0.002571,0.001519,0.019665,0.000136,  21.238
   538.8,0.002561,0.001509,0.019534,0.000123,  21.239
   539.0,0.002555,0.001504,0.019378,0.000085,  21.237
   539.2,0.002546,0.001494,0.019247,0.000136,  21.236
   539.4,0.002544,0.001489,0.019135,0.000136,  21.234
   539.6,0.002535,0.001492,0.019032,0.000099,  21.234
   539.8,0.002525,0.001482,0.018928,0.000150,  21.239
   540.0,0.002524,0.001483,0.018856,0.000150,  21.235
   540.2,0.002514,0.001481,0.018745,0.000150,  21.235
   540.4,0.002498,0.001473,0.018673,0.000126,  21.238
   540.6,0.002492,0.001476,0.018678,0.000150,  21.239
   540.8,0.002482,0.001471,0.018654,0.000112,  21.242
   541.0,0.002476,0.001461,0.018691,0.000088,  21.238
   541.2,0.002470,0.001460,0.018695,0.000112,  21.237
   541.4,0.002464,0.001455,0.018687,0.000112,  21.240
   541.6,0.002461,0.001447,0.018640,0.000075,  21.240
   541.8,0.002454,0.001442,0.018541,0.000088,  21.242
   542.0,0.002445,0.001440,0.018417,0.000112,  21.242
   542.2,0.002436,0.001440,0.018262,0.000075,  21.239
   542.4,0.002430,0.001438,0.018183,0.000088,  21.244
   542.6,0.002421,0.001432,0.018116,0.000112,  21.242
   542.8,0.002408,0.001424,0.018116,0.000075,  21.242
   543.0,0.002399,0.001416,0.018049,0.000088,  21.242
   543.2,0.002396,0.001420,0.017969,0.000112,  21.245
   543.4,0.002390,0.001420,0.017882,0.000075,  21.244
   543.6,0.002384,0.001412,0.017835,0.000088,  21.243
   543.8,0.002377,0.001413,0.017783,0.000112,  21.244
   544.0,0.002368,0.001406,0.017724,0.000088,  21.239
   544.2,0.002355,0.001396,0.017148,0.000088,  21.245
   544.4,0.002345,0.001394,0.016304,0.000126,  21.242
   544.6,0.002336,0.001388,0.015174,0.000101,  21.242
   544.8,0.002323,0.001378,0.015063,0.000088,  21.241
   545.0,0.002313,0.001372,0.015312,0.000126,  21.238
   545.2,0.002314,0.001372,0.015909,0.000088,  21.243
   545.4,0.002308,0.001364,0.016055,0.000088,  21.239
   545.6,0.002298,0.001360,0.016143,0.000112,  21.242
   545.8,0.002302,0.001360,0.016187,0.000075,  21.239
   546.0,0.002296,0.001353,0.016218,0.000088,  21.236
   546.2,0.002293,0.001349,0.016223,0.000112,  21.236
   546.4,0.002284,0.001351,0.016191,0.000075,  21.236
   546.6,0.002271,0.001346,0.016203,0.000088,  21.236
   546.8,0.002265,0.001337,0.016215,0.000112,  21.238
   547.0,0.002249,0.001339,0.016207,0.000075,  21.239
   547.2,0.002239,0.001329,0.016263,0.000088,  21.236
   547.4,0.002233,0.001325,0.016338,0.000112,  21.233
   547.6,0.002216,0.001321,0.016398,0.000075,  21.229
   547.8,0.002218,0.001309,0.016403,0.000088,  21.229
   548.0,0.002215,0.001307,0.016375,0.000112,  21.233
   548.2,0.002208,0.001308,0.016296,0.000075,  21.237
   548.4,0.002213,0.001306,0.016289,0.000075,  21.238
   548.6,0.002210,0.001308,0.016273,0.000099,  21.233
   548.8,0.002200,0.001305,0.016265,0.000099,  21.237
   549.0,0.002191,0.001300,0.016258,0.000061,  21.232
   549.2,0.002185,0.001292,0.016187,0.000112,  21.229
   549.4,0.002176,0.001287,0.016096,0.000099,  21.230
   549.6,0.002167,0.001283,0.015993,0.000075,  21.229
   549.8,0.002160,0.001272,0.015946,0.000112,  21.229
   550.0,0.002154,0.001280,0.015918,0.000099,  21.228
   550.2,0.002148,0.001277,0.015891,0.000061,  21.229
   550.4,0.002145,0.001269,0.015844,0.000061,  21.228
   550.6,0.002139,0.001269,0.015772,0.000099,  21.232
   550.8,0.002136,0.001269,0.015694,0.000061,  21.230
   551.0,0.002133,0.001266,0.015627,0.000061,  21.233
   551.2,0.002126,0.001269,0.015563,0.000099,  21.231
   551.4,0.002120,0.001266,0.015473,0.000061,  21.229
   551.6,0.002114,0.001263,0.015394,0.000061,  21.230
   551.8,0.002111,0.001262,0.015350,0.000099,  21.232
   552.0,0.002105,0.001263,0.015267,0.000061,  21.232
   552.2,0.002102,0.001258,0.015247,0.000061,  21.232
   552.4,0.002096,0.001254,0.015212,0.000099,  21.233
   552.6,0.002086,0.001254,0.015224,0.000061,  21.231
   552.8,0.002083,0.001249,0.015205,0.000061,  21.232
   553.0,0.002077,0.001238,0.015118,0.000099,  21.231
   553.2,0.002074,0.001230,0.015047,0.000061,  21.233
   553.4,0.002071,0.001219,0.015020,0.000061,  21.233
   553.6,0.002062,0.001216,0.014973,0.000099,  21.236
   553.8,0.002052,0.001216,0.014933,0.000061,  21.238
   554.0,0.002046,0.001211,0.014752,0.000061,  21.235
   554.2,0.002037,0.001205,0.014508,0.000099,  21.235
   554.4,0.002031,0.001211,0.014149,0.000061,  21.238
   554.6,0.002028,0.001206,0.014090,0.000061,  21.238
   554.8,0.002017,0.001204,0.014134,0.000099,  21.236
   555.0,0.002022,0.001198,0.014268,0.000061,  21.237
   555.2,0.002019,0.001196,0.014304,0.000061,  21.237
   555.4,0.002012,0.001191,0.014355,0.000099,  21.238
   555.6,0.002006,0.001187,0.014391,0.000061,  21.236
   555.8,0.001997,0.001183,0.014375,0.000061,  21.242
   556.0,0.001991,0.001183,0.014363,0.000099,  21.238
   556.2,0.001977,0.001175,0.014312,0.000061,  21.239
   556.4,0.001974,0.001173,0.014036,0.000061,  21.236
   556.6,0.001968,0.001168,0.013608,0.000099,  21.243
   556.8,0.001954,0.001169,0.013065,0.000061,  21.240
   557.0,0.001953,0.001158,0.012987,0.000061,  21.241
   557.2,0.001950,0.001159,0.013050,0.000099,  21.238
   557.4,0.001939,0.001161,0.013286,0.000061,  21.236
   557.6,0.001937,0.001148,0.013321,0.000061,  21.241
   557.8,0.001931,0.001149,0.013384,0.000099,  21.244
   558.0,0.001918,0.001145,0.013408,0.000099,  21.237
   558.2,0.001919,0.001139,0.013432,0.000061,  21.242
   558.4,0.001917,0.001142,0.013424,0.000112,  21.245
   558.6,0.001915,0.001141,0.013393,0.000099,  21.241
   558.8,0.001917,0.001138,0.013330,0.000075,  21.243
   559.0,0.001917,0.001141,0.013353,0.000112,  21.242
   559.2,0.001911,0.001141,0.013389,0.000099,  21.243
   559.4,0.001893,0.001135,0.013472,0.000061,  21.237
   559.6,0.001893,0.001134,0.013495,0.000061,  21.241
   559.8,0.001887,0.001127,0.013468,0.000099,  21.245
   560.0,0.001881,0.001124,0.013448,0.000061,  21.242
   560.2,0.001875,0.001124,0.013421,0.000061,  21.247
   560.4,0.001872,0.001116,0.013370,0.000099,  21.243
   560.6,0.001863,0.001116,0.013311,0.000061,  21.245
   560.8,0.001857,0.001111,0.013252,0.000061,  21.243
   561.0,0.001853,0.001109,0.013201,0.000099,  21.245
   561.2,0.001847,0.001106,0.013131,0.000061,  21.243
   561.4,0.001844,0.001106,0.013048,0.000061,  21.239
   561.6,0.001841,0.001101,0.012915,0.000099,  21.243
   561.8,0.001835,0.001100,0.012730,0.000061,  21.240
   562.0,0.001832,0.001092,0.012648,0.000061,  21.238
   562.2,0.001829,0.001092,0.012577,0.000099,  21.243
   562.4,0.001820,0.001092,0.012499,0.000061,  21.240
   562.6,0.001816,0.001090,0.012523,0.000061,  21.239
   562.8,0.001810,0.001085,0.012578,0.000099,  21.240
   563.0,0.001801,0.001083,0.012696,0.000061,  21.239
   563.2,0.001795,0.001083,0.012566,0.000061,  21.236
   563.4,0.001784,0.001083,0.012324,0.000099,  21.239
   563.6,0.001778,0.001080,0.011967,0.000061,  21.240
   563.8,0.001775,0.001078,0.011920,0.000061,  21.241
   564.0,0.001768,0.001073,0.011991,0.000099,  21.240
   564.2,0.001772,0.001069,0.012148,0.000061,  21.241
   564.4,0.001762,0.001061,0.012132,0.000061,  21.236
   564.6,0.001759,0.001064,0.012101,0.000099,  21.238
   564.8,0.001745,0.001065,0.012030,0.000061,  21.237
   565.0,0.001743,0.001057,0.012011,0.000061,  21.233
   565.2,0.001737,0.001060,0.011972,0.000099,  21.238
   565.4,0.001723,0.001059,0.011921,0.000061,  21.234
   565.6,0.001722,0.001054,0.011945,0.000061,  21.236
   565.8,0.001719,0.001047,0.011980,0.000099,  21.236
   566.0,0.001708,0.001048,0.012055,0.000061,  21.235
   566.2,0.001709,0.001046,0.012066,0.000061,  21.232
   566.4,0.001706,0.001038,0.012020,0.000099,  21.233
   566.6,0.001696,0.001039,0.011969,0.000061,  21.232
   566.8,0.001697,0.001033,0.011949,0.000061,  21.230
   567.0,0.001691,0.001033,0.011934,0.000099,  21.226
   567.2,0.001680,0.001027,0.011934,0.000099,  21.231
   567.4,0.001682,0.001024,0.011926,0.000099,  21.227
   567.6,0.001678,0.001024,0.011906,0.000112,  21.228
   567.8,0.001672,0.001024,0.011860,0.000136,  21.227
   568.0,0.001671,0.001016,0.011840,0.000150,  21.227
   568.2,0.001667,0.001017,0.011750,0.000150,  21.229
   568.4,0.001661,0.001015,0.011617,0.000136,  21.225
   568.6,0.001655,0.001010,0.011460,0.000099,  21.224
   568.8,0.001652,0.001011,0.011382,0.000136,  21.229
   569.0,0.001652,0.001008,0.011339,0.000136,  21.225
   569.2,0.001646,0.001006,0.011288,0.000099,  21.223
   569.4,0.001643,0.001004,0.011273,0.000136,  21.219
   569.6,0.001637,0.000996,0.011297,0.000136,  21.223
   569.8,0.001630,0.000999,0.011340,0.000099,  21.222
   570.0,0.001627,0.000993,0.011148,0.000136,  21.220
   570.2,0.001624,0.000991,0.010828,0.000136,  21.220
   570.4,0.001618,0.000994,0.010430,0.000099,  21.217
   570.6,0.001615,0.000986,0.010228,0.000136,  21.213
   570.8,0.001612,0.000989,0.010010,0.000136,  21.216
   571.0,0.001606,0.000985,0.009858,0.000099,  21.215
   571.2,0.001603,0.000977,0.009850,0.000150,  21.214
   571.4,0.001592,0.000980,0.009932,0.000150,  21.215
   571.6,0.001583,0.000981,0.010103,0.000112,  21.213
   571.8,0.001580,0.000973,0.010197,0.000163,  21.213
   572.0,0.001566,0.000968,0.010283,0.000150,  21.212
   572.2,0.001568,0.000971,0.010396,0.000112,  21.214
   572.4,0.001565,0.000963,0.010439,0.000163,  21.214
   572.6,0.001554,0.000959,0.010431,0.000150,  21.217
   572.8,0.001558,0.000959,0.010392,0.000112,  21.215
   573.0,0.001555,0.000951,0.010427,0.000163,  21.217
   573.2,0.001545,0.000947,0.010502,0.000150,  21.216
   573.4,0.001542,0.000950,0.010568,0.000112,  21.219
   573.6,0.001546,0.000947,0.010580,0.000150,  21.222
   573.8,0.001533,0.000944,0.010521,0.000136,  21.221
   574.0,0.001534,0.000948,0.010428,0.000099,  21.221
   574.2,0.001525,0.000943,0.010389,0.000136,  21.219
   574.4,0.001521,0.000938,0.010303,0.000136,  21.220
   574.6,0.001505,0.000939,0.010253,0.000099,  21.223
   574.8,0.001506,0.000928,0.010202,0.000136,  21.220
   575.0,0.001503,0.000926,0.010112,0.000136,  21.221
   575.2,0.001493,0.000923,0.010031,0.000099,  21.223
   575.4,0.001494,0.000915,0.009980,0.000150,  21.220
   575.6,0.001491,0.000908,0.009960,0.000150,  21.224
   575.8,0.001480,0.000907,0.009914,0.000112,  21.219
   576.0,0.001481,0.000910,0.009894,0.000150,  21.220
   576.2,0.001478,0.000905,0.009875,0.000136,  21.225
   576.4,0.001465,0.000903,0.009867,0.000136,  21.227
   576.6,0.001463,0.000903,0.009860,0.000136,  21.223
   576.8,0.001461,0.000901,0.009821,0.000150,  21.226
   577.0,0.001456,0.000894,0.009751,0.000136,  21.227
   577.2,0.001466,0.000881,0.009669,0.000150,  21.226
   577.4,0.001460,0.000888,0.009591,0.000150,  21.223
   577.6,0.001461,0.000889,0.009541,0.000136,  21.226
   577.8,0.001458,0.000881,0.009502,0.000099,  21.228
   578.0,0.001451,0.000884,0.009436,0.000136,  21.229
   578.2,0.001448,0.000878,0.009393,0.000136,  21.234
   578.4,0.001443,0.000881,0.009323,0.000099,  21.235
   578.6,0.001436,0.000881,0.009265,0.000136,  21.236
   578.8,0.001430,0.000880,0.009195,0.000123,  21.235
   579.0,0.001416,0.000880,0.009086,0.000085,  21.238
   579.2,0.001409,0.000875,0.009047,0.000136,  21.242
   579.4,0.001409,0.000871,0.009028,0.000123,  21.241
   579.6,0.001406,0.000868,0.009008,0.000085,  21.238
   579.8,0.001395,0.000862,0.009032,0.000136,  21.243
   580.0,0.001385,0.000862,0.009067,0.000123,  21.244
   580.2,0.001386,0.000863,0.009141,0.000085,  21.241
   580.4,0.001386,0.000858,0.009164,0.000136,  21.240
   580.6,0.001376,0.000858,0.009176,0.000123,  21.246
   580.8,0.001383,0.000863,0.009137,0.000085,  21.245
   581.0,0.001383,0.000858,0.009048,0.000136,  21.248
   581.2,0.001373,0.000861,0.008943,0.000123,  21.245
   581.4,0.001371,0.000862,0.008760,0.000085,  21.250
   581.6,0.001368,0.000858,0.008733,0.000136,  21.252
   581.8,0.001360,0.000861,0.008764,0.000136,  21.255
   582.0,0.001361,0.000855,0.008819,0.000099,  21.250
   582.2,0.001358,0.000858,0.008780,0.000136,  21.251
   582.4,0.001348,0.000853,0.008710,0.000136,  21.246
   582.6,0.001345,0.000848,0.008597,0.000099,  21.249
   582.8,0.001349,0.000846,0.008539,0.000150,  21.255
   583.0,0.001342,0.000847,0.008481,0.000150,  21.258
   583.2,0.001346,0.000847,0.008462,0.000112,  21.254
   583.4,0.001343,0.000837,0.008477,0.000150,  21.253
   583.6,0.001340,0.000838,0.008559,0.000136,  21.256
   583.8,0.001333,0.000833,0.008652,0.000099,  21.257
   584.0,0.001334,0.000825,0.008706,0.000150,  21.257
   584.2,0.001331,0.000828,0.008757,0.000150,  21.258
   584.4,0.001317,0.000826,0.008768,0.000112,  21.256
   584.6,0.001318,0.000818,0.008737,0.000163,  21.254
   584.8,0.001315,0.000819,0.008629,0.000150,  21.256
   585.0,0.001305,0.000817,0.008505,0.000112,  21.256
   585.2,0.001306,0.000814,0.008454,0.000150,  21.255
   585.4,0.001306,0.000817,0.008377,0.000123,  21.253
   585.6,0.001293,0.000817,0.008338,0.000123,  21.254
   585.8,0.001297,0.000811,0.008299,0.000123,  21.257
   586.0,0.001294,0.000814,0.008280,0.000123,  21.255
   586.2,0.001280,0.000812,0.008260,0.000123,  21.257
   586.4,0.001281,0.000806,0.008260,0.000136,  21.256
   586.6,0.001278,0.000812,0.008291,0.000136,  21.255
   586.8,0.001275,0.000812,0.008295,0.000136,  21.255
   587.0,0.001280,0.000804,0.008319,0.000099,  21.253
   587.2,0.001280,0.000802,0.008280,0.000136,  21.251
   587.4,0.001277,0.000799,0.008210,0.000136,  21.253
   587.6,0.001267,0.000797,0.008098,0.000099,  21.251
   587.8,0.001264,0.000795,0.008040,0.000136,  21.248
   588.0,0.001264,0.000792,0.008012,0.000136,  21.245
   588.2,0.001261,0.000795,0.007962,0.000099,  21.249
   588.4,0.001258,0.000790,0.007966,0.000136,  21.249
   588.6,0.001255,0.000788,0.008028,0.000136,  21.246
   588.8,0.001252,0.000793,0.008090,0.000099,  21.245
   589.0,0.001252,0.000785,0.008020,0.000136,  21.246
   589.2,0.001249,0.000786,0.007908,0.000136,  21.243
   589.4,0.001240,0.000776,0.007734,0.000099,  21.246
   589.6,0.001237,0.000772,0.007281,0.000136,  21.247
   589.8,0.001233,0.000776,0.006659,0.000136,  21.247
   590.0,0.001227,0.000777,0.005888,0.000099,  21.245
   590.2,0.001224,0.000777,0.005919,0.000136,  21.247
   590.4,0.001218,0.000772,0.006204,0.000136,  21.248
   590.6,0.001212,0.000772,0.006802,0.000099,  21.241
   590.8,0.001209,0.000768,0.006833,0.000136,  21.243
   591.0,0.001205,0.000768,0.006702,0.000136,  21.243
   591.2,0.001206,0.000768,0.006412,0.000099,  21.243
   591.4,0.001206,0.000765,0.006493,0.000136,  21.241
   591.6,0.001203,0.000758,0.006655,0.000136,  21.244
   591.8,0.001200,0.000752,0.006937,0.000099,  21.246
   592.0,0.001197,0.000747,0.006999,0.000136,  21.243
   592.2,0.001197,0.000747,0.007030,0.000136,  21.246
   592.4,0.001194,0.000746,0.006987,0.000099,  21.244
   592.6,0.001184,0.000735,0.007018,0.000136,  21.245
   592.8,0.001184,0.000739,0.007061,0.000136,  21.246
   593.0,0.001184,0.000735,0.007103,0.000099,  21.242
   593.2,0.001181,0.000729,0.007165,0.000136,  21.243
   593.4,0.001178,0.000729,0.007239,0.000136,  21.242
   593.6,0.001175,0.000737,0.007304,0.000099,  21.242
   593.8,0.001169,0.000734,0.007316,0.000136,  21.247
   594.0,0.001166,0.000736,0.007266,0.000136,  21.245
   594.2,0.001163,0.000739,0.007192,0.000099,  21.245
   594.4,0.001160,0.000733,0.007192,0.000136,  21.244
   594.6,0.001160,0.000736,0.007204,0.000123,  21.242
   594.8,0.001149,0.000729,0.007223,0.000123,  21.246
   595.0,0.001146,0.000724,0.007254,0.000123,  21.246
   595.2,0.001143,0.000729,0.007254,0.000123,  21.241
   595.4,0.001133,0.000727,0.007204,0.000123,  21.244
   595.6,0.001137,0.000722,0.007146,0.000136,  21.245
   595.8,0.001134,0.000720,0.007100,0.000123,  21.247
   596.0,0.001128,0.000722,0.007057,0.000123,  21.241
   596.2,0.001132,0.000717,0.006987,0.000085,  21.242
   596.4,0.001129,0.000715,0.006980,0.000136,  21.245
   596.6,0.001126,0.000712,0.006972,0.000123,  21.241
   596.8,0.001120,0.000712,0.006984,0.000085,  21.244
   597.0,0.001117,0.000709,0.006945,0.000136,  21.239
   597.2,0.001114,0.000709,0.006856,0.000123,  21.243
   597.4,0.001107,0.000706,0.006763,0.000085,  21.240
   597.6,0.001107,0.000701,0.006455,0.000136,  21.241
   597.8,0.001104,0.000698,0.006015,0.000136,  21.238
   598.0,0.001098,0.000694,0.005465,0.000099,  21.240
   598.2,0.001102,0.000688,0.005457,0.000136,  21.233
   598.4,0.001096,0.000691,0.005657,0.000136,  21.238
   598.6,0.001090,0.000694,0.006077,0.000099,  21.237
   598.8,0.001087,0.000691,0.006169,0.000136,  21.239
   599.0,0.001084,0.000694,0.006212,0.000136,  21.240
   599.2,0.001074,0.000697,0.006173,0.000099,  21.239
   599.4,0.001067,0.000691,0.006216,0.000136,  21.238
   599.6,0.001061,0.000689,0.006219,0.000136,  21.239
   599.8,0.001064,0.000687,0.006243,0.000099,  21.238
   600.0,0.001058,0.000683,0.006254,0.000136,  21.236
   600.2,0.001050,0.000675,0.006235,0.000136,  21.236
   600.4,0.001058,0.000675,0.006192,0.000099,  21.234
   600.6,0.001053,0.000664,0.006142,0.000136,  21.235
   600.8,0.001056,0.000664,0.006092,0.000136,  21.234
   601.0,0.001053,0.000667,0.005992,0.000099,  21.231
   601.2,0.001053,0.000661,0.005953,0.000136,  21.235
   601.4,0.001050,0.000661,0.005915,0.000136,  21.229
   601.6,0.001050,0.000664,0.005896,0.000099,  21.230
   601.8,0.001047,0.000661,0.005838,0.000136,  21.232
   602.0,0.001044,0.000660,0.005768,0.000136,  21.228
   602.2,0.001044,0.000660,0.005676,0.000099,  21.230
   602.4,0.001047,0.000652,0.005680,0.000136,  21.233
   602.6,0.001047,0.000653,0.005722,0.000136,  21.226
   602.8,0.001041,0.000657,0.005822,0.000099,  21.226
   603.0,0.001035,0.000652,0.005865,0.000136,  21.220
   603.2,0.001035,0.000648,0.005888,0.000136,  21.225
   603.4,0.001032,0.000657,0.005919,0.000099,  21.224
   603.6,0.001029,0.000654,0.005911,0.000136,  21.220
   603.8,0.001021,0.000653,0.005911,0.000123,  21.218
   604.0,0.001021,0.000655,0.005834,0.000123,  21.220
   604.2,0.001021,0.000655,0.005784,0.000123,  21.222
   604.4,0.001014,0.000658,0.005765,0.000123,  21.220
   604.6,0.001011,0.000662,0.005745,0.000123,  21.221
   604.8,0.001015,0.000662,0.005745,0.000136,  21.221
   605.0,0.001012,0.000653,0.005738,0.000123,  21.220
   605.2,0.001002,0.000656,0.005699,0.000123,  21.219
   605.4,0.000999,0.000655,0.005668,0.000085,  21.217
   605.6,0.000995,0.000654,0.005661,0.000136,  21.216
   605.8,0.000992,0.000651,0.005672,0.000123,  21.217
   606.0,0.000997,0.000649,0.005672,0.000085,  21.217
   606.2,0.000997,0.000644,0.005626,0.000136,  21.217
   606.4,0.000994,0.000648,0.005583,0.000123,  21.216
   606.6,0.000987,0.000647,0.005483,0.000085,  21.221
   606.8,0.000984,0.000639,0.005437,0.000136,  21.216
   607.0,0.000981,0.000639,0.005426,0.000123,  21.217
   607.2,0.000975,0.000641,0.005406,0.000085,  21.222
   607.4,0.000972,0.000641,0.005326,0.000136,  21.215
   607.6,0.000969,0.000635,0.005195,0.000123,  21.219
   607.8,0.000966,0.000634,0.005060,0.000085,  21.219
   608.0,0.000966,0.000633,0.005041,0.000136,  21.219
   608.2,0.000963,0.000638,0.005064,0.000123,  21.219
   608.4,0.000960,0.000638,0.005118,0.000085,  21.218
   608.6,0.000967,0.000635,0.005087,0.000136,  21.221
   608.8,0.000967,0.000636,0.005026,0.000123,  21.219
   609.0,0.000967,0.000632,0.004914,0.000085,  21.219
   609.2,0.000967,0.000627,0.004957,0.000136,  21.220
   609.4,0.000957,0.000632,0.005029,0.000136,  21.218
   609.6,0.000957,0.000632,0.005133,0.000099,  21.218
   609.8,0.000951,0.000627,0.005176,0.000136,  21.221
   610.0,0.000951,0.000630,0.005206,0.000136,  21.217
   610.2,0.000948,0.000628,0.005199,0.000099,  21.221
   610.4,0.000948,0.000623,0.005172,0.000136,  21.224
   610.6,0.000948,0.000620,0.005129,0.000136,  21.224
   610.8,0.000940,0.000621,0.005041,0.000099,  21.227
   611.0,0.000934,0.000613,0.004703,0.000136,  21.226
   611.2,0.000934,0.000616,0.004192,0.000136,  21.220
   611.4,0.000927,0.000617,0.003534,0.000099,  21.219
   611.6,0.000931,0.000612,0.003473,0.000136,  21.222
   611.8,0.000931,0.000614,0.003610,0.000136,  21.224
   612.0,0.000920,0.000613,0.003947,0.000099,  21.222
   612.2,0.000925,0.000609,0.004078,0.000136,  21.226
   612.4,0.000922,0.000610,0.004208,0.000136,  21.225
   612.6,0.000911,0.000615,0.004300,0.000136,  21.224
   612.8,0.000916,0.000617,0.004392,0.000136,  21.222
   613.0,0.000916,0.000608,0.004465,0.000150,  21.227
   613.2,0.000905,0.000615,0.004526,0.000136,  21.232
   613.4,0.000912,0.000615,0.004568,0.000150,  21.228
   613.6,0.000917,0.000608,0.004599,0.000150,  21.229
   613.8,0.000915,0.000608,0.004618,0.000136,  21.232
   614.0,0.000914,0.000606,0.004618,0.000099,  21.230
   614.2,0.000914,0.000598,0.004618,0.000136,  21.231
   614.4,0.000914,0.000601,0.004580,0.000136,  21.228
   614.6,0.000907,0.000599,0.004549,0.000099,  21.230
   614.8,0.000895,0.000593,0.004553,0.000136,  21.232
   615.0,0.000898,0.000593,0.004564,0.000136,  21.232
   615.2,0.000898,0.000591,0.004603,0.000099,  21.233
   615.4,0.000894,0.000586,0.004545,0.000136,  21.234
   615.6,0.000884,0.000586,0.004457,0.000136,  21.241
   615.8,0.000888,0.000586,0.004353,0.000099,  21.237
   616.0,0.000888,0.000580,0.004365,0.000136,  21.238
   616.2,0.000874,0.000583,0.004415,0.000123,  21.238
   616.4,0.000876,0.000580,0.004495,0.000085,  21.238
   616.6,0.000876,0.000577,0.004488,0.000123,  21.244
   616.8,0.000876,0.000579,0.004468,0.000110,  21.247
   617.0,0.000880,0.000579,0.004438,0.000072,  21.244
   617.2,0.000880,0.000577,0.004388,0.000123,  21.239
   617.4,0.000883,0.000578,0.004326,0.000123,  21.241
   617.6,0.000883,0.000585,0.004246,0.000085,  21.242
   617.8,0.000883,0.000585,0.004288,0.000136,  21.243
   618.0,0.000880,0.000579,0.004388,0.000123,  21.240
   618.2,0.000877,0.000585,0.004484,0.000085,  21.242
   618.4,0.000874,0.000587,0.004265,0.000136,  21.240
   618.6,0.000866,0.000585,0.003885,0.000123,  21.241
   618.8,0.000860,0.000588,0.003346,0.000085,  21.241
   619.0,0.000857,0.000587,0.003330,0.000136,  21.244
   619.2,0.000854,0.000587,0.003510,0.000123,  21.241
   619.4,0.000854,0.000584,0.003862,0.000085,  21.244
   619.6,0.000858,0.000584,0.003954,0.000136,  21.242
   619.8,0.000858,0.000579,0.004000,0.000136,  21.244
   620.0,0.000848,0.000578,0.003977,0.000099,  21.246
   620.2,0.000842,0.000572,0.004050,0.000136,  21.247
   620.4,0.000842,0.000570,0.004180,0.000136,  21.242
   620.6,0.000834,0.000572,0.004303,0.000099,  21.246
   620.8,0.000842,0.000571,0.004357,0.000136,  21.249
   621.0,0.000839,0.000568,0.004407,0.000136,  21.245
   621.2,0.000831,0.000568,0.004426,0.000099,  21.251
   621.4,0.000836,0.000562,0.004387,0.000136,  21.253
   621.6,0.000833,0.000562,0.004326,0.000136,  21.251
   621.8,0.000822,0.000557,0.004234,0.000136,  21.253
   622.0,0.000823,0.000555,0.004173,0.000136,  21.252
   622.2,0.000823,0.000548,0.004104,0.000150,  21.254
   622.4,0.000816,0.000546,0.004023,0.000136,  21.252
   622.6,0.000817,0.000538,0.003962,0.000150,  21.253
   622.8,0.000814,0.000540,0.004004,0.000150,  21.257
   623.0,0.000807,0.000545,0.004084,0.000136,  21.260
   623.2,0.000808,0.000539,0.004169,0.000099,  21.252
   623.4,0.000808,0.000539,0.004142,0.000136,  21.253
   623.6,0.000798,0.000542,0.004092,0.000136,  21.252
   623.8,0.000802,0.000546,0.003988,0.000099,  21.256
   624.0,0.000802,0.000546,0.003988,0.000136,  21.260
   624.2,0.000794,0.000546,0.003981,0.000136,  21.257
   624.4,0.000796,0.000544,0.004000,0.000099,  21.256
   624.6,0.000796,0.000542,0.003950,0.000136,  21.256
   624.8,0.000785,0.000542,0.003877,0.000136,  21.262
   625.0,0.000786,0.000536,0.003766,0.000099,  21.260
   625.2,0.000783,0.000536,0.003728,0.000136,  21.261
   625.4,0.000783,0.000539,0.003717,0.000136,  21.260
   625.6,0.000788,0.000538,0.003690,0.000099,  21.265
   625.8,0.000788,0.000535,0.003682,0.000136,  21.261
   626.0,0.000785,0.000535,0.003690,0.000136,  21.261
   626.2,0.000785,0.000529,0.003670,0.000099,  21.262
   626.4,0.000785,0.000531,0.003713,0.000136,  21.261
   626.6,0.000778,0.000529,0.003747,0.000136,  21.265
   626.8,0.000772,0.000529,0.003820,0.000099,  21.265
   627.0,0.000772,0.000524,0.003800,0.000136,  21.264
   627.2,0.000772,0.000521,0.003751,0.000136,  21.272
   627.4,0.000769,0.000516,0.003659,0.000099,  21.265
   627.6,0.000769,0.000514,0.003670,0.000136,  21.265
   627.8,0.000765,0.000520,0.003712,0.000136,  21.266
   628.0,0.000769,0.000528,0.003766,0.000099,  21.268
   628.2,0.000769,0.000526,0.003789,0.000136,  21.274
   628.4,0.000769,0.000531,0.003781,0.000136,  21.270
   628.6,0.000769,0.000528,0.003789,0.000099,  21.266
   628.8,0.000769,0.000520,0.003750,0.000136,  21.266
   629.0,0.000769,0.000529,0.003670,0.000136,  21.269
   629.2,0.000772,0.000527,0.003578,0.000099,  21.270
   629.4,0.000769,0.000522,0.003249,0.000136,  21.271
   629.6,0.000766,0.000527,0.002771,0.000136,  21.269
   629.8,0.000766,0.000523,0.002165,0.000099,  21.271
   630.0,0.000763,0.000515,0.002115,0.000136,  21.266
   630.2,0.000760,0.000520,0.002264,0.000136,  21.271
   630.4,0.000760,0.000518,0.002622,0.000099,  21.269
   630.6,0.000760,0.000512,0.002794,0.000136,  21.268
   630.8,0.000763,0.000520,0.002974,0.000136,  21.271
   631.0,0.000757,0.000523,0.003134,0.000136,  21.266
   631.2,0.000751,0.000522,0.003234,0.000136,  21.266
   631.4,0.000751,0.000521,0.003314,0.000150,  21.264
   631.6,0.000748,0.000512,0.003306,0.000136,  21.268
   631.8,0.000745,0.000509,0.003287,0.000150,  21.269
   632.0,0.000745,0.000505,0.003287,0.000150,  21.269
   632.2,0.000742,0.000502,0.003256,0.000136,  21.267
   632.4,0.000739,0.000500,0.003214,0.000099,  21.267
   632.6,0.000739,0.000501,0.003214,0.000136,  21.269
   632.8,0.000739,0.000507,0.003203,0.000136,  21.266
   633.0,0.000739,0.000508,0.003195,0.000099,  21.270
   633.2,0.000735,0.000513,0.003168,0.000136,  21.267
   633.4,0.000732,0.000503,0.003126,0.000136,  21.268
   633.6,0.000729,0.000508,0.003058,0.000099,  21.268
   633.8,0.000729,0.000505,0.003092,0.000136,  21.268
   634.0,0.000723,0.000505,0.003172,0.000136,  21.269
   634.2,0.000723,0.000513,0.003275,0.000099,  21.267
   634.4,0.000731,0.000510,0.003317,0.000136,  21.265
   634.6,0.000728,0.000510,0.003348,0.000136,  21.265
   634.8,0.000724,0.000507,0.003348,0.000099,  21.265
   635.0,0.000732,0.000501,0.003290,0.000136,  21.266
   635.2,0.000732,0.000501,0.003229,0.000136,  21.259
   635.4,0.000724,0.000496,0.003126,0.000099,  21.266
   635.6,0.000724,0.000494,0.002797,0.000136,  21.263
   635.8,0.000724,0.000497,0.002313,0.000136,  21.262
   636.0,0.000721,0.000501,0.001687,0.000099,  21.261
   636.2,0.000721,0.000497,0.001699,0.000136,  21.263
   636.4,0.000721,0.000497,0.001939,0.000136,  21.261
   636.6,0.000718,0.000499,0.002438,0.000099,  21.262
   636.8,0.000715,0.000494,0.002518,0.000136,  21.262
   637.0,0.000708,0.000497,0.002526,0.000136,  21.261
   637.2,0.000705,0.000495,0.002461,0.000099,  21.265
   637.4,0.000702,0.000490,0.002561,0.000136,  21.260
   637.6,0.000702,0.000497,0.002690,0.000136,  21.262
   637.8,0.000709,0.000495,0.002835,0.000099,  21.262
   638.0,0.000706,0.000490,0.002835,0.000136,  21.257
   638.2,0.000706,0.000495,0.002725,0.000136,  21.259
   638.4,0.000706,0.000490,0.002534,0.000099,  21.258
   638.6,0.000692,0.000487,0.002534,0.000136,  21.258
   638.8,0.000685,0.000490,0.002545,0.000136,  21.260
   639.0,0.000685,0.000492,0.002614,0.000099,  21.263
   639.2,0.000686,0.000484,0.002694,0.000136,  21.257
   639.4,0.000686,0.000485,0.002816,0.000123,  21.259
   639.6,0.000689,0.000489,0.002938,0.000085,  21.254
   639.8,0.000686,0.000483,0.003011,0.000136,  21.258
   640.0,0.000686,0.000478,0.003053,0.000123,  21.256
   640.2,0.000682,0.000480,0.003083,0.000085,  21.258
   640.4,0.000679,0.000477,0.003114,0.000136,  21.251
   640.6,0.000676,0.000477,0.003114,0.000123,  21.254
   640.8,0.000668,0.000477,0.003095,0.000123,  21.252
   641.0,0.000673,0.000477,0.003064,0.000123,  21.253
   641.2,0.000670,0.000480,0.003045,0.000123,  21.251
   641.4,0.000662,0.000479,0.003015,0.000123,  21.249
   641.6,0.000673,0.000473,0.002965,0.000136,  21.248
   641.8,0.000673,0.000475,0.002946,0.000123,  21.253
   642.0,0.000662,0.000475,0.002915,0.000123,  21.250
   642.2,0.000664,0.000475,0.002877,0.000085,  21.245
   642.4,0.000667,0.000472,0.002820,0.000136,  21.251
   642.6,0.000667,0.000468,0.002759,0.000123,  21.245
   642.8,0.000671,0.000465,0.002667,0.000085,  21.247
   643.0,0.000674,0.000460,0.002598,0.000136,  21.246
   643.2,0.000671,0.000463,0.002510,0.000123,  21.246
   643.4,0.000668,0.000463,0.002438,0.000085,  21.245
   643.6,0.000668,0.000465,0.002102,0.000136,  21.246
   643.8,0.000665,0.000468,0.001656,0.000123,  21.244
   644.0,0.000659,0.000466,0.001044,0.000085,  21.244
   644.2,0.000659,0.000461,0.001055,0.000136,  21.249
   644.4,0.000659,0.000458,0.001275,0.000123,  21.244
   644.6,0.000656,0.000461,0.001759,0.000085,  21.244
   644.8,0.000653,0.000456,0.001907,0.000136,  21.246
   645.0,0.000649,0.000456,0.001949,0.000123,  21.244
   645.2,0.000643,0.000461,0.001957,0.000085,  21.244
   645.4,0.000643,0.000451,0.001987,0.000136,  21.245
   645.6,0.000640,0.000454,0.001987,0.000123,  21.246
   645.8,0.000640,0.000452,0.001957,0.000085,  21.245
   646.0,0.000640,0.000447,0.002010,0.000136,  21.245
   646.2,0.000637,0.000452,0.002102,0.000123,  21.244
   646.4,0.000634,0.000451,0.002231,0.000085,  21.243
   646.6,0.000631,0.000451,0.002254,0.000136,  21.243
   646.8,0.000627,0.000449,0.002254,0.000123,  21.244
   647.0,0.000631,0.000447,0.002224,0.000085,  21.244
   647.2,0.000631,0.000442,0.002246,0.000136,  21.245
   647.4,0.000624,0.000444,0.002296,0.000123,  21.243
   647.6,0.000631,0.000442,0.002357,0.000085,  21.243
   647.8,0.000621,0.000438,0.002330,0.000123,  21.244
   648.0,0.000618,0.000438,0.002319,0.000147,  21.243
   648.2,0.000618,0.000438,0.002258,0.000110,  21.243
   648.4,0.000622,0.000438,0.002208,0.000123,  21.244
   648.6,0.000622,0.000434,0.002159,0.000123,  21.245
   648.8,0.000622,0.000440,0.002079,0.000085,  21.245
   649.0,0.000622,0.000438,0.001842,0.000136,  21.244
   649.2,0.000622,0.000438,0.001553,0.000123,  21.245
   649.4,0.000619,0.000438,0.001138,0.000085,  21.244
   649.6,0.000610,0.000430,0.001058,0.000123,  21.248
   649.8,0.000610,0.000430,0.001089,0.000110,  21.247
   650.0,0.000610,0.000439,0.001237,0.000110,  21.245
   650.2,0.000606,0.000436,0.001495,0.000110,  21.245
   650.4,0.000606,0.000434,0.001594,0.000110,  21.245
   650.6,0.000603,0.000434,0.001693,0.000110,  21.245
   650.8,0.000600,0.000430,0.001804,0.000110,  21.245
   651.0,0.000600,0.000434,0.001895,0.000123,  21.242
   651.2,0.000603,0.000439,0.001975,0.000110,  21.239
   651.4,0.000603,0.000436,0.002044,0.000072,  21.243
   651.6,0.000603,0.000438,0.002074,0.000110,  21.245
   651.8,0.000606,0.000443,0.002086,0.000110,  21.241
   652.0,0.000603,0.000442,0.002074,0.000072,  21.245
   652.2,0.000600,0.000445,0.002094,0.000110,  21.241
   652.4,0.000600,0.000442,0.002116,0.000147,  21.238
   652.6,0.000597,0.000442,0.002154,0.000110,  21.239
   652.8,0.000594,0.000438,0.002006,0.000123,  21.240
   653.0,0.000594,0.000438,0.001720,0.000160,  21.237
   653.2,0.000597,0.000442,0.001362,0.000123,  21.242
   653.4,0.000600,0.000439,0.001324,0.000136,  21.242
   653.6,0.000593,0.000434,0.001392,0.000160,  21.239
   653.8,0.000593,0.000430,0.001579,0.000123,  21.241
   654.0,0.000593,0.000422,0.000917,0.000136,  21.241
   654.2,0.000582,0.000424,-0.000115,0.000123,  21.239
   654.4,0.000584,0.000429,-0.001491,0.000085,  21.241
   654.6,0.000584,0.000424,-0.001472,0.000136,  21.238
   654.8,0.000576,0.000419,-0.000970,0.000123,  21.242
   655.0,0.000587,0.000417,0.000033,0.000085,  21.236
   655.2,0.000591,0.000418,0.000389,0.000136,  21.239
